|-------------------------------------------------------------------------|
|   File Name : in_temp.dat
|   Subject   : temperature profiles used for initial guess atmosphere
|   File Type : input of gmtr
|   Data Type : atmospherical data
|   Author/s  : WRF-Chem
|   Date      : Fri Jul 26 15:39:24 2024
|-------------------------------------------------------------------------|

 WRF-Chem temperature
#
 values of T (K)    (8f10.5)
#
 354.97500 345.04800 334.58700 324.11500 313.32600 302.53700 291.65000 280.76700
 269.93100 259.19300 248.62200 238.61700 229.08700 220.35500 212.54000 205.53500
 199.46400 194.49300 191.14300 189.19000 188.08900 188.01400 188.72400 189.90600
 191.46900 193.38200 195.40300 197.55600 199.80700 202.06000 204.28800 206.47900
 208.55200 210.37800 212.02500 213.65900 214.99800 216.11800 217.17200 218.25900
 219.49400 220.64500 221.67900 222.61400 223.54500 224.98200 226.57100 228.19000
 229.79700 231.81100 233.86500 235.97200 238.24200 240.55300 242.89900 245.25300
 247.48800 249.53500 251.36600 252.84800 254.09800 255.16700 256.02700 256.25300
 256.09500 255.54300 253.93500 252.56600 251.38400 250.24500 249.05200 247.70100
 246.01600 243.99600 241.78400 239.39300 236.81300 234.22300 231.65800 229.14400
 226.74000 224.47300 222.33500 220.32500 218.44000 216.67700 214.96200 213.47200
 212.20000 211.10800 210.26000 209.63900 209.24400 209.03100 209.05800 209.33300
 209.78400 210.62600 211.33100 212.39100 213.62500 214.84668 217.72949 219.47640
 220.32566 220.86828 220.88710 220.27371 219.43733 218.84250 219.04934 220.86203
 222.60583 225.72206 229.03064 232.61777 236.12270 239.51333 242.70767 245.68587
 248.41061 250.90679 253.19353 254.91714 256.48655 257.94920 259.39966 260.69384
 261.81714 262.77997 263.71679 264.54570 265.26305 265.89772 266.47676 267.00133
 267.47312 267.89325 268.26027 268.72800
 366.78100 356.33500 345.76700 334.63300 323.03600 311.23000 299.10000 286.90300
 274.61500 262.51200 250.52100 239.82200 229.94400 221.04800 213.23000 206.23200
 200.06600 195.00400 191.58600 189.62800 188.66500 188.72900 189.56400 190.87200
 192.59700 194.69200 196.95500 199.31400 201.75900 204.23900 206.32700 208.16900
 209.79500 210.94000 211.16900 211.39700 211.33400 211.03900 210.67200 210.30200
 209.91900 209.62900 209.43700 209.30100 209.22900 209.56000 209.94600 210.33500
 211.12800 212.30600 213.55600 215.33900 217.26700 219.31000 221.40500 223.48800
 225.54800 227.63200 229.72900 231.83500 233.96400 236.13600 238.39200 240.76200
 243.38300 245.63400 247.63600 249.40100 250.81800 251.94100 252.76300 253.07900
 253.11600 252.89000 252.25000 251.19800 249.80400 247.96500 245.87400 243.70700
 241.49800 239.30200 237.12200 234.96100 232.82100 230.68800 228.71400 226.87100
 225.15400 223.62600 222.25600 221.02800 219.91000 218.87000 217.97400 217.11500
 216.35700 215.53700 214.63500 213.99900 213.44900 212.85855 212.01316 212.61654
 214.26826 216.08686 218.14273 220.53346 223.40855 226.78828 231.49734 235.90155
 239.42278 243.28576 247.23140 251.11907 254.80144 258.23331 261.38913 264.27520
 266.89312 269.26852 271.44504 273.08845 274.58484 275.98591 277.39845 278.65879
 279.75272 280.69038 281.56708 282.34086 283.01050 283.60295 284.14348 284.63317
 285.07358 285.46577 285.80838 286.24500
 381.81900 372.39900 361.20600 349.77600 337.62200 324.85300 311.81000 298.35300
 284.86000 271.32400 258.56100 246.30400 236.08700 226.79600 218.44800 211.29000
 205.52200 200.89400 197.38100 194.84800 193.01500 192.31500 192.25000 192.43100
 192.91200 193.53700 194.13600 194.71200 195.26200 195.83100 196.39300 196.97600
 197.60400 198.14900 198.58400 199.05700 199.69500 200.37800 201.05400 201.70800
 202.31300 202.85700 203.35500 203.86200 204.56900 205.29700 206.02600 206.98700
 208.19300 209.44100 210.96900 212.57600 214.46200 216.51300 218.63000 220.85300
 223.34100 225.96200 228.73900 231.69700 234.70600 237.70600 240.69200 243.65700
 246.73700 249.69900 252.52100 255.06300 257.29000 259.23300 260.63300 261.68000
 262.46100 262.79800 262.69100 262.22400 261.06900 259.52500 257.70700 255.50700
 253.00100 250.30200 247.39800 244.45200 241.65400 239.05400 236.73300 234.59000
 232.59500 230.72500 228.83400 226.82600 224.66600 222.38700 220.10400 217.71500
 215.45900 213.06600 210.54600 208.09300 205.35400 202.08130 196.05959 200.71215
 209.01611 216.90438 223.84126 229.78593 235.00632 240.20838 245.98943 250.68668
 254.32982 257.93487 261.55666 264.96801 268.15192 271.06452 273.76717 276.25691
 278.57680 280.74479 282.77456 284.60533 286.27232 287.81705 289.31715 290.65561
 291.81734 292.81312 293.70701 294.49387 295.17482 295.77730 296.32696 296.82492
 297.27278 297.67160 298.02000 298.46400
 399.33000 389.90700 379.81300 368.66800 357.52200 345.30100 333.07400 320.22700
 307.21600 293.84800 280.37600 267.29600 254.61000 242.98700 232.15100 221.97700
 212.67200 204.28600 197.66900 192.82100 189.48600 187.45200 186.81400 187.08900
 187.78100 189.05400 190.64800 192.54200 194.63000 196.75200 198.67100 200.15800
 201.53500 202.48700 202.97500 203.34000 203.53900 203.49700 203.38500 203.24700
 203.00500 202.78600 202.60300 202.43700 202.42600 202.88800 203.42000 203.95100
 204.89500 205.99200 207.30100 208.95800 210.73800 213.10000 215.56400 218.18000
 220.96600 223.91800 226.96100 230.09200 233.29300 236.55700 239.95500 243.53700
 246.84500 249.39000 251.54200 253.47400 255.19500 256.48400 257.43100 258.05900
 258.21200 258.04000 257.58200 256.64300 255.23900 253.50700 251.40800 249.05600
 246.57600 243.99400 241.38900 238.83000 236.34400 233.98600 231.96900 230.11800
 228.42300 226.89900 225.54800 224.29700 223.10500 221.96500 220.95800 220.11300
 219.49000 218.92000 218.32500 217.88100 217.42300 216.96366 216.35568 216.80261
 217.73415 218.28582 218.64258 219.10077 220.44626 222.53987 226.38451 230.35736
 233.59734 237.39164 241.29814 245.22796 248.98002 252.51130 255.78595 258.80109
 261.54781 264.05210 266.34239 268.04198 269.58951 271.01303 272.35754 273.55718
 274.59842 275.49092 276.28989 276.99307 277.60161 278.14001 278.63122 279.07623
 279.47646 279.83287 280.14422 280.54100
 399.73800 389.78500 379.66200 368.15100 356.64100 344.35000 331.79200 318.88800
 305.72600 292.49300 279.20900 266.73800 254.69600 244.21100 234.45700 225.43300
 217.56900 210.45100 204.30000 199.30600 195.45800 192.57600 191.02700 190.38600
 190.23900 190.53400 191.16600 191.92500 192.79500 193.76600 194.73200 195.31200
 195.80000 196.05200 196.11500 196.11500 196.03900 195.72300 195.34000 194.98900
 194.75100 194.79200 195.13300 195.59800 196.50600 198.13600 199.85800 201.56600
 204.17900 206.82300 209.89300 213.28400 216.82800 220.60500 224.38700 228.20900
 232.03200 235.82500 239.56000 243.25800 246.84500 250.20100 253.70900 257.46800
 261.53000 264.22100 266.60100 268.68100 270.32900 271.74100 272.83600 273.47400
 273.89800 274.00200 273.75700 273.28800 272.37100 271.10000 269.58900 267.77900
 265.81600 263.72100 261.39300 258.91600 256.29800 253.42300 250.33100 247.11400
 243.83700 240.52900 237.24900 233.99900 230.72800 227.51500 224.25400 220.95200
 217.62700 213.65600 210.12100 206.78900 204.01000 201.99491 199.07309 198.76551
 199.40006 200.48994 201.46112 202.31912 203.45100 204.96110 207.47502 210.85391
 213.70530 217.29629 220.99574 224.72316 228.28753 231.64854 234.68024 237.40893
 239.70644 241.60899 243.46854 245.67368 247.68154 249.52395 251.24767 252.78566
 254.12057 255.26479 256.23740 257.09036 257.82852 258.48160 259.07744 259.61723
 260.10271 260.53504 260.91270 261.39400
 399.73800 389.78500 379.66200 368.15100 356.64100 344.35000 331.79200 318.88800
 305.72600 292.49300 279.20900 266.73800 254.69600 244.21100 234.45700 225.43300
 217.56900 210.45100 204.30000 199.30600 195.45800 192.57600 191.02700 190.38600
 190.23900 190.53400 191.16600 191.92500 192.79500 193.76600 194.73200 195.31200
 195.80000 196.05200 196.11500 196.11500 196.03900 195.72300 195.34000 194.98900
 194.75100 194.79200 195.13300 195.59800 196.50600 198.13600 199.85800 201.56600
 204.17900 206.82300 209.89300 213.28400 216.82800 220.60500 224.38700 228.20900
 232.03200 235.82500 239.56000 243.25800 246.84500 250.20100 253.70900 257.46800
 261.53000 264.22100 266.60100 268.68100 270.32900 271.74100 272.83600 273.47400
 273.89800 274.00200 273.75700 273.28800 272.37100 271.10000 269.58900 267.77900
 265.81600 263.72100 261.39300 258.91600 256.29800 253.42300 250.33100 247.11400
 243.83700 240.52900 237.24900 233.99900 230.72800 227.51500 224.25400 220.95200
 217.62700 213.65600 210.12100 206.78900 204.01000 201.99491 199.07309 198.76551
 199.40006 200.48994 201.46112 202.31912 203.45100 204.96110 207.47502 210.85391
 213.70530 217.29629 220.99574 224.72316 228.28753 231.64854 234.68024 237.40893
 239.70644 241.60899 243.46854 245.67368 247.68154 249.52395 251.24767 252.78566
 254.12057 255.26479 256.23740 257.09036 257.82852 258.48160 259.07744 259.61723
 260.10271 260.53504 260.91270 261.39400
 399.33000 389.90700 379.81300 368.66800 357.52200 345.30100 333.07400 320.22700
 307.21600 293.84800 280.37600 267.29600 254.61000 242.98700 232.15100 221.97700
 212.67200 204.28600 197.66900 192.82100 189.48600 187.45200 186.81400 187.08900
 187.78100 189.05400 190.64800 192.54200 194.63000 196.75200 198.67100 200.15800
 201.53500 202.48700 202.97500 203.34000 203.53900 203.49700 203.38500 203.24700
 203.00500 202.78600 202.60300 202.43700 202.42600 202.88800 203.42000 203.95100
 204.89500 205.99200 207.30100 208.95800 210.73800 213.10000 215.56400 218.18000
 220.96600 223.91800 226.96100 230.09200 233.29300 236.55700 239.95500 243.53700
 246.84500 249.39000 251.54200 253.47400 255.19500 256.48400 257.43100 258.05900
 258.21200 258.04000 257.58200 256.64300 255.23900 253.50700 251.40800 249.05600
 246.57600 243.99400 241.38900 238.83000 236.34400 233.98600 231.96900 230.11800
 228.42300 226.89900 225.54800 224.29700 223.10500 221.96500 220.95800 220.11300
 219.49000 218.92000 218.32500 217.88100 217.42300 216.96366 216.35568 216.80261
 217.73415 218.28582 218.64258 219.10077 220.44626 222.53987 226.38451 230.35736
 233.59734 237.39164 241.29814 245.22796 248.98002 252.51130 255.78595 258.80109
 261.54781 264.05210 266.34239 268.04198 269.58951 271.01303 272.35754 273.55718
 274.59842 275.49092 276.28989 276.99307 277.60161 278.14001 278.63122 279.07623
 279.47646 279.83287 280.14422 280.54100
 381.81900 372.39900 361.20600 349.77600 337.62200 324.85300 311.81000 298.35300
 284.86000 271.32400 258.56100 246.30400 236.08700 226.79600 218.44800 211.29000
 205.52200 200.89400 197.38100 194.84800 193.01500 192.31500 192.25000 192.43100
 192.91200 193.53700 194.13600 194.71200 195.26200 195.83100 196.39300 196.97600
 197.60400 198.14900 198.58400 199.05700 199.69500 200.37800 201.05400 201.70800
 202.31300 202.85700 203.35500 203.86200 204.56900 205.29700 206.02600 206.98700
 208.19300 209.44100 210.96900 212.57600 214.46200 216.51300 218.63000 220.85300
 223.34100 225.96200 228.73900 231.69700 234.70600 237.70600 240.69200 243.65700
 246.73700 249.69900 252.52100 255.06300 257.29000 259.23300 260.63300 261.68000
 262.46100 262.79800 262.69100 262.22400 261.06900 259.52500 257.70700 255.50700
 253.00100 250.30200 247.39800 244.45200 241.65400 239.05400 236.73300 234.59000
 232.59500 230.72500 228.83400 226.82600 224.66600 222.38700 220.10400 217.71500
 215.45900 213.06600 210.54600 208.09300 205.35400 202.08130 196.05959 200.71215
 209.01611 216.90438 223.84126 229.78593 235.00632 240.20838 245.98943 250.68668
 254.32982 257.93487 261.55666 264.96801 268.15192 271.06452 273.76717 276.25691
 278.57680 280.74479 282.77456 284.60533 286.27232 287.81705 289.31715 290.65561
 291.81734 292.81312 293.70701 294.49387 295.17482 295.77730 296.32696 296.82492
 297.27278 297.67160 298.02000 298.46400
 366.78100 356.34620 345.78939 334.66659 323.08079 311.28598 299.16718 286.98138
 274.70458 262.61277 250.63297 239.94517 230.07836 221.19356 213.38676 206.39995
 200.24515 195.19435 191.78755 189.84074 188.88894 188.96414 189.81033 191.12953
 192.86573 194.97192 197.24612 199.61632 202.07251 204.56371 206.66291 208.51611
 210.15330 211.30950 211.54970 211.78889 211.73709 211.45329 211.09748 210.73868
 210.36688 210.08807 209.90727 209.78247 209.72167 210.06386 210.46106 210.86126
 211.66545 212.85465 214.11585 215.91004 217.84924 219.90344 222.00964 224.10383
 226.17503 228.27023 230.37842 232.49562 234.63582 236.81901 239.08621 241.46741
 244.09960 246.36180 248.37500 250.15120 251.57939 252.71359 253.54679 253.87398
 253.92218 253.70738 253.07857 252.03777 250.65497 248.82717 246.74736 244.59156
 242.39376 240.20895 238.04015 235.89035 233.76154 231.63974 229.67694 227.84513
 226.13933 224.62253 223.26373 222.04692 220.94012 219.91132 219.02651 218.17871
 217.43191 216.62310 215.73230 215.10750 214.56870 213.60374 211.32658 210.49272
 211.47261 213.30435 215.41249 216.99460 219.26500 223.31161 229.12724 234.22928
 238.07613 241.80603 245.49991 249.33401 253.38498 256.76746 259.41275 261.68259
 264.54712 267.31482 269.65741 271.64838 273.43231 275.13068 276.75644 278.43466
 280.17401 281.80313 283.28641 284.63852 285.81818 286.86588 287.82382 288.69528
 289.48691 290.19748 290.82227 291.65234
 366.78100 356.34540 345.78780 334.66420 323.07760 311.28201 299.16241 286.97581
 274.69821 262.60561 250.62501 239.93641 230.06881 221.18321 213.37561 206.38802
 200.23242 195.18082 191.77322 189.82562 188.87302 188.94742 189.79282 191.11122
 192.84663 194.95203 197.22543 199.59483 202.05023 204.54063 206.63903 208.49143
 210.12783 211.28323 211.52264 211.76104 211.70844 211.42384 211.06724 210.70764
 210.33504 210.05544 209.87384 209.74825 209.68665 210.02805 210.42445 210.82385
 211.62725 212.81565 214.07605 215.86945 217.80785 219.86126 221.96666 224.06006
 226.13046 228.22486 230.33226 232.44866 234.58806 236.77046 239.03687 241.41727
 244.04867 246.31007 248.32247 250.09787 251.52527 252.65867 253.49107 253.81747
 253.86488 253.64928 253.01968 251.97808 250.59448 248.76588 246.68528 244.52868
 242.33008 240.14449 237.97489 235.82429 233.69469 231.57209 229.60849 227.77589
 226.06929 224.55169 223.19209 221.97450 220.86690 219.83730 218.95170 218.10310
 217.35550 216.54590 215.65430 215.02870 214.48911 213.57445 211.41571 210.65350
 211.54973 213.41580 215.53311 216.99352 219.17270 223.21948 229.05936 234.13933
 237.97249 241.70293 245.41357 249.27609 253.36382 256.69324 259.27747 261.56674
 264.43732 267.22440 269.58984 271.56964 273.31528 274.98209 276.62537 278.32593
 280.06796 281.69641 283.18365 284.53818 285.71765 286.76468 287.72375 288.59708
 289.38812 290.09799 290.72540 291.55560
 366.78100 356.34435 345.78571 334.66106 323.07341 311.27677 299.15612 286.96847
 274.68983 262.59618 250.61453 239.92489 230.05624 221.16959 213.36095 206.37230
 200.21565 195.16301 191.75436 189.80571 188.85207 188.92542 189.76977 191.08713
 192.82148 194.92583 197.19819 199.56654 202.02089 204.51025 206.60760 208.45895
 210.09431 211.24866 211.48702 211.72437 211.67072 211.38508 211.02743 210.66678
 210.29314 210.01249 209.82984 209.70320 209.64055 209.98090 210.37626 210.77461
 211.57696 212.76432 214.02367 215.81602 217.75338 219.80573 221.91008 224.00244
 226.07179 228.16514 230.27150 232.38685 234.52520 236.70656 238.97191 241.35126
 243.98162 246.24197 248.25332 250.02768 251.45403 252.58638 253.41774 253.74309
 253.78944 253.57280 252.94215 251.89950 250.51486 248.68521 246.60356 244.44592
 242.24627 240.05962 237.88898 235.73733 233.60668 231.48304 229.51839 227.68474
 225.97710 224.45845 223.09780 221.87916 220.77051 219.73986 218.85322 218.00357
 217.25492 216.44428 215.55163 214.92498 214.38434 213.53023 211.51408 210.80830
 211.62550 213.52534 215.63583 217.03821 219.09430 223.13351 228.99237 234.04961
 237.86789 241.59615 245.32256 249.21371 253.33485 256.60947 259.13507 261.44647
 264.32147 267.12799 269.52072 271.49402 273.20496 274.84064 276.50040 278.22046
 279.96548 281.59259 283.08408 284.44055 285.62033 286.66882 287.62738 288.50107
 289.29282 290.00336 290.63147 291.46347
 366.78100 356.34294 345.78289 334.65683 323.06777 311.26971 299.14766 286.95860
 274.67854 262.58348 250.60043 239.90937 230.03931 221.15125 213.34120 206.35114
 200.19308 195.13902 191.72897 189.77891 188.82385 188.89579 189.73874 191.05468
 192.78762 194.89056 197.16151 199.52845 201.98139 204.46933 206.56528 208.41522
 210.04916 211.20210 211.43905 211.67499 211.61993 211.33287 210.97382 210.61176
 210.23670 209.95464 209.77059 209.64253 209.57847 209.91742 210.31136 210.70830
 211.50924 212.69519 213.95313 215.74407 217.68001 219.73096 221.83390 223.92484
 225.99278 228.08473 230.18967 232.30361 234.44055 236.62050 238.88444 241.26238
 243.89132 246.15027 248.16021 249.93315 251.35809 252.48904 253.31898 253.64292
 253.68786 253.46981 252.83775 251.79369 250.40763 248.57658 246.49352 244.33446
 242.13340 239.94535 237.77329 235.62023 233.48817 231.36312 229.39706 227.56200
 225.85294 224.33289 222.97083 221.75077 220.64072 219.60866 218.72060 217.86954
 217.11949 216.30743 215.41337 214.78531 214.24326 213.46616 211.63142 210.94437
 211.70610 213.63524 215.71938 217.11040 219.04114 223.05614 228.93156 233.96016
 237.76051 241.48355 245.22725 249.14951 253.29608 256.51819 258.99121 261.32697
 264.20255 267.02582 269.44641 271.41486 273.09680 274.70673 276.38138 278.12100
 279.86807 281.49496 282.99045 284.34650 285.52658 286.57532 287.53445 288.40958
 289.20267 289.91293 290.54037 291.37289
 366.78100 356.34152 345.78004 334.65256 323.06208 311.26260 299.13912 286.94863
 274.66715 262.57067 250.58619 239.89371 230.02223 221.13275 213.32127 206.32979
 200.17031 195.11483 191.70335 189.75187 188.79538 188.86590 189.70742 191.02194
 192.75346 194.85498 197.12450 199.49002 201.94154 204.42806 206.52258 208.37110
 210.00361 211.15513 211.39065 211.62517 211.56869 211.28021 210.91973 210.55625
 210.17977 209.89629 209.71081 209.58133 209.51585 209.85336 210.24588 210.64140
 211.44092 212.62544 213.88196 215.67148 217.60600 219.65552 221.75704 223.84656
 225.91308 228.00360 230.10711 232.21963 234.35515 236.53367 238.79619 241.17271
 243.80023 246.05775 248.06627 249.83779 251.26131 252.39083 253.21935 253.54186
 253.58538 253.36590 252.73242 251.68694 250.29946 248.46698 246.38250 244.22202
 242.01954 239.83006 237.65658 235.50209 233.36861 231.24213 229.27465 227.43817
 225.72769 224.20621 222.84273 221.62125 220.50977 219.47629 218.58681 217.73433
 216.98284 216.16936 215.27388 214.64440 214.10092 213.40057 211.74675 211.07172
 211.79453 213.74716 215.79576 217.17734 219.00961 222.98866 228.87712 233.87199
 237.65317 241.37161 245.13531 249.08803 253.24797 256.42084 258.84647 261.20627
 264.07852 266.91473 269.36044 271.32788 272.98871 274.58124 276.27185 278.02994
 279.77576 281.40329 282.90134 284.25830 285.43948 286.48834 287.44788 288.32162
 289.11685 289.82574 290.45462 291.29117
 366.78100 356.34030 345.77761 334.64891 323.05721 311.25651 299.13182 286.94012
 274.65742 262.55973 250.57403 239.88033 230.00764 221.11694 213.30424 206.31154
 200.15085 195.09415 191.68145 189.72876 188.77106 188.84036 189.68066 190.99397
 192.72427 194.82457 197.09288 199.45718 201.90748 204.39279 206.48609 208.33339
 209.96469 211.11500 211.34930 211.58260 211.52491 211.23521 210.87351 210.50881
 210.13112 209.84642 209.65972 209.52903 209.46233 209.79863 210.18994 210.58424
 211.38254 212.56584 213.82115 215.60945 217.54275 219.59106 221.69136 223.77966
 225.84496 227.93427 230.03657 232.14787 234.28218 236.45948 238.72078 241.09609
 243.72239 245.97869 247.98599 249.75630 251.17860 252.30690 253.13421 253.45551
 253.49781 253.27711 252.64242 251.59572 250.20702 248.37333 246.28763 244.12593
 241.92224 239.73154 237.55684 235.40114 233.26645 231.13875 229.17005 227.33236
 225.62066 224.09796 222.73326 221.51057 220.39787 219.36317 218.47248 217.61878
 216.86608 216.05139 215.15469 214.52399 213.97929 213.34506 211.84711 211.19568
 211.89481 213.85959 215.87090 217.23566 218.98715 222.93282 228.82614 233.78331
 237.54787 241.26613 245.05293 249.03114 253.19217 256.31680 258.70004 261.08163
 263.94650 266.79037 269.25943 271.22913 272.88281 274.46832 276.17361 277.94577
 279.68930 281.31580 282.81793 284.17511 285.35672 286.40491 287.36591 288.24213
 289.03445 289.74619 290.37488 291.21136
 366.78100 356.33938 345.77575 334.64613 323.05350 311.25188 299.12625 286.93363
 274.65000 262.55138 250.56476 239.87013 229.99651 221.10488 213.29126 206.29763
 200.13601 195.07838 191.66476 189.71113 188.75251 188.82089 189.66026 190.97264
 192.70201 194.80139 197.06876 199.43214 201.88151 204.36589 206.45827 208.30464
 209.93502 211.08439 211.31777 211.55014 211.49152 211.20089 210.83827 210.47264
 210.09402 209.80840 209.62077 209.48915 209.42152 209.75690 210.14727 210.54065
 211.33802 212.52040 213.77478 215.56215 217.49453 219.54190 221.64128 223.72865
 225.79303 227.88140 229.98278 232.09316 234.22653 236.40291 238.66328 241.03766
 243.66303 245.91841 247.92478 249.69416 251.11553 252.24291 253.06929 253.38966
 253.43104 253.20941 252.57379 251.52616 250.13654 248.30191 246.21529 244.05267
 241.84804 239.65642 237.48079 235.32417 233.18854 231.05992 229.09029 227.25167
 225.53904 224.01542 222.64980 221.42617 220.31255 219.27692 218.38530 217.53067
 216.77705 215.96142 215.06380 214.43218 213.88655 213.30432 211.92908 211.31973
 212.00346 213.96910 215.95274 217.28796 218.97632 222.88663 228.77280 233.69478
 237.44780 241.17021 244.98013 248.97737 253.12732 256.20694 258.55530 260.95642
 263.80795 266.65173 269.13959 271.11612 272.77551 274.36884 276.08853 277.87000
 279.60858 281.23373 282.73822 284.09647 285.27838 286.32733 287.28870 288.16330
 288.95782 289.67007 290.30115 291.13657
 366.78100 356.33865 345.77431 334.64396 323.05062 311.24827 299.12193 286.92858
 274.64423 262.54489 250.55754 239.86220 229.98785 221.09550 213.28116 206.28681
 200.12447 195.06612 191.65178 189.69743 188.73808 188.80574 189.64439 190.95605
 192.68470 194.78336 197.05001 199.41266 201.86132 204.34497 206.43663 208.28228
 209.91194 211.06059 211.29324 211.52490 211.46555 211.17421 210.81086 210.44451
 210.06517 209.77882 209.59048 209.45813 209.38979 209.72444 210.11409 210.50675
 211.30340 212.48506 213.73871 215.52537 217.45702 219.50367 221.60233 223.68898
 225.75264 227.84029 229.94095 232.05060 234.18325 236.35891 238.61856 240.99222
 243.61687 245.87152 247.87718 249.64583 251.06649 252.19314 253.01880 253.33845
 253.37910 253.15676 252.52041 251.47207 250.08172 248.24638 246.15903 243.99568
 241.79034 239.59799 237.42165 235.26430 233.12795 230.99861 229.02826 227.18892
 225.47557 223.95123 222.58488 221.36053 220.24619 219.20984 218.31750 217.46215
 216.70781 215.89146 214.99311 214.36077 213.81442 213.27478 211.99995 211.43619
 212.12061 214.07607 216.04350 217.34457 218.96927 222.85289 228.72028 233.60603
 237.34758 241.07791 244.91312 248.92575 253.05426 256.09293 258.41589 260.83524
 263.66492 266.50024 268.99881 270.98483 272.66318 274.27905 276.01422 277.80020
 279.53525 281.15512 282.66422 284.02344 285.20654 286.25510 287.21582 288.09247
 288.88699 289.59995 290.23035 291.06885
 366.78100 356.33816 345.77331 334.64247 323.04862 311.24578 299.11893 286.92509
 274.64024 262.54040 250.55255 239.85671 229.98186 221.08902 213.27418 206.27933
 200.11649 195.05764 191.64280 189.68795 188.72811 188.79526 189.63342 190.94457
 192.67273 194.77089 197.03704 199.39920 201.84735 204.33051 206.42166 208.26682
 209.89597 211.04413 211.27628 211.50744 211.44759 211.15575 210.79191 210.42506
 210.04522 209.75837 209.56953 209.43668 209.36784 209.70199 210.09115 210.48330
 211.27946 212.46062 213.71377 215.49993 217.43108 219.47724 221.57539 223.66155
 225.72470 227.81186 229.91201 232.02117 234.15332 236.32848 238.58764 240.96079
 243.58495 245.83910 247.84426 249.61241 251.03257 252.15872 252.98388 253.30303
 253.34319 253.12035 252.48350 251.43466 250.04381 248.20797 246.12012 243.95628
 241.75043 239.55759 237.38074 235.22290 233.08605 230.95621 228.98537 227.14552
 225.43168 223.90683 222.53999 221.31514 220.20030 219.16345 218.27061 217.41476
 216.65992 215.84308 214.94423 214.31139 213.76454 213.25754 212.05971 211.54463
 212.23546 214.19139 216.13972 217.39375 218.98877 222.82475 228.66116 233.51743
 237.25003 240.99265 244.85446 248.87788 252.97264 255.97299 258.27982 260.71747
 263.51804 266.33517 268.83957 270.83713 272.54718 274.19901 275.94977 277.73520
 279.46664 281.08157 282.59485 283.95593 285.13849 286.18893 287.15027 288.02682
 288.82211 289.53519 290.16495 291.00723
 366.78100 356.33784 345.77267 334.64151 323.04735 311.24418 299.11702 286.92286
 274.63769 262.53753 250.54937 239.85320 229.97804 221.08488 213.26972 206.27455
 200.11139 195.05223 191.63706 189.68190 188.72174 188.78857 189.62641 190.93725
 192.66508 194.76292 197.02876 199.39059 201.83843 204.32127 206.41210 208.25694
 209.88578 211.03361 211.26545 211.49629 211.43613 211.14396 210.77980 210.41264
 210.03247 209.74531 209.55615 209.42298 209.35382 209.68766 210.07649 210.46833
 211.26417 212.44500 213.69784 215.48368 217.41451 219.46035 221.55819 223.64402
 225.70686 227.79370 229.89354 232.00237 234.13421 236.30905 238.56788 240.94072
 243.56456 245.81839 247.82323 249.59107 251.01090 252.13674 252.96158 253.28041
 253.32025 253.09709 252.45992 251.41076 250.01960 248.18343 246.09527 243.93111
 241.72495 239.53178 237.35462 235.19646 233.05929 230.92913 228.95797 227.11780
 225.40364 223.87848 222.51131 221.28615 220.17099 219.13382 218.24066 217.38450
 216.62933 215.81217 214.91301 214.27984 213.73268 213.25096 212.11282 211.64461
 212.35042 214.29959 216.25656 217.45386 218.99600 222.81223 228.61009 233.43504
 237.15530 240.90878 244.79805 248.83037 252.87843 255.84349 258.14468 260.60260
 263.36893 266.15967 268.66544 270.67929 272.43210 274.12845 275.89291 277.67584
 279.40375 281.01172 282.53165 283.89206 285.07553 286.12701 287.08847 287.96631
 288.75922 289.47501 290.10318 290.95044
 366.78100 356.33788 345.77276 334.64164 323.04752 311.24440 299.11728 286.92316
 274.63804 262.53792 250.54980 239.85367 229.97855 221.08543 213.27031 206.27519
 200.11207 195.05295 191.63783 189.68271 188.72259 188.78947 189.62735 190.93823
 192.66611 194.76399 197.02987 199.39175 201.83963 204.32251 206.41339 208.25827
 209.88715 211.03502 211.26690 211.49778 211.43766 211.14554 210.78142 210.41430
 210.03418 209.74706 209.55794 209.42482 209.35570 209.68958 210.07846 210.47034
 211.26622 212.44710 213.69998 215.48586 217.41674 219.46262 221.56050 223.64637
 225.70925 227.79613 229.89601 232.00489 234.13677 236.31165 238.57053 240.94341
 243.56729 245.82117 247.82605 249.59393 251.01381 252.13969 252.96457 253.28345
 253.32333 253.10021 252.46309 251.41397 250.02284 248.18672 246.09860 243.93448
 241.72836 239.53524 237.35812 235.20000 233.06288 230.93276 228.96164 227.12152
 225.40740 223.88228 222.51516 221.29004 220.17492 219.13780 218.24468 217.38856
 216.63344 215.81632 214.91719 214.28407 213.73695 213.26495 212.14980 211.72864
 212.48180 214.44830 216.34344 217.49535 219.05197 222.79095 228.54326 233.33684
 237.05046 240.82166 244.74498 248.78537 252.77943 255.71416 258.01855 260.49591
 263.22156 265.97812 268.48090 270.51471 272.31982 274.06873 275.84558 277.61914
 279.34286 280.94543 282.47098 283.83295 285.01788 286.06842 287.03146 287.90802
 288.70447 289.41968 290.05103 290.89655
 366.78100 356.33808 345.77317 334.64225 323.04834 311.24542 299.11851 286.92459
 274.63968 262.53976 250.55185 239.85593 229.98102 221.08810 213.27319 206.27827
 200.11536 195.05644 191.64153 189.68661 188.72670 188.79378 189.63187 190.94295
 192.67104 194.76912 197.03521 199.39729 201.84538 204.32846 206.41955 208.26463
 209.89372 211.04180 211.27389 211.50497 211.44506 211.15314 210.78923 210.42231
 210.04240 209.75548 209.56657 209.43365 209.36474 209.69882 210.08791 210.47999
 211.27608 212.45716 213.71025 215.49633 217.42742 219.47350 221.57159 223.65767
 225.72076 227.80784 229.90793 232.01701 234.14910 236.32418 238.58327 240.95635
 243.58043 245.83452 247.83960 249.60769 251.02777 252.15386 252.97894 253.29803
 253.33811 253.11520 252.47828 251.42937 250.03845 248.20254 246.11462 243.95071
 241.74479 239.55188 237.37496 235.21705 233.08013 230.95022 228.97930 227.13939
 225.42547 223.90056 222.53364 221.30873 220.19381 219.15690 218.26398 217.40807
 216.65315 215.83624 214.93732 214.30441 213.75749 213.29051 212.18723 211.78908
 212.63615 214.60089 216.46400 217.50145 219.01054 222.78706 228.49211 233.25160
 236.96019 240.75108 244.70729 248.75020 252.67848 255.58276 257.89667 260.39191
 263.07336 265.79001 268.28583 270.34354 272.20795 274.01672 275.80508 277.56519
 279.28305 280.88425 282.41318 283.77585 284.96069 286.01190 286.97690 287.85413
 288.64987 289.36685 289.99622 290.84686
 366.78100 356.33565 345.76830 334.63495 323.03860 311.23325 299.10390 286.90755
 274.62020 262.51785 250.52751 239.82916 229.95181 221.05646 213.23911 206.24176
 200.07641 195.01506 191.59771 189.64036 188.67801 188.74266 189.57831 190.88696
 192.61261 194.70826 196.97191 199.33156 201.77721 204.25787 206.34652 208.18917
 209.81582 210.96147 211.19112 211.41977 211.35742 211.06307 210.69672 210.32737
 209.94502 209.65567 209.46432 209.32897 209.25762 209.58927 209.97592 210.36558
 211.15923 212.33788 213.58853 215.37218 217.30083 219.34448 221.44013 223.52378
 225.58443 227.66908 229.76673 231.87338 234.00303 236.17568 238.43233 240.80298
 243.42463 245.67628 247.67894 249.44459 250.86224 251.98589 252.80854 253.12519
 253.16284 252.93749 252.29814 251.24679 249.85344 248.01509 245.92474 243.75839
 241.55004 239.35469 237.17534 235.01499 232.87564 230.74330 228.76995 226.92760
 225.21125 223.68390 222.31455 221.08720 219.96985 218.93050 218.03515 217.17680
 216.41945 215.60010 214.69875 214.06340 213.51405 213.17934 212.38855 211.85539
 212.61884 214.70789 216.62201 217.61052 219.07436 222.76837 228.43962 233.16267
 236.86308 240.67671 244.66849 248.71255 252.56508 255.44133 257.77524 260.29187
 262.92828 265.60107 268.08566 270.16693 272.09280 273.96454 275.76416 277.51059
 279.21786 280.82843 282.36069 283.72537 284.91006 285.96234 286.92633 287.80600
 288.60117 289.31656 289.94730 290.79688
 366.78100 356.33429 345.76559 334.63088 323.03318 311.22647 299.09577 286.89806
 274.60935 262.50565 250.51394 239.81424 229.93553 221.03883 213.22012 206.22141
 200.05471 194.99200 191.57330 189.61459 188.65089 188.71418 189.54848 190.85577
 192.58006 194.67436 196.93665 199.29495 201.73924 204.21854 206.30583 208.14712
 209.77242 210.91671 211.14501 211.37230 211.30860 211.01289 210.64518 210.27448
 209.89077 209.60007 209.40736 209.27066 209.19795 209.52824 209.91354 210.30183
 211.09413 212.27142 213.52072 215.30301 217.23031 219.27260 221.36689 223.44919
 225.50848 227.59178 229.68807 231.79337 233.92166 236.09295 238.34825 240.71754
 243.33784 245.58813 247.58943 249.35372 250.77001 251.89231 252.71360 253.02890
 253.06519 252.83849 252.19778 251.14507 249.75037 247.91066 245.81896 243.65125
 241.44155 239.24484 237.06414 234.90243 232.76172 230.62802 228.65331 226.80961
 225.09190 223.56320 222.19249 220.96378 219.84508 218.80437 217.90767 217.04796
 216.28926 215.46855 214.56584 213.92914 213.37843 213.12544 212.52774 211.91240
 212.63501 214.83989 216.77499 217.72993 219.14998 222.72594 228.38046 233.06998
 236.76285 240.60361 244.63307 248.67680 252.45036 255.30193 257.66287 260.19998
 262.79068 265.41293 267.88065 269.98508 271.97302 273.91055 275.72217 277.45126
 279.14771 280.77563 282.31149 283.67569 284.86221 285.91479 286.87970 287.75885
 288.55560 289.27109 289.90292 290.75607
 366.78100 356.33367 345.76434 334.62901 323.03068 311.22335 299.09202 286.89369
 274.60436 262.50003 250.50769 239.80736 229.92803 221.03070 213.21137 206.21204
 200.04471 194.98138 191.56205 189.60272 188.63839 188.70106 189.53473 190.84140
 192.56507 194.65874 196.92041 199.27808 201.72175 204.20042 206.28708 208.12775
 209.75242 210.89609 211.12376 211.35043 211.28610 210.98977 210.62144 210.25011
 209.86578 209.57445 209.38112 209.24379 209.17046 209.50013 209.88480 210.27247
 211.06414 212.24080 213.48947 215.27114 217.19781 219.23948 221.33315 223.41482
 225.47349 227.55616 229.65183 231.75650 233.88417 236.05484 238.30951 240.67818
 243.29785 245.54752 247.54819 249.31186 250.72752 251.84919 252.66986 252.98453
 253.02020 252.79287 252.15154 251.09821 249.70288 247.86255 245.77022 243.60189
 241.39156 239.19423 237.01290 234.85057 232.70924 230.57491 228.59958 226.75525
 225.03691 223.50758 222.13625 220.90692 219.78759 218.74626 217.84893 216.98860
 216.22927 215.40794 214.50461 213.86728 213.31595 213.10933 212.62117 211.97128
 212.70564 214.96432 216.90466 217.82787 219.20123 222.70166 228.32195 232.98106
 236.67287 240.54184 244.60855 248.64870 252.33763 255.16289 257.54944 260.10349
 262.64920 265.22003 267.66788 269.79901 271.85513 273.86292 275.68643 277.39792
 279.08279 280.72223 282.26077 283.62674 284.81345 285.86734 286.83286 287.71097
 288.50977 289.22614 289.85764 290.71463
 366.78100 356.33320 345.76341 334.62761 323.02881 311.22102 299.08922 286.89042
 274.60062 262.49583 250.50303 239.80223 229.92244 221.02464 213.20484 206.20505
 200.03725 194.97345 191.55365 189.59386 188.62906 188.69126 189.52447 190.83067
 192.55387 194.64708 196.90828 199.26548 201.70868 204.18689 206.27309 208.11329
 209.73750 210.88070 211.10790 211.33411 211.26931 210.97251 210.60371 210.23192
 209.84712 209.55532 209.36153 209.22373 209.14993 209.47914 209.86334 210.25054
 211.04175 212.21795 213.46615 215.24735 217.17356 219.21476 221.30796 223.38917
 225.44737 227.52957 229.62478 231.72898 233.85618 236.02638 238.28059 240.64879
 243.26799 245.51720 247.51740 249.28060 250.69581 251.81701 252.63721 252.95141
 252.98662 252.75882 252.11702 251.06323 249.66743 247.82663 245.73384 243.56504
 241.35424 239.15644 236.97465 234.81185 232.67005 230.53526 228.55946 226.71466
 224.99587 223.46607 222.09427 220.86448 219.74468 218.70288 217.80508 216.94429
 216.18449 215.36269 214.45890 213.82110 213.26930 213.10208 212.70700 212.02451
 212.79494 215.08611 217.00864 217.91406 219.25928 222.69070 228.27162 232.90076
 236.59262 240.49057 244.58998 248.62183 252.21837 255.01118 257.42233 259.99475
 262.50211 265.02557 267.45853 269.62280 271.74838 273.82535 275.66052 277.35446
 279.02457 280.66925 282.21179 283.57758 284.76474 285.81964 286.78650 287.66559
 288.46432 289.17993 289.81250 290.67166
 366.78100 356.33286 345.76272 334.62658 323.02744 311.21930 299.08715 286.88801
 274.59787 262.49273 250.49959 239.79845 229.91831 221.02017 213.20003 206.19989
 200.03175 194.96760 191.54746 189.58732 188.62218 188.68404 189.51690 190.82276
 192.54562 194.63848 196.89934 199.25620 201.69905 204.17691 206.26277 208.10263
 209.72649 210.86935 211.09621 211.32207 211.25693 210.95979 210.59065 210.21850
 209.83336 209.54122 209.34708 209.20894 209.13480 209.46366 209.84752 210.23438
 211.02524 212.20110 213.44895 215.22981 217.15567 219.19653 221.28939 223.37025
 225.42811 227.50997 229.60483 231.70869 233.83555 236.00540 238.25926 240.62712
 243.24598 245.49484 247.49470 249.25756 250.67242 251.79328 252.61314 252.92700
 252.96185 252.73371 252.09157 251.03743 249.64129 247.80015 245.70701 243.53787
 241.32673 239.12859 236.94645 234.78330 232.64116 230.50602 228.52988 226.68474
 224.96560 223.43546 222.06332 220.83318 219.71304 218.67090 217.77275 216.91161
 216.15147 215.32933 214.42519 213.78705 213.23491 213.10190 212.78763 212.07567
 212.89789 215.21147 217.07915 217.99469 219.34760 222.68823 228.22902 232.82684
 236.51884 240.44391 244.56929 248.58537 252.08197 254.83879 257.27957 259.87714
 262.35733 264.84116 267.26370 269.46457 271.65540 273.79495 275.63943 277.31708
 278.96783 280.61823 282.16113 283.52850 284.71725 285.77240 286.73880 287.61917
 288.41650 289.13516 289.76520 290.62952
 366.78100 356.33246 345.76192 334.62538 323.02584 311.21731 299.08477 286.88523
 274.59469 262.48915 250.49561 239.79407 229.91353 221.01499 213.19446 206.19392
 200.02538 194.96084 191.54030 189.57976 188.61422 188.67568 189.50815 190.81361
 192.53607 194.62853 196.88899 199.24545 201.68791 204.16537 206.25083 208.09030
 209.71376 210.85622 211.08268 211.30814 211.24260 210.94506 210.57552 210.20298
 209.81745 209.52491 209.33037 209.19183 209.11729 209.44575 209.82921 210.21567
 211.00613 212.18160 213.42906 215.20952 217.13498 219.17544 221.26790 223.34836
 225.40582 227.48729 229.58175 231.68521 233.81167 235.98113 238.23459 240.60205
 243.22051 245.46897 247.46844 249.23090 250.64536 251.76582 252.58528 252.89874
 252.93320 252.70466 252.06212 251.00759 249.61105 247.76951 245.67597 243.50643
 241.29489 239.09635 236.91381 234.75027 232.60774 230.47220 228.49566 226.65012
 224.93058 223.40004 222.02750 220.79696 219.67643 218.63389 217.73535 216.87381
 216.11327 215.29073 214.38619 213.74765 213.19511 213.09933 212.87305 212.12241
 213.00330 215.33849 217.13115 218.07710 219.45728 222.69228 228.19112 232.76018
 236.45088 240.39867 244.54173 248.53290 251.92664 254.64903 257.12573 259.75546
 262.22018 264.67157 267.08743 269.32504 271.57321 273.76724 275.61893 277.28479
 278.92273 280.56708 282.11093 283.47876 284.66757 285.72388 286.69110 287.57266
 288.37036 289.08606 289.72025 290.58466
 366.78100 356.33195 345.76091 334.62386 323.02382 311.21477 299.08173 286.88168
 274.59064 262.48459 250.49054 239.78850 229.90745 221.00841 213.18736 206.18632
 200.01727 194.95222 191.53118 189.57013 188.60409 188.66504 189.49700 190.80195
 192.52391 194.61586 196.87581 199.23177 201.67372 204.15068 206.23563 208.07459
 209.69754 210.83950 211.06545 211.29040 211.22436 210.92631 210.55627 210.18322
 209.79718 209.50413 209.30908 209.17004 209.09499 209.42295 209.80590 210.19186
 210.98181 212.15677 213.40372 215.18367 217.10863 219.14858 221.24054 223.32049
 225.37745 227.45840 229.55236 231.65531 233.78126 235.95022 238.20317 240.57013
 243.18808 245.43604 247.43499 249.19694 250.61090 251.73085 252.54981 252.86276
 252.89672 252.66767 252.02463 250.96958 249.57253 247.73049 245.63644 243.46640
 241.25435 239.05531 236.87226 234.70821 232.56517 230.42912 228.45208 226.60603
 224.88599 223.35494 221.98190 220.75085 219.62980 218.58676 217.68771 216.82567
 216.06462 215.24158 214.33653 213.69749 213.14444 213.09129 212.96570 212.16753
 213.10144 215.46109 217.18468 218.17055 219.57269 222.70053 228.15756 232.70149
 236.38785 240.35255 244.50481 248.46404 251.75711 254.44803 256.96371 259.62808
 262.08685 264.51425 266.92780 269.20352 271.50354 273.74390 275.59930 277.24997
 278.87009 280.51913 282.06403 283.43213 284.62180 285.67792 286.64609 287.52673
 288.32635 289.04337 289.67645 290.54315
 366.78100 356.33141 345.75982 334.62223 323.02163 311.21204 299.07845 286.87786
 274.58627 262.47968 250.48509 239.78250 229.90090 221.00131 213.17972 206.17813
 200.00854 194.94295 191.52136 189.55977 188.59317 188.65358 189.48499 190.78940
 192.51081 194.60222 196.86163 199.21704 201.65844 204.13485 206.21926 208.05767
 209.68008 210.82149 211.04690 211.27131 211.20471 210.90612 210.53553 210.16194
 209.77535 209.48176 209.28617 209.14658 209.07098 209.39839 209.78080 210.16621
 210.95562 212.13003 213.37644 215.15585 217.08025 219.11966 221.21107 223.29048
 225.34689 227.42730 229.52071 231.62312 233.74852 235.91693 238.16934 240.53575
 243.15316 245.40057 247.39898 249.16039 250.57379 251.69320 252.51161 252.82402
 252.85743 252.62784 251.98425 250.92866 249.53106 247.68847 245.59388 243.42329
 241.21070 239.01111 236.82752 234.66293 232.51933 230.38274 228.40515 226.55856
 224.83797 223.30638 221.93279 220.70120 219.57960 218.53601 217.63642 216.77383
 216.01224 215.18865 214.28306 213.64347 213.08987 213.08109 213.06035 212.22015
 213.19182 215.57341 217.24274 218.27614 219.69109 222.71040 228.13040 232.65097
 236.32790 240.30521 244.45976 248.38205 251.57948 254.24025 256.79202 259.48932
 261.95044 264.36563 266.78427 269.09970 271.44608 273.72522 275.58594 277.22427
 278.83710 280.46988 282.01389 283.38370 284.57278 285.63052 286.59836 287.47974
 288.27875 288.99634 289.62970 290.49960
 366.78100 356.33081 345.75862 334.62044 323.01925 311.20906 299.07487 286.87368
 274.58150 262.47431 250.47912 239.77593 229.89374 220.99356 213.17137 206.16918
 199.99899 194.93280 191.51062 189.54843 188.58124 188.64105 189.47186 190.77568
 192.49649 194.58730 196.84611 199.20092 201.64174 204.11755 206.20136 208.03917
 209.66098 210.80180 211.02661 211.25042 211.18323 210.88404 210.51285 210.13867
 209.75148 209.45729 209.26110 209.12091 209.04473 209.37154 209.75335 210.13816
 210.92697 212.10079 213.34660 215.12541 217.04922 219.08803 221.17885 223.25766
 225.31347 227.39328 229.48609 231.58791 233.71272 235.88053 238.13234 240.49815
 243.11497 245.36178 247.35959 249.12040 250.53321 251.65203 252.46984 252.78165
 252.81446 252.58427 251.94009 250.88390 249.48571 247.64252 245.54733 243.37615
 241.16296 238.96277 236.77858 234.61339 232.46921 230.33202 228.35383 226.50664
 224.78545 223.25327 221.87908 220.64689 219.52470 218.48051 217.58033 216.71714
 215.95495 215.13076 214.22457 213.58439 213.03020 213.06749 213.15556 212.28242
 213.27972 215.67152 217.29128 218.38577 219.81606 222.72641 228.11195 232.60844
 236.27496 240.26295 244.41238 248.29099 251.39520 254.02361 256.60605 259.33307
 261.80630 264.22290 266.65823 269.01715 271.40445 273.71289 275.57831 277.20917
 278.82593 280.42224 281.96478 283.33374 284.52335 285.58182 286.54999 287.43149
 288.23145 288.94736 289.58054 290.45041
 366.78100 356.33016 345.75731 334.61847 323.01662 311.20578 299.07093 286.86909
 274.57624 262.46840 250.47255 239.76871 229.88586 220.98502 213.16217 206.15933
 199.98848 194.92164 191.49879 189.53595 188.56810 188.62726 189.45742 190.76057
 192.48073 194.57088 196.82904 199.18319 201.62335 204.09850 206.18166 208.01881
 209.63997 210.78012 211.00428 211.22743 211.15959 210.85974 210.48790 210.11305
 209.72521 209.43036 209.23352 209.09268 209.01583 209.34199 209.72314 210.10730
 210.89545 212.06861 213.31376 215.09192 217.01507 219.05323 221.14338 223.22154
 225.27669 227.35585 229.44800 231.54916 233.67331 235.84047 238.09162 240.45678
 243.07293 245.31909 247.31625 249.07640 250.48856 251.60671 252.42387 252.73502
 252.76718 252.53633 251.89149 250.83464 249.43580 247.59195 245.49611 243.32426
 241.11042 238.90957 236.72473 234.55888 232.41404 230.27619 228.29735 226.44951
 224.72766 223.19482 221.81997 220.58713 219.46428 218.41944 217.51859 216.65475
 215.89190 215.06706 214.16021 213.51937 212.96452 213.04956 213.25049 212.35706
 213.37012 215.75377 217.31956 218.48779 219.95135 222.74721 228.10161 232.57307
 236.23181 240.23058 244.36626 248.19286 251.20396 253.79735 256.40536 259.15906
 261.65549 264.08972 266.55185 268.95654 271.37915 273.70605 275.56857 277.18582
 278.79956 280.38678 281.92746 283.29739 284.48828 285.54724 286.51431 287.39484
 288.19632 288.91199 289.54602 290.41388
 366.78100 356.32938 345.75575 334.61613 323.01351 311.20188 299.06626 286.86363
 274.57001 262.46139 250.46476 239.76014 229.87652 220.97489 213.15127 206.14765
 199.97602 194.90840 191.48478 189.52115 188.55253 188.61090 189.44028 190.74266
 192.46203 194.55141 196.80879 199.16216 201.60154 204.07592 206.15829 207.99467
 209.61505 210.75442 210.97780 211.20017 211.13155 210.83093 210.45830 210.08268
 209.69406 209.39843 209.20081 209.05919 208.98156 209.30694 209.68732 210.07069
 210.85807 212.03044 213.27482 215.05220 216.97457 219.01195 221.10133 223.17870
 225.23308 227.31146 229.40283 231.50321 233.62659 235.79296 238.04334 240.40771
 243.02309 245.26847 247.26484 249.02422 250.43560 251.55297 252.36935 252.67973
 252.71110 252.47948 251.83386 250.77623 249.37661 247.53198 245.43536 243.26274
 241.04811 238.84649 236.66087 234.49424 232.34862 230.21000 228.23037 226.38175
 224.65913 223.12550 221.74988 220.51625 219.39263 218.34701 217.44538 216.58076
 215.81714 214.99151 214.08389 213.44227 212.88664 213.02402 213.34859 212.44455
 213.46397 215.82990 217.32489 218.56551 220.08026 222.78166 228.09990 232.54787
 236.20396 240.21278 244.32561 248.08846 251.00583 253.56209 256.19031 258.96902
 261.49899 263.96542 266.46469 268.91776 271.36911 273.70572 275.55832 277.16034
 278.76282 280.35754 281.90045 283.27008 284.46179 285.51981 286.48715 287.36792
 288.16678 288.88287 289.51807 290.38467
 366.78100 356.32854 345.75408 334.61362 323.01016 311.19770 299.06124 286.85778
 274.56332 262.45386 250.45641 239.75095 229.86649 220.96403 213.13957 206.13511
 199.96265 194.89419 191.46973 189.50527 188.53581 188.59335 189.42189 190.72343
 192.44197 194.53051 196.78705 199.13959 201.57814 204.05168 206.13322 207.96876
 209.58830 210.72684 210.94938 211.17092 211.10146 210.80000 210.42654 210.05008
 209.66062 209.36416 209.16570 209.02324 208.94478 209.26932 209.64887 210.03141
 210.81795 211.98949 213.23303 215.00957 216.93111 218.96765 221.05619 223.13273
 225.18627 227.26381 229.35435 231.45389 233.57643 235.74197 237.99151 240.35505
 242.96960 245.21414 247.20968 248.96822 250.37876 251.49530 252.31084 252.62038
 252.65092 252.41846 251.77200 250.71354 249.31308 247.46762 245.37016 243.19670
 240.98124 238.77878 236.59232 234.42487 232.27841 230.13895 228.15849 226.30903
 224.58557 223.05111 221.67465 220.44019 219.31573 218.26927 217.36681 216.50135
 215.73689 214.91043 214.00197 213.35951 212.80305 212.99409 213.44548 212.54500
 213.57298 215.88802 217.29716 218.63857 220.22417 222.81638 228.09995 232.53285
 236.18520 240.20441 244.28448 247.97128 250.79646 253.31947 255.96594 258.76880
 261.34238 263.85394 266.39893 268.89703 271.37122 273.71036 275.55109 277.13919
 278.73087 280.33459 281.87817 283.24802 284.43930 285.49728 286.46478 287.34564
 288.14481 288.86072 289.49487 290.35858
 366.78100 356.32760 345.75221 334.61081 323.00641 311.19302 299.05562 286.85122
 274.55582 262.44543 250.44703 239.74063 229.85524 220.95184 213.12644 206.12105
 199.94765 194.87825 191.45285 189.48746 188.51706 188.57366 189.40127 190.70187
 192.41947 194.50708 196.76268 199.11428 201.55189 204.02449 206.10509 207.93969
 209.55830 210.69590 210.91750 211.13811 211.06771 210.76531 210.39092 210.01352
 209.62312 209.32572 209.12633 208.98293 208.90353 209.22714 209.60574 209.98734
 210.77295 211.94355 213.18615 214.96176 216.88236 218.91796 221.00556 223.08117
 225.13377 227.21037 229.29998 231.39858 233.52018 235.68479 237.93339 240.29599
 242.90960 245.15320 247.14780 248.90540 250.31501 251.43061 252.24521 252.55382
 252.58342 252.35002 251.70263 250.64323 249.24183 247.39543 245.29704 243.12264
 240.90624 238.70285 236.51545 234.34705 232.19966 230.05926 228.07786 226.22747
 224.50307 222.96767 221.59027 220.35488 219.22948 218.18208 217.27869 216.41229
 215.64689 214.81950 213.91010 213.26670 212.70930 212.95792 213.54527 212.64847
 213.68761 215.97902 217.27348 218.64470 220.29897 222.86119 228.09734 232.52640
 236.18095 240.21150 244.25159 247.85751 250.59988 253.09085 255.74658 258.56671
 261.18515 263.74884 266.34161 268.88278 271.37558 273.71194 275.53961 277.11761
 278.70721 280.31247 281.85568 283.22705 284.41797 285.47568 286.44244 287.32477
 288.12238 288.84055 289.47168 290.33389
 366.78100 356.32719 345.75138 334.60957 323.00476 311.19095 299.05314 286.84834
 274.55253 262.44172 250.44291 239.73610 229.85029 220.94648 213.12067 206.11486
 199.94105 194.87124 191.44543 189.47962 188.50882 188.56501 189.39220 190.69239
 192.40958 194.49677 196.75196 199.10315 201.54034 204.01253 206.09272 207.92691
 209.54510 210.68229 210.90349 211.12368 211.05287 210.75006 210.37525 209.99744
 209.60663 209.30882 209.10901 208.96520 208.88539 209.20858 209.58677 209.96797
 210.75316 211.92335 213.16554 214.94073 216.86092 218.89611 220.98330 223.05849
 225.11068 227.18687 229.27606 231.37425 233.49545 235.65964 237.90783 240.27002
 242.88321 245.12640 247.12059 248.87778 250.28697 251.40216 252.21635 252.52454
 252.55373 252.31993 251.67212 250.61231 249.21050 247.36369 245.26488 243.09007
 240.87326 238.66945 236.48164 234.31283 232.16502 230.02421 228.04240 226.19160
 224.46679 222.93098 221.55317 220.31736 219.19155 218.14374 217.23993 216.37312
 215.60731 214.77950 213.86969 213.22588 212.66808 212.94414 213.59636 212.85339
 213.80154 215.97203 217.15227 218.65610 220.43582 222.90439 228.11378 232.56311
 236.20511 240.24117 244.23332 247.75020 250.41002 252.86166 255.51578 258.34631
 261.01151 263.63721 266.28387 268.86856 271.38147 273.71243 275.52301 277.09210
 278.68219 280.29181 281.83371 283.20453 284.39575 285.45358 286.42078 287.30023
 288.09821 288.81570 289.44757 290.30658
 366.78100 356.33069 345.75839 334.62008 323.01877 311.20846 299.07416 286.87285
 274.58054 262.47323 250.47793 239.77462 229.89231 220.99200 213.16970 206.16739
 199.99708 194.93078 191.50847 189.54616 188.57885 188.63855 189.46924 190.77293
 192.49362 194.58432 196.84301 199.19770 201.63839 204.11409 206.19778 208.03547
 209.65716 210.79786 211.02255 211.24624 211.17894 210.87963 210.50832 210.13401
 209.74671 209.45240 209.25609 209.11578 209.03948 209.36617 209.74786 210.13255
 210.92125 212.09494 213.34063 215.11933 217.04302 219.08171 221.17240 223.25110
 225.30679 227.38648 229.47917 231.58087 233.70556 235.87325 238.12494 240.49064
 243.10733 245.35402 247.35171 249.11241 250.52510 251.64379 252.46149 252.77318
 252.80587 252.57556 251.93126 250.87495 249.47664 247.63333 245.53803 243.36672
 241.15341 238.95310 236.76880 234.60349 232.45918 230.32188 228.34357 226.49626
 224.77495 223.24265 221.86834 220.63603 219.51372 218.46942 217.56911 216.70580
 215.94349 215.11919 214.21288 213.57257 213.01826 213.12337 213.37167 213.27272
 214.07654 215.69740 216.91180 218.68156 220.63562 223.08722 228.14619 232.60625
 236.23923 240.27498 244.21007 247.62286 250.19556 252.60634 255.26057 258.10596
 260.82959 263.52847 266.23743 268.86728 271.39624 273.71768 275.50986 277.06744
 278.63977 280.28134 281.81873 283.18674 284.37558 285.43192 286.39798 287.27731
 288.07657 288.79132 289.42288 290.27795
 366.78100 356.33160 345.76021 334.62281 323.02242 311.21302 299.07963 286.87923
 274.58783 262.48144 250.48704 239.78465 229.90325 221.00385 213.18246 206.18106
 200.01167 194.94627 191.52488 189.56348 188.59708 188.65769 189.48929 190.79390
 192.51550 194.60711 196.86671 199.22231 201.66392 204.14052 206.22513 208.06373
 209.68633 210.82794 211.05354 211.27815 211.21175 210.91336 210.54296 210.16956
 209.78317 209.48977 209.29438 209.15498 209.07959 209.40719 209.78979 210.17540
 210.96500 212.13961 213.38621 215.16581 217.09042 219.13002 221.22163 223.30123
 225.35784 227.43844 229.53204 231.63465 233.76025 235.92886 238.18146 240.54807
 243.16567 245.41327 247.41188 249.17348 250.58709 251.70669 252.52529 252.83790
 252.87150 252.64211 251.99871 250.94332 249.54592 247.70352 245.60913 243.43873
 241.22634 239.02694 236.84355 234.67915 232.53575 230.39936 228.42196 226.57557
 224.85517 223.32377 221.95038 220.71898 219.59759 218.55419 217.65480 216.79240
 216.03100 215.20761 214.30221 213.66282 213.10942 213.17975 213.34589 213.46715
 214.27731 215.56699 216.82080 218.71216 220.78114 223.27351 228.17091 232.63487
 236.26912 240.30162 244.17369 247.47397 249.96170 252.33894 255.00185 257.86859
 260.66080 263.43985 266.20969 268.87885 271.41724 273.72366 275.49548 277.04156
 278.60696 280.26401 281.80121 283.16641 284.35352 285.41010 286.37628 287.25388
 288.05084 288.76688 289.39810 290.24884
 366.78100 356.33170 345.76040 334.62310 323.02281 311.21351 299.08021 286.87991
 274.58861 262.48231 250.48802 239.78572 229.90442 221.00512 213.18382 206.18252
 200.01322 194.94793 191.52663 189.56533 188.59903 188.65973 189.49143 190.79614
 192.51784 194.60954 196.86924 199.22494 201.66664 204.14335 206.22805 208.06675
 209.68945 210.83115 211.05685 211.28155 211.21526 210.91696 210.54666 210.17336
 209.78706 209.49376 209.29847 209.15917 209.08387 209.41157 209.79427 210.17997
 210.96967 212.14438 213.39108 215.17078 217.09548 219.13518 221.22688 223.30659
 225.36329 227.44399 229.53769 231.64039 233.76609 235.93480 238.18750 240.55420
 243.17190 245.41960 247.41830 249.18000 250.59371 251.71341 252.53211 252.84481
 252.87851 252.64921 252.00592 250.95062 249.55332 247.71102 245.61672 243.44642
 241.23412 239.03483 236.85153 234.68723 232.54393 230.40763 228.43033 226.58404
 224.86374 223.33244 221.95914 220.72784 219.60654 218.56324 217.66395 216.80165
 216.04035 215.21705 214.31175 213.67245 213.11916 213.19481 213.37357 213.62099
 214.42630 215.52483 216.81168 218.71376 220.84914 223.42247 228.18996 232.65425
 236.29848 240.32758 244.13441 247.32129 249.73135 252.08371 254.75877 257.64899
 260.50912 263.36420 266.18832 268.88834 271.43030 273.71872 275.46805 277.00735
 278.54895 280.25061 281.78955 283.15201 284.33817 285.39029 286.35406 287.23047
 288.02689 288.74097 289.37338 290.21933
 366.78100 356.33207 345.76113 334.62420 323.02426 311.21533 299.08239 286.88246
 274.59152 262.48559 250.49165 239.78972 229.90878 221.00985 213.18891 206.18798
 200.01905 194.95411 191.53318 189.57224 188.60631 188.66737 189.49944 190.80450
 192.52657 194.61863 196.87870 199.23476 201.67683 204.15389 206.23896 208.07803
 209.70109 210.84316 211.06922 211.29429 211.22835 210.93042 210.56048 210.18755
 209.80161 209.50868 209.31374 209.17481 209.09987 209.42794 209.81101 210.19707
 210.98714 212.16220 213.40927 215.18933 217.11440 219.15446 221.24653 223.32659
 225.38366 227.46472 229.55879 231.66185 233.78792 235.95699 238.21005 240.57712
 243.19518 245.44325 247.44231 249.20438 250.61844 251.73851 252.55757 252.87064
 252.90470 252.67577 252.03283 250.97790 249.58096 247.73903 245.64510 243.47516
 241.26323 239.06429 236.88136 234.71742 232.57449 230.43855 228.46162 226.61568
 224.89575 223.36481 221.99188 220.76094 219.64001 218.59708 217.69814 216.83621
 216.07527 215.25234 214.34740 213.70847 213.15553 213.22432 213.38683 213.80090
 214.56026 215.48509 216.80675 218.71169 220.89384 223.54651 228.21057 232.66983
 236.32826 240.35310 244.09390 247.16972 249.50893 251.84181 254.52931 257.44165
 260.36575 263.29095 266.16190 268.88861 271.43466 273.70670 275.43561 276.97302
 278.51556 280.22778 281.76575 283.12708 284.31219 285.36462 286.32828 287.20398
 287.99893 288.71341 289.34369 290.18878
 366.78100 356.33239 345.76178 334.62517 323.02556 311.21695 299.08434 286.88473
 274.59412 262.48851 250.49490 239.79329 229.91268 221.01407 213.19346 206.19285
 200.02424 194.95963 191.53902 189.57841 188.61280 188.67419 189.50658 190.81197
 192.53436 194.62675 196.88714 199.24354 201.68593 204.16332 206.24871 208.08810
 209.71149 210.85388 211.08027 211.30566 211.24005 210.94244 210.57283 210.20022
 209.81461 209.52200 209.32739 209.18878 209.11417 209.44256 209.82595 210.21234
 211.00273 212.17812 213.42551 215.20590 217.13129 219.17168 221.26407 223.34446
 225.40185 227.48324 229.57763 231.68102 233.80741 235.97680 238.23019 240.59758
 243.21597 245.46436 247.46375 249.22614 250.64053 251.76092 252.58031 252.89370
 252.92809 252.69948 252.05687 251.00226 249.60565 247.76404 245.67043 243.50082
 241.28922 239.09061 236.90800 234.74439 232.60178 230.46617 228.48956 226.64395
 224.92434 223.39373 222.02112 220.79051 219.66990 218.62729 217.72868 216.86707
 216.10646 215.28385 214.37924 213.74063 213.18802 213.25372 213.40894 213.97672
 214.69823 215.46149 216.78816 218.71451 220.93214 223.64835 228.22925 232.68063
 236.35469 240.37463 244.04929 247.01645 249.28728 251.60222 254.30461 257.23953
 260.22519 263.21649 266.13080 268.88470 271.43890 273.69797 275.41193 276.94815
 278.53131 280.17957 281.72095 283.08789 284.27570 285.33206 286.29349 287.17261
 287.96640 288.67987 289.31033 290.14761
 366.78100 356.33250 345.76201 334.62551 323.02601 311.21752 299.08502 286.88552
 274.59503 262.48953 250.49604 239.79454 229.91404 221.01555 213.19505 206.19455
 200.02606 194.96156 191.54106 189.58057 188.61507 188.67657 189.50908 190.81458
 192.53709 194.62959 196.89009 199.24660 201.68910 204.16660 206.25211 208.09161
 209.71511 210.85762 211.08412 211.30962 211.24413 210.94663 210.57714 210.20464
 209.81914 209.52665 209.33215 209.19365 209.11916 209.44766 209.83116 210.21767
 211.00817 212.18367 213.43118 215.21168 217.13719 219.17769 221.27019 223.35070
 225.40820 227.48970 229.58421 231.68771 233.81421 235.98372 238.23722 240.60472
 243.22323 245.47173 247.47124 249.23374 250.64824 251.76875 252.58825 252.90175
 252.93626 252.70776 252.06526 251.01077 249.61427 247.77277 245.67928 243.50978
 241.29828 239.09979 236.91729 234.75380 232.61130 230.47580 228.49931 226.65381
 224.93431 223.40382 222.03132 220.80082 219.68033 218.63783 217.73933 216.87784
 216.11734 215.29485 214.39035 213.75185 213.19936 213.27425 213.45120 214.13002
 214.84406 215.47688 216.76357 218.70724 220.95459 223.73366 228.24663 232.69017
 236.37746 240.39024 243.99602 246.85323 249.05623 251.35822 254.08150 257.04510
 260.09314 263.14661 266.10275 268.88358 271.44519 273.69296 275.39377 276.92642
 278.51477 280.13818 281.68173 283.05267 284.24072 285.29730 286.25967 287.13602
 287.93066 288.64441 289.27142 290.11014
 366.78100 356.33250 345.76200 334.62550 323.02599 311.21749 299.08499 286.88549
 274.59499 262.48949 250.49599 239.79448 229.91398 221.01548 213.19498 206.19448
 200.02598 194.96147 191.54097 189.58047 188.61497 188.67647 189.50897 190.81447
 192.53696 194.62946 196.88996 199.24646 201.68896 204.16646 206.25196 208.09145
 209.71495 210.85745 211.08395 211.30945 211.24395 210.94645 210.57694 210.20444
 209.81894 209.52644 209.33194 209.19344 209.11894 209.44743 209.83093 210.21743
 211.00793 212.18343 213.43093 215.21142 217.13692 219.17742 221.26992 223.35042
 225.40792 227.48942 229.58391 231.68741 233.81391 235.98341 238.23691 240.60441
 243.22291 245.47140 247.47090 249.23340 250.64790 251.76840 252.58790 252.90140
 252.93589 252.70739 252.06489 251.01039 249.61389 247.77239 245.67888 243.50938
 241.29788 239.09938 236.91688 234.75338 232.61088 230.47537 228.49887 226.65337
 224.93387 223.40337 222.03087 220.80037 219.67986 218.63736 217.73886 216.87736
 216.11686 215.29436 214.38986 213.75135 213.19885 213.29044 213.50682 214.26624
 214.98988 215.52866 216.75194 218.69229 220.96437 223.80933 228.26210 232.69870
 236.39188 240.38815 243.91769 246.66409 248.80583 251.10837 253.86545 256.86746
 259.98038 263.09189 266.08212 268.88403 271.44815 273.68439 275.37939 276.90982
 278.49121 280.09680 281.63794 283.00839 284.19714 285.25183 286.21469 287.09122
 287.88467 288.59552 289.22662 290.05832
 366.78100 356.33253 345.76206 334.62560 323.02613 311.21766 299.08519 286.88572
 274.59526 262.48979 250.49632 239.79485 229.91439 221.01592 213.19545 206.19498
 200.02651 194.96205 191.54158 189.58111 188.61564 188.67717 189.50971 190.81524
 192.53777 194.63030 196.89083 199.24737 201.68990 204.16743 206.25296 208.09249
 209.71603 210.85856 211.08509 211.31062 211.24516 210.94769 210.57822 210.20575
 209.82028 209.52782 209.33335 209.19488 209.12041 209.44894 209.83248 210.21901
 211.00954 212.18507 213.43260 215.21314 217.13867 219.17920 221.27173 223.35227
 225.40980 227.49133 229.58586 231.68939 233.81593 235.98546 238.23899 240.60652
 243.22505 245.47359 247.47312 249.23565 250.65018 251.77071 252.59025 252.90378
 252.93831 252.70984 252.06738 251.01291 249.61644 247.77497 245.68150 243.51204
 241.30057 239.10210 236.91963 234.75616 232.61370 230.47823 228.50176 226.65629
 224.93682 223.40636 222.03389 220.80342 219.68295 218.64048 217.74202 216.88055
 216.12008 215.29761 214.39315 213.75468 213.20221 213.31081 213.56740 214.39439
 215.13092 215.59724 216.77280 218.69420 220.97450 223.87102 228.27266 232.69945
 236.39120 240.35609 243.79982 246.43951 248.53680 250.86014 253.66595 256.71585
 259.89096 263.05045 266.06454 268.87860 271.44537 273.67191 275.36160 276.88760
 278.46155 280.05566 281.59650 282.96640 284.15704 285.21320 286.17673 287.05615
 287.85593 288.57516 289.20892 290.03781
 366.78100 356.33271 345.76242 334.62613 323.02684 311.21855 299.08625 286.88696
 274.59667 262.49138 250.49809 239.79680 229.91651 221.01822 213.19793 206.19764
 200.02935 194.96505 191.54476 189.58447 188.61918 188.68089 189.51360 190.81931
 192.54202 194.63473 196.89544 199.25215 201.69485 204.17256 206.25827 208.09798
 209.72169 210.86440 211.09111 211.31682 211.25153 210.95424 210.58495 210.21265
 209.82736 209.53507 209.34078 209.20249 209.12820 209.45691 209.84062 210.22733
 211.01804 212.19375 213.44145 215.22216 217.14787 219.18858 221.28129 223.36200
 225.41971 227.50142 229.59613 231.69984 233.82655 235.99625 238.24996 240.61767
 243.23638 245.48509 247.48480 249.24751 250.66222 251.78293 252.60264 252.91635
 252.95105 252.72276 252.08047 251.02618 249.62989 247.78860 245.69531 243.52602
 241.31473 239.11644 236.93415 234.77086 232.62856 230.49327 228.51698 226.67169
 224.95240 223.42211 222.04982 220.81953 219.69924 218.65695 217.75866 216.89736
 216.13707 215.31478 214.41049 213.77220 213.21991 213.34032 213.62479 214.52132
 215.26912 215.66631 216.82193 218.73032 220.99068 223.91029 228.27480 232.69237
 236.37581 240.29578 243.64680 246.18797 248.26074 250.62144 253.48466 256.58658
 259.81686 263.01266 266.04013 268.86575 271.44189 273.67236 275.36313 276.86932
 278.41708 280.00076 281.53931 282.90991 284.10089 285.15561 286.12057 287.00092
 287.80112 288.52063 289.15289 289.98306
 366.78100 356.33287 345.76274 334.62662 323.02749 311.21936 299.08723 286.88810
 274.59797 262.49285 250.49972 239.79859 229.91846 221.02033 213.20020 206.20008
 200.03195 194.96782 191.54769 189.58756 188.62244 188.68431 189.51718 190.82305
 192.54592 194.63879 196.89967 199.25654 201.69941 204.17728 206.26315 208.10302
 209.72690 210.86977 211.09664 211.32251 211.25738 210.96025 210.59113 210.21900
 209.83387 209.54174 209.34761 209.20949 209.13536 209.46423 209.84810 210.23497
 211.02584 212.20172 213.44959 215.23046 217.15633 219.19720 221.29007 223.37095
 225.42882 227.51069 229.60556 231.70943 233.83631 236.00618 238.26005 240.62792
 243.24679 245.49566 247.49554 249.25841 250.67328 251.79415 252.61402 252.92789
 252.96277 252.73464 252.09251 251.03838 249.64225 247.80113 245.70800 243.53887
 241.32774 239.12961 236.94748 234.78436 232.64223 230.50710 228.53097 226.68584
 224.96671 223.43659 222.06446 220.83433 219.71420 218.67207 217.77395 216.91282
 216.15269 215.33056 214.42643 213.78830 213.23618 213.37051 213.68790 214.64238
 215.40482 215.73242 216.88629 218.79149 221.00949 223.93918 228.27829 232.68875
 236.35405 240.21432 243.46646 245.91678 247.97874 250.38640 253.31230 256.47012
 259.75006 262.97046 266.00604 268.84521 271.43842 273.68488 275.39374 276.88571
 278.38812 279.92490 281.45837 282.82733 284.01810 285.07419 286.03918 286.91937
 287.72079 288.44092 289.07614 289.90524
 366.78100 356.33267 345.76235 334.62602 323.02669 311.21837 299.08604 286.88671
 274.59639 262.49106 250.49773 239.79641 229.91608 221.01775 213.19743 206.19710
 200.02877 194.96445 191.54412 189.58379 188.61847 188.68014 189.51281 190.81849
 192.54116 194.63383 196.89451 199.25118 201.69385 204.17153 206.25720 208.09688
 209.72055 210.86322 211.08990 211.31557 211.25024 210.95292 210.58359 210.21126
 209.82594 209.53361 209.33928 209.20096 209.12663 209.45530 209.83898 210.22565
 211.01632 212.19200 213.43967 215.22034 217.14602 219.18669 221.27936 223.36004
 225.41771 227.49938 229.59406 231.69773 233.82440 235.99408 238.24775 240.61542
 243.23410 245.48277 247.48244 249.24512 250.65979 251.78046 252.60014 252.91381
 252.94848 252.72016 252.07783 251.02350 249.62718 247.78585 245.69252 243.52320
 241.31187 239.11354 236.93122 234.76789 232.62556 230.49024 228.51391 226.66859
 224.94926 223.41893 222.04661 220.81628 219.69595 218.65363 217.75530 216.89397
 216.13365 215.31132 214.40699 213.76867 213.21634 213.38394 213.77992 214.74120
 215.54321 215.81009 216.95103 218.85295 221.02927 223.96704 228.29108 232.69383
 236.32649 240.10951 243.25912 245.62650 247.68755 250.14871 253.14291 256.36365
 259.69159 262.93063 265.97192 268.82306 271.43161 273.69611 275.43268 276.93414
 278.40176 279.84207 281.36560 282.73386 283.92276 284.97836 285.94339 286.82245
 287.62598 288.34552 288.98059 289.81342
 366.78100 356.33284 345.76267 334.62651 323.02734 311.21918 299.08701 286.88785
 274.59768 262.49252 250.49935 239.79819 229.91802 221.01986 213.19969 206.19953
 200.03136 194.96720 191.54703 189.58687 188.62170 188.68354 189.51637 190.82221
 192.54504 194.63788 196.89871 199.25555 201.69838 204.17622 206.26205 208.10189
 209.72572 210.86856 211.09539 211.32123 211.25606 210.95890 210.58974 210.21757
 209.83241 209.54024 209.34608 209.20791 209.13375 209.46258 209.84642 210.23325
 211.02409 212.19992 213.44776 215.22859 217.15443 219.19526 221.28810 223.36893
 225.42677 227.50860 229.60344 231.70727 233.83411 236.00394 238.25778 240.62561
 243.24445 245.49328 247.49312 249.25595 250.67079 251.79162 252.61146 252.92529
 252.96013 252.73196 252.08980 251.03564 249.63947 247.79831 245.70514 243.53598
 241.32481 239.12665 236.94448 234.78132 232.63915 230.50399 228.52782 226.68266
 224.96349 223.43333 222.06116 220.83100 219.71083 218.66867 217.77050 216.90934
 216.14917 215.32701 214.42284 213.78468 213.23251 213.41667 213.85175 214.87215
 215.66348 215.87473 217.01532 218.91319 221.06996 224.00351 228.32083 232.70360
 236.28627 239.97820 243.01810 245.31277 247.38493 249.90953 252.98346 256.27789
 259.65305 262.90704 265.94693 268.80197 271.42142 273.69818 275.45636 276.97318
 278.43219 279.81369 281.27216 282.63361 283.82062 284.87582 285.84103 286.72083
 287.52457 288.24728 288.88345 289.72137
 366.78100 356.33301 345.76301 334.62702 323.02802 311.22003 299.08803 286.88904
 274.59905 262.49405 250.50106 239.80006 229.92007 221.02207 213.20208 206.20209
 200.03409 194.97010 191.55010 189.59011 188.62511 188.68712 189.52013 190.82613
 192.54914 194.64214 196.90315 199.26015 201.70316 204.18117 206.26717 208.10718
 209.73118 210.87419 211.10119 211.32720 211.26221 210.96521 210.59622 210.22422
 209.83923 209.54723 209.35324 209.21525 209.14125 209.47026 209.85426 210.24127
 211.03227 212.20828 213.45629 215.23729 217.16330 219.20430 221.29731 223.37832
 225.43632 227.51833 229.61333 231.71734 233.84434 236.01435 238.26836 240.63636
 243.25537 245.50437 247.50438 249.26738 250.68239 251.80340 252.62340 252.93741
 252.97241 252.74442 252.10242 251.04843 249.65244 247.81144 245.71845 243.54945
 241.33846 239.14046 236.95847 234.79548 232.65348 230.51849 228.54249 226.69750
 224.97850 223.44851 222.07652 220.84652 219.72653 218.68453 217.78654 216.92554
 216.16555 215.34356 214.43956 213.80157 213.24957 213.44946 213.92174 215.02826
 215.76857 215.91202 217.11906 219.00107 221.10468 224.01259 228.34381 232.68320
 236.22325 239.82225 242.75038 244.98332 247.08566 249.68802 252.85184 256.22531
 259.64331 262.90540 265.93484 268.78616 271.41199 273.69519 275.46152 276.98187
 278.42102 279.79300 281.18130 282.53699 283.72650 284.78271 285.74863 286.63150
 287.43289 288.15729 288.79520 289.62814
 366.78100 356.33273 345.76246 334.62618 323.02691 311.21864 299.08637 286.88709
 274.59682 262.49155 250.49828 239.79700 229.91673 221.01846 213.19819 206.19791
 200.02964 194.96537 191.54510 189.58482 188.61955 188.68128 189.51401 190.81973
 192.54246 194.63519 196.89592 199.25264 201.69537 204.17310 206.25883 208.09855
 209.72228 210.86501 211.09174 211.31746 211.25219 210.95492 210.58565 210.21337
 209.82810 209.53583 209.34156 209.20329 209.12901 209.45774 209.84147 210.22820
 211.01892 212.19465 213.44238 215.22311 217.14883 219.18956 221.28229 223.36302
 225.42074 227.50247 229.59720 231.70093 233.82765 235.99738 238.25111 240.61884
 243.23756 245.48629 247.48602 249.24875 250.66347 251.78420 252.60393 252.91766
 252.95238 252.72411 252.08184 251.02757 249.63129 247.79002 245.69675 243.52748
 241.31620 239.11793 236.93566 234.77239 232.63012 230.49484 228.51857 226.67330
 224.95403 223.42375 222.05148 220.82121 219.70094 218.65866 217.76039 216.89912
 216.13885 215.31657 214.41230 213.77403 213.22176 213.46173 214.02870 215.10091
 216.01379 215.99055 217.07376 219.01770 221.16084 224.04436 228.37103 232.62999
 236.15427 239.65814 242.47742 244.65559 246.79980 249.48674 252.74072 256.19250
 259.64691 262.91101 265.92700 268.77576 271.41098 273.70929 275.48358 276.98239
 278.36203 279.68204 281.08014 282.43600 283.62411 284.68188 285.64862 286.53098
 287.33524 288.05746 288.69211 289.53583
 366.78100 356.33250 345.76199 334.62549 323.02598 311.21748 299.08497 286.88547
 274.59496 262.48946 250.49595 239.79445 229.91394 221.01544 213.19493 206.19443
 200.02592 194.96142 191.54091 189.58041 188.61490 188.67640 189.50889 190.81439
 192.53688 194.62938 196.88987 199.24637 201.68886 204.16636 206.25186 208.09135
 209.71485 210.85734 211.08384 211.30933 211.24383 210.94632 210.57682 210.20431
 209.81881 209.52630 209.33180 209.19329 209.11879 209.44728 209.83078 210.21727
 211.00777 212.18326 213.43076 215.21125 217.13675 219.17724 221.26974 223.35023
 225.40773 227.48922 229.58372 231.68721 233.81371 235.98321 238.23670 240.60420
 243.22269 245.47119 247.47068 249.23318 250.64767 251.76817 252.58766 252.90116
 252.93565 252.70715 252.06464 251.01014 249.61363 247.77213 245.67862 243.50912
 241.29761 239.09911 236.91660 234.75310 232.61059 230.47509 228.49858 226.65308
 224.93357 223.40307 222.03057 220.80006 219.67956 218.63705 217.73855 216.87704
 216.11654 215.29403 214.38953 213.75102 213.19852 213.47917 214.14224 215.16519
 216.17961 216.01489 217.08348 219.18918 221.24139 224.07346 228.40112 232.56317
 236.07840 239.48128 242.19756 244.32085 246.50801 249.28316 252.62785 256.15729
 259.64404 262.90732 265.91663 268.76791 271.42053 273.74521 275.53912 277.02026
 278.35449 279.62506 280.93832 282.28534 283.47403 284.53192 285.50024 286.38342
 287.18710 287.91135 288.54782 289.39511
 366.78100 356.33321 345.76343 334.62764 323.02885 311.22107 299.08928 286.89049
 274.60071 262.49592 250.50313 239.80235 229.92256 221.02477 213.20499 206.20520
 200.03741 194.97363 191.55384 189.59405 188.62927 188.69148 189.52469 190.83091
 192.55412 194.64733 196.90855 199.26576 201.70898 204.18719 206.27340 208.11362
 209.73783 210.88104 211.10826 211.33447 211.26968 210.97290 210.60411 210.23232
 209.84754 209.55575 209.36196 209.22418 209.15039 209.47960 209.86382 210.25103
 211.04224 212.21846 213.46667 215.24788 217.17410 219.21531 221.30852 223.38974
 225.44795 227.53016 229.62538 231.72959 233.85680 236.02702 238.28123 240.64944
 243.26866 245.51787 247.51808 249.28130 250.69651 251.81772 252.63794 252.95215
 252.98736 252.75958 252.11779 251.06400 249.66822 247.82743 245.73465 243.56586
 241.35507 239.15729 236.97550 234.81271 232.67093 230.53614 228.56035 226.71557
 224.99678 223.46699 222.09521 220.86542 219.74563 218.70385 217.80606 216.94527
 216.18549 215.36370 214.45991 213.82213 213.27034 213.54329 214.18819 215.32458
 216.26193 216.06873 217.17010 219.28883 221.25851 224.10616 228.44655 232.52240
 235.99637 239.29539 241.91437 243.98422 246.20976 249.07515 252.51170 256.12033
 259.63647 262.90012 265.90887 268.76740 271.43817 273.79095 275.60315 277.07980
 278.39178 279.63498 280.81638 282.13565 283.31918 284.37311 285.33890 286.22278
 287.02625 287.75397 288.39603 289.24277
 366.78100 356.33374 345.76447 334.62921 323.03095 311.22368 299.09242 286.89415
 274.60489 262.50063 250.50836 239.80810 229.92884 221.03157 213.21231 206.21304
 200.04578 194.98252 191.56325 189.60399 188.63973 188.70246 189.53620 190.84294
 192.56667 194.66041 196.92214 199.27988 201.72362 204.20235 206.28909 208.12983
 209.75456 210.89830 211.12603 211.35277 211.28851 210.99224 210.62398 210.25272
 209.86845 209.57719 209.38393 209.24666 209.17340 209.50313 209.88787 210.27561
 211.06734 212.24408 213.49282 215.27455 217.20129 219.24302 221.33676 223.41850
 225.47723 227.55997 229.65571 231.76044 233.88818 236.05892 238.31365 240.68239
 243.30212 245.55186 247.55260 249.31633 250.73207 251.85381 252.67454 252.98928
 253.02501 252.79775 252.15649 251.10322 249.70796 247.86770 245.77543 243.60717
 241.39691 239.19964 237.01838 234.85611 232.71485 230.58059 228.60532 226.76106
 225.04280 223.51353 222.14227 220.91300 219.79374 218.75248 217.85521 216.99495
 216.23569 215.41442 214.51116 213.87390 213.32263 213.59471 214.23756 215.52939
 216.29698 216.13118 217.25264 219.29785 221.28522 224.17174 228.50781 232.49968
 235.90376 239.10176 241.62939 243.65370 245.91617 248.87161 252.40184 256.08926
 259.63638 262.90567 265.91794 268.77719 271.45618 273.82355 275.65396 277.14621
 278.44403 279.64276 280.77545 282.00314 283.17685 284.23209 285.20120 286.08530
 286.89377 287.62354 288.26678 289.11841
 366.78100 356.33331 345.76362 334.62794 323.02925 311.22156 299.08987 286.89119
 274.60150 262.49681 250.50412 239.80344 229.92375 221.02606 213.20637 206.20668
 200.03900 194.97531 191.55562 189.59593 188.63125 188.69356 189.52687 190.83318
 192.55649 194.64981 196.91112 199.26843 201.71174 204.19006 206.27637 208.11668
 209.74099 210.88431 211.11162 211.33793 211.27324 210.97655 210.60787 210.23618
 209.85149 209.55980 209.36612 209.22843 209.15474 209.48405 209.86836 210.25568
 211.04699 212.22330 213.47161 215.25293 217.17924 219.22055 221.31386 223.39518
 225.45349 227.53580 229.63111 231.73542 233.86274 236.03305 238.28736 240.65567
 243.27499 245.52430 247.52461 249.28792 250.70323 251.82455 252.64486 252.95917
 252.99448 252.76680 252.12511 251.07142 249.67573 247.83505 245.74236 243.57367
 241.36298 239.16529 236.98361 234.82092 232.67923 230.54454 228.56886 226.72417
 225.00548 223.47579 222.10410 220.87442 219.75473 218.71304 217.81535 216.95467
 216.19498 215.37329 214.46960 213.83192 213.28023 213.59644 214.34354 215.70201
 216.31036 216.22536 217.31740 219.29196 221.36316 224.25664 228.55803 232.46228
 235.79250 238.88667 241.33144 243.33473 245.64507 248.68585 252.30414 256.06491
 259.64191 262.91797 265.93134 268.78607 271.46600 273.85040 275.71851 277.23703
 278.51123 279.66061 280.74905 281.88617 283.05276 284.11111 285.08096 285.97003
 286.78110 287.51059 288.15784 289.01413
 366.78100 356.33327 345.76355 334.62782 323.02910 311.22137 299.08965 286.89092
 274.60119 262.49647 250.50374 239.80302 229.92329 221.02557 213.20584 206.20611
 200.03839 194.97466 191.55494 189.59521 188.63049 188.69276 189.52603 190.83231
 192.55558 194.64886 196.91013 199.26741 201.71068 204.18895 206.27523 208.11550
 209.73978 210.88305 211.11033 211.33660 211.27187 210.97515 210.60642 210.23470
 209.84997 209.55825 209.36452 209.22679 209.15307 209.48234 209.86662 210.25389
 211.04517 212.22144 213.46971 215.25099 217.17726 219.21854 221.31181 223.39309
 225.45136 227.53363 229.62891 231.73318 233.86046 236.03073 238.28501 240.65328
 243.27255 245.52183 247.52210 249.28538 250.70065 251.82193 252.64220 252.95647
 252.99175 252.76402 252.12230 251.06857 249.67285 247.83212 245.73939 243.57067
 241.35994 239.16222 236.98049 234.81777 232.67604 230.54131 228.56559 226.72086
 225.00214 223.47241 222.10069 220.87096 219.75123 218.70951 217.81178 216.95106
 216.19133 215.36961 214.46588 213.82815 213.27643 213.62204 214.43858 215.77269
 216.39441 216.43802 217.42683 219.29909 221.42413 224.31258 228.57590 232.40695
 235.66331 238.64195 240.99980 242.99283 245.36446 248.49754 252.20628 256.03741
 259.64200 262.92560 265.94119 268.79382 271.48447 273.89978 275.81805 277.36530
 278.62476 279.73639 280.78082 281.79504 282.95001 284.00757 284.97876 285.86826
 286.68140 287.41489 288.06467 288.92807
 366.78100 356.33478 345.76655 334.63233 323.03511 311.22889 299.09866 286.90144
 274.61322 262.51000 250.51877 239.81955 229.94133 221.04510 213.22688 206.22866
 200.06244 195.00021 191.58199 189.62377 188.66055 188.72432 189.55910 190.86688
 192.59165 194.68643 196.94921 199.30799 201.75276 204.23254 206.32032 208.16210
 209.78787 210.93265 211.16143 211.38920 211.32598 211.03076 210.66354 210.29331
 209.91009 209.61987 209.42765 209.29142 209.21920 209.54998 209.93575 210.32453
 211.11731 212.29509 213.54486 215.32764 217.25542 219.29820 221.39297 223.47575
 225.53553 227.61930 229.71608 231.82186 233.95064 236.12241 238.37819 240.74797
 243.36875 245.61952 247.62130 249.38608 250.80285 251.92563 252.74741 253.06319
 253.09996 252.87374 252.23352 251.18130 249.78707 247.94785 245.85663 243.68940
 241.48018 239.28396 237.10374 234.94251 232.80229 230.66907 228.69485 226.85162
 225.13440 223.60618 222.23595 221.00773 219.88951 218.84929 217.95306 217.09384
 216.33562 215.51540 214.61317 213.97695 213.42673 213.73575 214.46582 215.74559
 216.54910 216.75902 217.59152 219.32024 221.46344 224.35387 228.58220 232.36339
 235.53165 238.37462 240.62097 242.58539 245.03163 248.27699 252.09088 255.99596
 259.63013 262.92548 265.94772 268.80743 271.51675 273.97498 275.95483 277.54889
 278.80902 279.90552 280.88193 281.79993 282.97098 284.02579 284.99738 285.88834
 286.70367 287.44839 288.12018 289.01410
 366.78100 356.33643 345.76986 334.63728 323.04171 311.23714 299.10857 286.91300
 274.62642 262.52485 250.53528 239.83771 229.96114 221.06656 213.24999 206.25342
 200.08885 195.02828 191.61170 189.65513 188.69356 188.75899 189.59542 190.90484
 192.63127 194.72770 196.99213 199.35256 201.79898 204.28041 206.36984 208.21327
 209.84069 210.98712 211.21755 211.44698 211.38541 211.09183 210.72626 210.35769
 209.97612 209.68755 209.49697 209.36240 209.29183 209.62426 210.01169 210.40211
 211.19654 212.37597 213.62740 215.41183 217.34125 219.38568 221.48211 223.56654
 225.62797 227.71339 229.81182 231.91925 234.04968 236.22311 238.48053 240.85196
 243.47439 245.72682 247.73025 249.49667 250.91510 252.03953 252.86296 253.18039
 253.21881 252.99424 252.35567 251.30510 249.91253 248.07495 245.98538 243.81981
 241.61224 239.41767 237.23909 235.07952 232.94095 230.80938 228.83681 226.99523
 225.27966 223.75309 222.38452 221.15795 220.04137 219.00280 218.10823 217.25066
 216.49408 215.67551 214.77494 214.14037 213.59180 213.85730 214.48457 215.76852
 216.65926 216.98624 217.74548 219.40302 221.56633 224.43686 228.59451 232.34541
 235.40570 238.09729 240.22466 242.17276 244.71054 248.06885 251.97890 255.94394
 259.59641 262.89444 265.92514 268.80505 271.53870 274.02316 276.05664 277.68857
 278.97293 280.08011 281.04956 282.00067 283.07349 284.12466 285.09576 285.99326
 286.82242 287.58243 288.29507 289.24249
 366.78100 356.33733 345.77165 334.63998 323.04530 311.24163 299.11396 286.91928
 274.63361 262.53293 250.54426 239.84759 229.97191 221.07824 213.26256 206.26689
 200.10322 195.04354 191.62787 189.67219 188.71152 188.77784 189.61517 190.92550
 192.65282 194.75015 197.01547 199.37680 201.82413 204.30645 206.39678 208.24110
 209.86943 211.01676 211.24808 211.47841 211.41773 211.12506 210.76039 210.39271
 210.01204 209.72436 209.53469 209.40102 209.33134 209.66467 210.05299 210.44432
 211.23965 212.41997 213.67230 215.45762 217.38795 219.43328 221.53060 223.61593
 225.67825 227.76458 229.86391 231.97223 234.10356 236.27788 238.53621 240.90853
 243.53186 245.78519 247.78951 249.55684 250.97616 252.10149 252.92582 253.24414
 253.28347 253.05979 252.42212 251.37245 249.98077 248.14410 246.05542 243.89075
 241.68408 239.49040 237.31273 235.15405 233.01638 230.88571 228.91403 227.07336
 225.35868 223.83301 222.46534 221.23966 220.12399 219.08631 218.19264 217.33597
 216.58029 215.76262 214.86294 214.22927 213.68159 213.93153 214.52206 215.90311
 216.74153 217.07114 217.90109 219.54610 221.69095 224.51685 228.59952 232.31532
 235.23669 237.78589 239.83195 241.81702 244.45488 247.90836 251.88501 255.88257
 259.54077 262.84216 265.89597 268.79935 271.54126 274.02307 276.06799 277.71146
 279.01843 280.15305 281.16641 282.13290 283.21854 284.26541 285.22940 286.11395
 286.92316 287.66055 288.32166 289.20160
 366.78100 356.33889 345.77478 334.64468 323.05157 311.24946 299.12335 286.93025
 274.64614 262.54703 250.55992 239.86481 229.99071 221.09860 213.28449 206.29038
 200.12828 195.07017 191.65606 189.70195 188.74285 188.81074 189.64963 190.96152
 192.69041 194.78931 197.05620 199.41909 201.86798 204.35188 206.44377 208.28966
 209.91955 211.06844 211.30134 211.53323 211.47412 211.18301 210.81991 210.45380
 210.07469 209.78858 209.60048 209.46837 209.40026 209.73515 210.12504 210.51794
 211.31483 212.49672 213.75061 215.53751 217.46940 219.51629 221.61518 223.70207
 225.76597 227.85386 229.95475 232.06464 234.19754 236.37343 238.63332 241.00721
 243.63210 245.88700 247.89289 249.66178 251.08267 252.20957 253.03546 253.35535
 253.39624 253.17414 252.53803 251.48992 250.09981 248.26470 246.17760 244.01449
 241.80938 239.61727 237.44117 235.28406 233.14795 231.01884 229.04873 227.20963
 225.49652 223.97241 222.60630 221.38220 220.26809 219.23198 218.33987 217.48477
 216.73066 215.91455 215.01644 214.38433 213.83823 214.04138 214.52138 215.97115
 216.90942 217.24214 218.11935 219.65114 221.73294 224.53743 228.58241 232.23056
 235.02603 237.45395 239.44873 241.48769 244.22202 247.76263 251.79373 255.81841
 259.49161 262.81021 265.88956 268.80185 271.53662 273.99725 276.02905 277.66727
 278.96341 280.08673 281.12979 282.21124 283.36517 284.41516 285.37845 286.26001
 287.06335 287.78958 288.43085 289.27014
 366.78100 356.34007 345.77713 334.64820 323.05626 311.25533 299.13039 286.93846
 274.65553 262.55759 250.57166 239.87772 230.00479 221.11385 213.30092 206.30798
 200.14705 195.09012 191.67718 189.72425 188.76631 188.83538 189.67544 190.98851
 192.71858 194.81864 197.08671 199.45077 201.90084 204.38590 206.47897 208.32604
 209.95710 211.10717 211.34123 211.57430 211.51636 211.22643 210.86450 210.49956
 210.12163 209.83669 209.64976 209.51882 209.45189 209.78795 210.17902 210.57309
 211.37115 212.55422 213.80928 215.59735 217.53041 219.57848 221.67855 223.76661
 225.83168 227.92074 230.02281 232.13387 234.26794 236.44501 238.70607 241.08114
 243.70720 245.96327 247.97033 249.74040 251.16247 252.29053 253.11760 253.43866
 253.48073 253.25979 252.62486 251.57792 250.18899 248.35506 246.26912 244.10719
 241.90325 239.71232 237.53738 235.38145 233.24652 231.11858 229.14965 227.31171
 225.59978 224.07684 222.71191 221.48898 220.37604 219.34111 218.45017 217.59624
 216.84330 216.02837 215.13144 214.50050 213.95557 214.13873 214.57150 215.88954
 217.02827 217.53705 218.38438 219.71918 221.74286 224.56596 228.59885 232.13268
 234.84505 237.17276 239.12340 241.20244 244.01334 247.62619 251.70404 255.75125
 259.43921 262.77448 265.86893 268.78223 271.50760 273.95383 275.98544 277.62875
 278.92111 280.04221 281.10568 282.24893 283.41800 284.46976 285.43335 286.31439
 287.11700 287.83893 288.47522 289.30505
 366.78100 356.33874 345.77447 334.64421 323.05094 311.24868 299.12241 286.92915
 274.64488 262.54562 250.55835 239.86309 229.98882 221.09656 213.28229 206.28803
 200.12576 195.06750 191.65323 189.69897 188.73970 188.80744 189.64617 190.95791
 192.68664 194.78538 197.05211 199.41485 201.86358 204.34732 206.43905 208.28479
 209.91452 211.06326 211.29599 211.52773 211.46846 211.17720 210.81393 210.44767
 210.06840 209.78214 209.59387 209.46161 209.39334 209.72808 210.11781 210.51055
 211.30728 212.48902 213.74275 215.52949 217.46123 219.50796 221.60670 223.69343
 225.75717 227.84490 229.94564 232.05537 234.18811 236.36384 238.62358 240.99731
 243.62205 245.87678 247.88252 249.65125 251.07199 252.19872 253.02446 253.34419
 253.38493 253.16266 252.52640 251.47813 250.08787 248.25260 246.16534 244.00207
 241.79681 239.60454 237.42828 235.27101 233.13475 231.00548 229.03522 227.19595
 225.48269 223.95842 222.59216 221.36789 220.25363 219.21736 218.32510 217.46983
 216.71557 215.89930 215.00104 214.36877 213.82251 214.10083 214.75839 215.86125
 216.89685 217.71918 218.63477 219.81731 221.81966 224.67343 228.67297 232.04301
 234.71040 236.95674 238.87102 240.98230 243.84851 247.51442 251.62389 255.68422
 259.38162 262.72073 265.81702 268.72437 271.43542 273.86261 275.90588 277.56781
 278.87167 279.98077 281.06247 282.28134 283.45972 284.51218 285.47803 286.35779
 287.15967 287.87927 288.51328 289.34103
 366.78100 356.33641 345.76982 334.63723 323.04164 311.23705 299.10845 286.91286
 274.62627 262.52468 250.53509 239.83750 229.96091 221.06632 213.24973 206.25314
 200.08854 195.02795 191.61136 189.65477 188.69318 188.75859 189.59500 190.90441
 192.63082 194.72723 196.99164 199.35204 201.79845 204.27986 206.36927 208.21268
 209.84009 210.98650 211.21691 211.44632 211.38473 211.09113 210.72554 210.35695
 209.97536 209.68677 209.49618 209.36159 209.29100 209.62341 210.01082 210.40123
 211.19563 212.37504 213.62645 215.41086 217.34027 219.38468 221.48109 223.56550
 225.62691 227.71232 229.81072 231.91813 234.04854 236.22195 238.47936 240.85077
 243.47318 245.72559 247.72900 249.49541 250.91382 252.03822 252.86163 253.17904
 253.21745 252.99286 252.35427 251.30368 249.91109 248.07350 245.98391 243.81831
 241.61072 239.41613 237.23754 235.07795 232.93936 230.80777 228.83518 226.99359
 225.27800 223.75141 222.38281 221.15622 220.03963 219.00104 218.10645 217.24886
 216.49227 215.67368 214.77309 214.13850 213.58990 214.00502 214.98579 215.87923
 216.73413 217.83043 218.86615 219.94768 221.90364 224.77527 228.74484 231.95428
 234.57271 236.74202 238.61476 240.75450 243.67860 247.40120 251.54266 255.61208
 259.31180 262.65109 265.75607 268.67166 271.38651 273.81958 275.87155 277.50302
 278.73471 279.81366 280.97198 282.28702 283.46851 284.52213 285.48618 286.36673
 287.16690 287.88788 288.52124 289.34406
 366.78100 356.33671 345.77042 334.63813 323.04284 311.23855 299.11026 286.91497
 274.62868 262.52739 250.53810 239.84081 229.96452 221.07023 213.25394 206.25765
 200.09336 195.03307 191.61678 189.66049 188.69921 188.76492 189.60163 190.91134
 192.63805 194.73476 196.99947 199.36018 201.80689 204.28860 206.37831 208.22202
 209.84973 210.99644 211.22715 211.45686 211.39557 211.10228 210.73699 210.36870
 209.98741 209.69912 209.50883 209.37454 209.30425 209.63696 210.02467 210.41538
 211.21009 212.38980 213.64151 215.42622 217.35593 219.40064 221.49735 223.58206
 225.64377 227.72948 229.82819 231.93591 234.06662 236.24033 238.49804 240.86975
 243.49246 245.74517 247.74888 249.51559 250.93430 252.05901 252.88272 253.20043
 253.23914 253.01485 252.37656 251.32627 249.93398 248.09669 246.00740 243.84211
 241.63482 239.44053 237.26224 235.10295 232.96466 230.83337 228.86108 227.01979
 225.30450 223.77821 222.40992 221.18363 220.06734 219.02905 218.13476 217.27747
 216.52118 215.70289 214.80261 214.16832 213.62003 214.04407 215.04590 215.90121
 216.67183 218.07478 219.16252 220.01860 221.95384 224.88982 228.78659 231.84718
 234.38365 236.46387 238.29321 240.47690 243.48660 247.28093 251.45538 255.52797
 259.22290 262.57089 265.70517 268.64835 271.38477 273.83496 275.89621 277.50888
 278.67795 279.71072 280.82773 282.11755 283.29568 284.34467 285.30560 286.18423
 286.98264 287.70013 288.33124 289.15036
 366.78100 356.33965 345.77629 334.64694 323.05458 311.25323 299.12788 286.93552
 274.65217 262.55382 250.56746 239.87311 229.99975 221.10840 213.29505 206.30169
 200.14034 195.08299 191.66963 189.71628 188.75792 188.82657 189.66622 190.97886
 192.70851 194.80815 197.07580 199.43945 201.88909 204.37374 206.46639 208.31303
 209.94368 211.09332 211.32697 211.55962 211.50126 211.21091 210.84856 210.48320
 210.10485 209.81949 209.63214 209.50079 209.43343 209.76908 210.15973 210.55337
 211.35102 212.53366 213.78831 215.57596 217.50860 219.55625 221.65589 223.74354
 225.80819 227.89683 229.99848 232.10913 234.24277 236.41942 238.68006 241.05471
 243.68036 245.93600 247.94265 249.71230 251.13394 252.26159 253.08823 253.40888
 253.45053 253.22917 252.59382 251.54646 250.15711 248.32276 246.23640 244.07405
 241.86970 239.67834 237.50299 235.34663 233.21128 231.08293 229.11357 227.27522
 225.56287 224.03951 222.67416 221.45080 220.33745 219.30210 218.41074 217.55639
 216.80304 215.98768 215.09033 214.45897 213.91362 214.21848 214.93871 215.96779
 216.74550 218.20731 219.40401 220.33475 222.14305 224.91618 228.74924 231.69630
 234.13782 236.13353 237.93925 240.19489 243.31133 247.17915 251.38202 255.45662
 259.15363 262.52667 265.69843 268.66177 271.39984 273.83640 275.88333 277.48727
 278.63345 279.65359 280.72867 281.94016 283.10849 284.15775 285.11923 285.99835
 286.79880 287.52054 288.15286 288.97864
 366.78100 356.34208 345.78115 334.65423 323.06431 311.26539 299.14246 286.95254
 274.67162 262.57569 250.59177 239.89985 230.02892 221.14000 213.32908 206.33816
 200.17923 195.12431 191.71339 189.76246 188.80654 188.87762 189.71970 191.03477
 192.76685 194.86893 197.13900 199.50508 201.95716 204.44424 206.53931 208.38839
 210.02147 211.17354 211.40962 211.64470 211.58877 211.30085 210.94093 210.57801
 210.20208 209.91916 209.73424 209.60531 209.54039 209.87847 210.27155 210.66762
 211.46770 212.65278 213.90985 215.69993 217.63501 219.68509 221.78716 223.87724
 225.94432 228.03539 230.13947 232.25255 234.38862 236.56770 238.83078 241.20786
 243.83593 246.09401 248.10309 249.87516 251.29924 252.42932 253.25840 253.58147
 253.62555 253.40663 252.77370 251.72878 250.34186 248.50993 246.42601 244.26609
 242.06417 239.87524 237.70232 235.54840 233.41547 231.28955 229.32263 227.48671
 225.77678 224.25586 222.89294 221.67201 220.56109 219.52817 218.63925 217.78732
 217.03640 216.22348 215.32855 214.69963 214.15671 214.36502 214.85719 216.02899
 216.87340 218.28688 219.59567 220.65279 222.31206 224.90836 228.68080 231.52753
 233.87317 235.79182 237.59149 239.93590 243.16266 247.09792 251.32390 255.40155
 259.10883 262.51819 265.72351 268.69232 271.41107 273.81985 275.85284 277.45364
 278.57959 279.59088 280.65372 281.80460 282.96603 284.01532 284.97806 285.85876
 286.66235 287.38675 288.02509 288.85632
 366.78100 356.34310 345.78319 334.65729 323.06839 311.27049 299.14858 286.95968
 274.67978 262.58488 250.60197 239.91107 230.04117 221.15326 213.34336 206.35346
 200.19556 195.14165 191.73175 189.78185 188.82695 188.89904 189.74214 191.05824
 192.79133 194.89443 197.16553 199.53263 201.98572 204.47382 206.56992 208.42002
 210.05411 211.20721 211.44431 211.68040 211.62550 211.33860 210.97970 210.61779
 210.24289 209.96099 209.77709 209.64918 209.58528 209.92438 210.31847 210.71557
 211.51667 212.70277 213.96086 215.75196 217.68806 219.73916 221.84225 223.93335
 226.00145 228.09354 230.19864 232.31274 234.44984 236.62993 238.89403 241.27213
 243.90123 246.16032 248.17042 249.94352 251.36862 252.49971 253.32981 253.65391
 253.69900 253.48110 252.84920 251.80530 250.41939 248.58849 246.50559 244.34669
 242.14578 239.95788 237.78598 235.63307 233.50117 231.37627 229.41037 227.57546
 225.86656 224.34666 222.98476 221.76485 220.65495 219.62305 218.73514 217.88424
 217.13434 216.32244 215.42853 214.80063 214.25873 214.43703 214.85828 216.04297
 217.00198 218.35609 219.77678 220.93748 222.45737 224.91220 228.62743 231.38327
 233.62877 235.46732 237.26254 239.69839 243.02785 247.02316 251.26907 255.34853
 259.06714 262.50977 265.74173 268.70880 271.40759 273.80188 275.84225 277.45291
 278.54910 279.53195 280.57339 281.70139 282.85974 283.91098 284.87378 285.75638
 286.56329 287.28973 287.93185 288.76794
 366.78100 356.34299 345.78298 334.65697 323.06796 311.26994 299.14793 286.95892
 274.67891 262.58390 250.60089 239.90988 230.03987 221.15186 213.34185 206.35183
 200.19382 195.13981 191.72980 189.77979 188.82478 188.89677 189.73976 191.05575
 192.78873 194.89172 197.16271 199.52970 201.98269 204.47068 206.56667 208.41666
 210.05065 211.20364 211.44062 211.67661 211.62160 211.33459 210.97558 210.61357
 210.23856 209.95655 209.77254 209.64452 209.58051 209.91950 210.31349 210.71048
 211.51147 212.69746 213.95545 215.74644 217.68243 219.73341 221.83640 223.92739
 225.99538 228.08737 230.19236 232.30635 234.44334 236.62333 238.88731 241.26530
 243.89429 246.15328 248.16327 249.93626 251.36125 252.49224 253.32223 253.64621
 253.69120 253.47319 252.84118 251.79717 250.41116 248.58015 246.49714 244.33813
 242.13712 239.94910 237.77709 235.62408 233.49207 231.36706 229.40105 227.56604
 225.85703 224.33702 222.97500 221.75499 220.64498 219.61297 218.72496 217.87395
 217.12394 216.31193 215.41792 214.78991 214.24789 214.44968 214.92645 216.01584
 217.09593 218.43167 219.95024 221.19572 222.61288 224.94611 228.59283 231.27380
 233.41788 235.16943 236.95538 239.47734 242.90012 246.94896 251.21303 255.29065
 259.01721 262.48495 265.73447 268.69931 271.38904 273.78149 275.84177 277.47134
 278.54666 279.49240 280.50873 281.63483 282.79230 283.84299 284.80704 285.69110
 286.49954 287.22745 287.87109 288.70642
 366.78100 356.34197 345.78094 334.65391 323.06387 311.26484 299.14181 286.95178
 274.67075 262.57472 250.59069 239.89866 230.02762 221.13859 213.32756 206.33653
 200.17750 195.12247 191.71144 189.76041 188.80437 188.87534 189.71731 191.03228
 192.76425 194.86622 197.13619 199.50216 201.95412 204.44109 206.53606 208.38503
 210.01800 211.16997 211.40594 211.64091 211.58487 211.29684 210.93681 210.57378
 210.19775 209.91472 209.72969 209.60066 209.53562 209.87359 210.26656 210.66253
 211.46250 212.64747 213.90444 215.69441 217.62937 219.67934 221.78131 223.87128
 225.93825 228.02922 230.13319 232.24616 234.38212 236.56109 238.82406 241.20103
 243.82900 246.08697 248.09594 249.86791 251.29187 252.42184 253.25081 253.57378
 253.61775 253.39872 252.76569 251.72066 250.33362 248.50159 246.41756 244.25753
 242.05550 239.86647 237.69344 235.53941 233.40637 231.28034 229.31331 227.47728
 225.76725 224.24622 222.88319 221.66216 220.55112 219.51809 218.62906 217.77703
 217.02600 216.21297 215.31794 214.68891 214.14587 214.41347 215.04570 215.97171
 217.14067 218.52708 220.11299 221.42595 222.79472 225.01828 228.56367 231.18544
 233.22571 234.88486 236.65714 239.26079 242.77194 246.87183 251.15317 255.22714
 258.95999 262.44604 265.70898 268.67450 271.36212 273.75879 275.83994 277.49133
 278.55768 279.47415 280.47269 281.60480 282.76645 283.81726 284.78314 285.66690
 286.47449 287.20410 287.84625 288.68649
 366.78100 356.34118 345.77936 334.65154 323.06072 311.26090 299.13708 286.94627
 274.66445 262.56763 250.58281 239.88999 230.01817 221.12835 213.31653 206.32471
 200.16489 195.10907 191.69725 189.74543 188.78862 188.85880 189.69998 191.01416
 192.74534 194.84652 197.11570 199.48088 201.93206 204.41824 206.51242 208.36060
 209.99278 211.14397 211.37915 211.61333 211.55651 211.26769 210.90687 210.54305
 210.16623 209.88241 209.69659 209.56677 209.50095 209.83813 210.23032 210.62550
 211.42468 212.60886 213.86504 215.65422 217.58840 219.63758 221.73876 223.82794
 225.89412 227.98430 230.08749 232.19967 234.33485 236.51303 238.77521 241.15139
 243.77857 246.03575 248.04393 249.81511 251.23829 252.36747 253.19565 253.51784
 253.56102 253.34120 252.70738 251.66156 250.27374 248.44092 246.35610 244.19528
 241.99246 239.80264 237.62882 235.47400 233.34019 231.21337 229.24555 227.40873
 225.69791 224.17609 222.81227 221.59045 220.47863 219.44481 218.55499 217.70217
 216.95035 216.13654 215.24072 214.61090 214.06708 214.38643 215.14095 215.96289
 217.16084 218.62434 220.26169 221.62119 222.99843 225.13643 228.53697 231.09634
 233.02666 234.59489 236.35846 239.04706 242.64665 246.79695 251.09373 255.16344
 258.90021 262.40079 265.67618 268.64624 271.33423 273.73550 275.83627 277.51523
 278.58942 279.49548 280.48148 281.59662 282.75174 283.80096 284.76447 285.64700
 286.45358 287.17899 287.82471 288.65958
 366.78100 356.34145 345.77990 334.65236 323.06181 311.26226 299.13871 286.94817
 274.66662 262.57007 250.58552 239.89298 230.02143 221.13188 213.32033 206.32879
 200.16924 195.11369 191.70214 189.75060 188.79405 188.86450 189.70595 191.02040
 192.75186 194.85331 197.12276 199.48821 201.93967 204.42612 206.52057 208.36902
 210.00148 211.15293 211.38838 211.62283 211.56629 211.27774 210.91719 210.55364
 210.17710 209.89355 209.70800 209.57845 209.51290 209.85036 210.24281 210.63826
 211.43771 212.62217 213.87862 215.66807 217.60252 219.65198 221.75343 223.84288
 225.90933 227.99979 230.10324 232.21569 234.35114 236.52960 238.79205 241.16850
 243.79595 246.05340 248.06186 249.83331 251.25676 252.38621 253.21467 253.53712
 253.58057 253.36102 252.72748 251.68193 250.29438 248.46183 246.37729 244.21674
 242.01419 239.82464 237.65110 235.49655 233.36300 231.23645 229.26890 227.43236
 225.72181 224.20026 222.83671 221.61517 220.50362 219.47007 218.58052 217.72798
 216.97643 216.16288 215.26733 214.63779 214.09424 214.41057 215.15790 216.01799
 217.20631 218.69232 220.36766 221.77992 223.20232 225.27406 228.50755 230.99159
 232.81508 234.30783 236.07825 238.85970 242.54190 246.73482 251.04282 255.10641
 258.84494 262.35721 265.64511 268.62134 271.30923 273.71103 275.82486 277.52505
 278.61304 279.52060 280.50232 281.60248 282.75098 283.79654 284.75555 285.63324
 286.42776 287.14224 287.77689 288.60764
 366.78100 356.34193 345.78087 334.65380 323.06374 311.26467 299.14160 286.95154
 274.67047 262.57440 250.59034 239.89827 230.02721 221.13814 213.32707 206.33601
 200.17694 195.12187 191.71081 189.75974 188.80368 188.87461 189.71654 191.03148
 192.76341 194.86534 197.13528 199.50121 201.95315 204.44008 206.53501 208.38395
 210.01688 211.16882 211.40475 211.63968 211.58362 211.29555 210.93548 210.57242
 210.19635 209.91329 209.72822 209.59915 209.53409 209.87202 210.26495 210.66089
 211.46082 212.64576 213.90269 215.69262 217.62756 219.67749 221.77943 223.86936
 225.93629 228.02723 230.13116 232.24409 234.38003 236.55896 238.82190 241.19883
 243.82676 246.08470 248.09363 249.86556 251.28950 252.41943 253.24837 253.57130
 253.61523 253.39617 252.76310 251.71803 250.33097 248.49890 246.41484 244.25477
 242.05270 239.86364 237.69057 235.53651 233.40344 231.27737 229.31031 227.47424
 225.76417 224.24311 222.88004 221.65898 220.54791 219.51484 218.62578 217.77371
 217.02264 216.20958 215.31451 214.68545 214.14238 214.44347 215.15483 216.08810
 217.29002 218.74416 220.43274 221.91417 223.36842 225.38788 228.47476 230.87225
 232.59958 234.04124 235.83731 238.71204 242.46452 246.68929 251.00244 255.05814
 258.79636 262.31717 265.61496 268.59442 271.28040 273.67831 275.79630 277.50467
 278.60345 279.52576 280.52267 281.63397 282.78049 283.82675 284.78668 285.66748
 286.46710 287.19318 287.83508 288.66748
 366.78100 356.34172 345.78043 334.65315 323.06287 311.26358 299.14030 286.95002
 274.66873 262.57245 250.58817 239.89588 230.02460 221.13532 213.32404 206.33275
 200.17347 195.11819 191.70690 189.75562 188.79934 188.87005 189.71177 191.02649
 192.75820 194.85992 197.12964 199.49535 201.94707 204.43379 206.52850 208.37722
 210.00994 211.16165 211.39737 211.63209 211.57581 211.28752 210.92724 210.56396
 210.18767 209.90439 209.71911 209.58982 209.52454 209.86226 210.25497 210.65069
 211.45041 212.63512 213.89184 215.68156 217.61627 219.66599 221.76771 223.85742
 225.92414 228.01486 230.11858 232.23129 234.36701 236.54573 238.80844 241.18516
 243.81288 246.07059 248.07931 249.85103 251.27474 252.40446 253.23318 253.55589
 253.59961 253.38033 252.74704 251.70176 250.31448 248.48219 246.39791 244.23763
 242.03535 239.84606 237.67278 235.51850 233.38521 231.25893 229.29165 227.45536
 225.74508 224.22380 222.86051 221.63923 220.52795 219.49466 218.60538 217.75310
 217.00181 216.18853 215.29325 214.66396 214.12068 214.43985 215.19392 216.12843
 217.37935 218.81334 220.49744 222.02623 223.48535 225.47447 228.44638 230.75471
 232.39561 233.79652 235.62657 238.59273 242.40469 246.65239 250.96526 255.01231
 258.74933 262.27716 265.58252 268.56311 271.24478 273.63782 275.75381 277.46066
 278.56772 279.51697 280.54575 281.68628 282.83978 283.88699 284.84995 285.73325
 286.53784 287.26801 287.90787 288.74112
 366.78100 356.34134 345.77968 334.65203 323.06137 311.26171 299.13805 286.94740
 274.66574 262.56908 250.58442 239.89176 230.02011 221.13045 213.31879 206.32713
 200.16748 195.11182 191.70016 189.74850 188.79184 188.86219 189.70353 191.01787
 192.74921 194.85056 197.11990 199.48524 201.93658 204.42292 206.51727 208.36561
 209.99795 211.14929 211.38464 211.61898 211.56232 211.27366 210.91300 210.54935
 210.17269 209.88903 209.70337 209.57372 209.50806 209.84540 210.23774 210.63308
 211.43243 212.61677 213.87311 215.66245 217.59680 219.64614 221.74748 223.83682
 225.90316 227.99351 230.09685 232.20919 234.34453 236.52288 238.78522 241.16156
 243.78890 246.04624 248.05459 249.82593 251.24927 252.37861 253.20696 253.52930
 253.57264 253.35298 252.71932 251.67367 250.28601 248.45335 246.36869 244.20803
 242.00538 239.81572 237.64206 235.48740 233.35375 231.22709 229.25943 227.42277
 225.71211 224.19046 222.82680 221.60514 220.49348 219.45983 218.57017 217.71751
 216.96585 216.15219 215.25654 214.62688 214.08322 214.42725 215.24001 216.17564
 217.43817 218.89322 220.59514 222.11055 223.54137 225.55273 228.45595 230.65430
 232.19687 233.55591 235.42825 238.49075 242.35252 246.61557 250.92369 254.96194
 258.69858 262.23044 265.53967 268.52170 271.20398 273.59598 275.70703 277.41031
 278.52908 279.50720 280.57477 281.74347 282.91016 283.96100 284.92651 285.80972
 286.61533 287.34152 287.98251 288.81512
 366.78100 356.34152 345.78003 334.65255 323.06206 311.26258 299.13909 286.94861
 274.66712 262.57064 250.58615 239.89367 230.02218 221.13270 213.32121 206.32973
 200.17024 195.11476 191.70327 189.75179 188.79530 188.86582 189.70734 191.02185
 192.75337 194.85488 197.12440 199.48991 201.94143 204.42794 206.52246 208.37097
 210.00349 211.15500 211.39052 211.62503 211.56855 211.28006 210.91958 210.55609
 210.17961 209.89613 209.71064 209.58116 209.51567 209.85319 210.24570 210.64122
 211.44073 212.62525 213.88176 215.67128 217.60579 219.65531 221.75682 223.84634
 225.91285 228.00337 230.10688 232.21940 234.35491 236.53343 238.79595 241.17246
 243.79998 246.05749 248.06601 249.83752 251.26104 252.39055 253.21907 253.54158
 253.58510 253.36561 252.73213 251.68664 250.29916 248.46667 246.38219 244.22170
 242.01922 239.82974 237.65625 235.50177 233.36828 231.24180 229.27431 227.43783
 225.72734 224.20586 222.84237 221.62089 220.50940 219.47592 218.58643 217.73395
 216.98246 216.16898 215.27349 214.64401 214.10052 214.44173 215.24786 216.26698
 217.46968 218.96957 220.70314 222.15651 223.59151 225.64445 228.47653 230.55609
 232.00948 233.32970 235.24393 238.40179 242.30424 246.57651 250.87669 254.90622
 258.64102 262.17322 265.48178 268.46851 271.15558 273.55353 275.66034 277.36002
 278.49847 279.50525 280.60504 281.81015 282.97995 284.03232 284.99844 285.88092
 286.68826 287.41489 288.05414 288.88403
 366.78100 356.34166 345.78032 334.65298 323.06264 311.26330 299.13995 286.94961
 274.66827 262.57193 250.58759 239.89525 230.02391 221.13457 213.32323 206.33189
 200.17255 195.11721 191.70586 189.75452 188.79818 188.86884 189.71050 191.02516
 192.75682 194.85848 197.12814 199.49380 201.94546 204.43212 206.52677 208.37543
 210.00809 211.15975 211.39541 211.63007 211.57373 211.28539 210.92505 210.56171
 210.18537 209.90202 209.71668 209.58734 209.52200 209.85966 210.25232 210.64798
 211.44764 212.63230 213.88896 215.67862 217.61328 219.66293 221.76459 223.85425
 225.92091 228.01157 230.11523 232.22789 234.36355 236.54221 238.80487 241.18153
 243.80918 246.06684 248.07550 249.84716 251.27082 252.40048 253.22914 253.55180
 253.59546 253.37612 252.74278 251.69744 250.31009 248.47775 246.39341 244.23307
 242.03073 239.84139 237.66805 235.51371 233.38037 231.25403 229.28669 227.45035
 225.74000 224.21866 222.85532 221.63398 220.52264 219.48930 218.59996 217.74762
 216.99628 216.18294 215.28760 214.65825 214.11491 214.45480 215.25783 216.36700
 217.48933 219.03902 220.82135 222.17442 223.60371 225.73787 228.52974 230.46761
 231.81830 233.10130 235.06854 238.33388 242.26511 246.54062 250.83098 254.84988
 258.57898 262.10590 265.41116 268.40326 271.10117 273.50726 275.60535 277.29657
 278.45404 279.48904 280.59283 281.89203 283.06903 284.11621 285.08136 285.96262
 286.76648 287.49280 288.12781 288.95438
 366.78100 356.34087 345.77875 334.65062 323.05950 311.25937 299.13525 286.94412
 274.66200 262.56487 250.57975 239.88662 230.01450 221.12437 213.31225 206.32012
 200.16000 195.10387 191.69175 189.73962 188.78250 188.85237 189.69325 191.00712
 192.73800 194.83887 197.10775 199.47262 201.92350 204.40937 206.50325 208.35112
 209.98300 211.13387 211.36875 211.60262 211.54550 211.25637 210.89525 210.53112
 210.15400 209.86987 209.68375 209.55362 209.48750 209.82437 210.21625 210.61112
 211.41000 212.59387 213.84975 215.63862 217.57250 219.62137 221.72225 223.81112
 225.87700 227.96687 230.06975 232.18162 234.31650 236.49437 238.75625 241.13212
 243.75900 246.01587 248.02375 249.79462 251.21750 252.34637 253.17425 253.49612
 253.53900 253.31887 252.68475 251.63862 250.25050 248.41737 246.33225 244.17112
 241.96800 239.77787 237.60375 235.44862 233.31450 231.18737 229.21925 227.38212
 225.67100 224.14887 222.78475 221.56262 220.45050 219.41637 218.52625 217.67312
 216.92100 216.10687 215.21075 214.58062 214.03650 214.41980 215.32538 216.44501
 217.51378 219.07645 220.88728 222.21037 223.67151 225.82063 228.52829 230.35600
 231.65724 232.93121 234.94099 238.29434 242.25124 246.51448 250.78386 254.79008
 258.50952 262.02713 265.32864 268.32693 271.03680 273.44788 275.53125 277.20782
 278.39755 279.47058 280.61237 281.94876 283.13068 284.18225 285.14682 286.02936
 286.83133 287.55560 288.19257 289.01199
 366.78100 356.33965 345.77630 334.64695 323.05460 311.25325 299.12791 286.93556
 274.65221 262.55386 250.56751 239.87316 229.99981 221.10846 213.29511 206.30176
 200.14041 195.08307 191.66972 189.71637 188.75802 188.82667 189.66632 190.97897
 192.70862 194.80827 197.07592 199.43958 201.88923 204.37388 206.46653 208.31318
 209.94383 211.09348 211.32713 211.55978 211.50143 211.21108 210.84874 210.48339
 210.10504 209.81969 209.63234 209.50099 209.43364 209.76929 210.15994 210.55359
 211.35124 212.53390 213.78855 215.57620 217.50885 219.55650 221.65615 223.74380
 225.80845 227.89710 229.99875 232.10940 234.24306 236.41971 238.68036 241.05501
 243.68066 245.93631 247.94296 249.71261 251.13426 252.26191 253.08857 253.40922
 253.45087 253.22952 252.59417 251.54682 250.15747 248.32312 246.23677 244.07442
 241.87007 239.67873 237.50338 235.34703 233.21168 231.08333 229.11398 227.27563
 225.56328 224.03993 222.67458 221.45123 220.33789 219.30254 218.41119 217.55684
 216.80349 215.98814 215.09079 214.45944 213.91409 214.36154 215.41867 216.51253
 217.58400 219.14284 220.92758 222.16698 223.63205 225.86978 228.56650 230.29695
 231.51546 232.76004 234.81544 238.26509 242.25221 246.48773 250.74406 254.73969
 258.45117 261.96582 265.26727 268.27063 270.99060 273.39651 275.44547 277.09891
 278.29449 279.41357 280.64395 282.00955 283.19534 284.24695 285.21173 286.09341
 286.89276 287.61166 288.25223 289.11517
 366.78100 356.33781 345.77262 334.64143 323.04724 311.24406 299.11687 286.92268
 274.63749 262.53730 250.54911 239.85292 229.97773 221.08454 213.26935 206.27417
 200.11098 195.05179 191.63660 189.68141 188.72122 188.78803 189.62584 190.93665
 192.66446 194.76228 197.02809 199.38990 201.83771 204.32052 206.41133 208.25614
 209.88495 211.03276 211.26457 211.49539 211.43520 211.14301 210.77882 210.41163
 210.03144 209.74425 209.55506 209.42187 209.35269 209.68650 210.07531 210.46712
 211.26293 212.44374 213.69655 215.48236 217.41317 219.45898 221.55680 223.64261
 225.70542 227.79223 229.89204 232.00085 234.13266 236.30747 238.56628 240.93909
 243.56291 245.81672 247.82153 249.58934 251.00915 252.13496 252.95977 253.27858
 253.31839 253.09520 252.45802 251.40883 250.01764 248.18145 246.09326 243.92907
 241.72288 239.52969 237.35250 235.19432 233.05713 230.92694 228.95575 227.11556
 225.40137 223.87618 222.50899 221.28380 220.16861 219.13143 218.23824 217.38205
 216.62686 215.80967 214.91048 214.27729 213.73010 214.27753 215.57095 216.51064
 217.60478 219.18607 220.96219 222.08017 223.49959 225.84192 228.50275 230.26939
 231.33485 232.52423 234.62999 238.21204 242.27917 246.48692 250.72778 254.73636
 258.45596 261.96152 265.25156 268.26129 270.97452 273.36383 275.37488 276.96591
 278.21747 279.37399 280.68277 282.03647 283.22543 284.28232 285.25464 286.14529
 286.96021 287.73285 288.40784 289.26804
 366.78100 356.33616 345.76931 334.63647 323.04062 311.23578 299.10693 286.91109
 274.62424 262.52240 250.53255 239.83471 229.95786 221.06302 213.24617 206.24933
 200.08448 195.02364 191.60679 189.64995 188.68810 188.75326 189.58941 190.89857
 192.62472 194.72088 196.98503 199.34519 201.79134 204.27250 206.36165 208.20481
 209.83196 210.97812 211.20827 211.43743 211.37559 211.08174 210.71590 210.34705
 209.96521 209.67636 209.48552 209.35067 209.27983 209.61198 209.99914 210.38929
 211.18345 212.36260 213.61376 215.39791 217.32707 219.37122 221.46738 223.55153
 225.61269 227.69784 229.79600 231.90315 234.03331 236.20646 238.46362 240.83477
 243.45693 245.70908 247.71224 249.47839 250.89655 252.02070 252.84386 253.16102
 253.19917 252.97433 252.33548 251.28464 249.89179 248.05395 245.96410 243.79826
 241.59041 239.39557 237.21672 235.05688 232.91803 230.78619 228.81334 226.97150
 225.25565 223.72881 222.35996 221.13312 220.01627 218.97743 218.08258 217.22474
 216.46789 215.64905 214.74820 214.11336 213.56451 214.20468 215.70619 216.56488
 217.57152 219.06807 220.85646 222.03972 223.43695 225.78638 228.39812 230.31650
 231.17821 232.43983 234.66565 238.25124 242.36354 246.56284 250.75035 254.75725
 258.49438 261.99927 265.27853 268.28787 271.01044 273.39917 275.37897 276.93240
 278.17673 279.37775 280.72119 282.08286 283.27814 284.34763 285.36816 286.35416
 287.24094 288.03064 288.72049 289.59964
 366.78100 356.33745 345.77191 334.64036 323.04582 311.24227 299.11473 286.92018
 274.63464 262.53409 250.54555 239.84900 229.97345 221.07991 213.26436 206.26882
 200.10527 195.04573 191.63018 189.67464 188.71409 188.78055 189.61800 190.92846
 192.65591 194.75336 197.01882 199.38027 201.82773 204.31018 206.40064 208.24509
 209.87355 211.02100 211.25246 211.48291 211.42236 211.12982 210.76527 210.39773
 210.01718 209.72964 209.54009 209.40655 209.33700 209.67046 210.05891 210.45037
 211.24582 212.42627 213.67873 215.46418 217.39464 219.44009 221.53755 223.62300
 225.68546 227.77191 229.87137 231.97982 234.11127 236.28573 238.54418 240.91664
 243.54009 245.79355 247.79800 249.56546 250.98491 252.11037 252.93482 253.25328
 253.29273 253.06918 252.43164 251.38209 249.99055 248.15400 246.06546 243.90091
 241.69437 239.50082 237.32328 235.16473 233.02718 230.89664 228.92509 227.08455
 225.37000 223.84446 222.47691 221.25137 220.13582 219.09828 218.20473 217.34819
 216.59264 215.77509 214.87555 214.24200 213.69446 214.27597 215.65363 216.71217
 217.71265 219.10231 220.86383 222.09625 223.44604 225.71536 228.31787 230.21387
 231.02664 232.31995 234.63434 238.26961 242.41096 246.59792 250.76636 254.77823
 258.52524 262.03412 265.31760 268.33896 271.07678 273.48883 275.50729 277.10397
 278.33652 279.46576 280.80099 282.16818 283.37515 284.50052 285.60828 286.61185
 287.51443 288.31821 289.02036 289.91516
 366.78100 356.33924 345.77549 334.64573 323.05297 311.25122 299.12546 286.93271
 274.64895 262.55019 250.56344 239.86868 229.99492 221.10317 213.28941 206.29566
 200.13390 195.07614 191.66239 189.70863 188.74987 188.81812 189.65736 190.96960
 192.69885 194.79809 197.06534 199.42858 201.87782 204.36207 206.45431 208.30055
 209.93080 211.08004 211.31328 211.54553 211.48677 211.19602 210.83326 210.46750
 210.08875 209.80299 209.61523 209.48348 209.41572 209.75097 210.14121 210.53445
 211.33170 212.51394 213.76818 215.55543 217.48767 219.53491 221.63416 223.72140
 225.78565 227.87389 229.97513 232.08538 234.21862 236.39486 238.65511 241.02935
 243.65460 245.90984 247.91608 249.68533 251.10657 252.23381 253.06006 253.38030
 253.42154 253.19979 252.56403 251.51628 250.12652 248.29176 246.20501 244.04225
 241.83749 239.64574 237.46998 235.31322 233.17747 231.04871 229.07896 227.24020
 225.52744 224.00369 222.63793 221.41417 220.30042 219.26466 218.37291 217.51815
 216.76439 215.94864 215.05088 214.41912 213.87337 214.36922 215.56465 216.82600
 217.84592 219.19292 220.93777 222.15753 223.38857 225.60265 228.26019 230.00479
 230.78868 232.07616 234.45795 238.21581 242.41386 246.58656 250.73561 254.74944
 258.50378 262.01987 265.31348 268.35382 271.12042 273.58539 275.66626 277.34097
 278.63837 279.74509 280.87277 282.23553 283.43390 284.52158 285.61844 286.61899
 287.51886 288.32022 289.02023 289.91235
 366.78100 356.33964 345.77627 334.64691 323.05455 311.25318 299.12782 286.93546
 274.65209 262.55373 250.56737 239.87300 229.99964 221.10828 213.29491 206.30155
 200.14019 195.08282 191.66946 189.71610 188.75773 188.82637 189.66601 190.97865
 192.70828 194.80792 197.07556 199.43919 201.88883 204.37347 206.46610 208.31274
 209.94338 211.09301 211.32665 211.55929 211.50092 211.21056 210.84820 210.48283
 210.10447 209.81911 209.63174 209.50038 209.43302 209.76865 210.15929 210.55293
 211.35056 212.53320 213.78784 215.57547 217.50811 219.55575 221.65538 223.74302
 225.80766 227.89629 229.99793 232.10857 234.24220 236.41884 238.67948 241.05411
 243.67975 245.93539 247.94202 249.71166 251.13330 252.26094 253.08757 253.40821
 253.44985 253.22848 252.59312 251.54576 250.15639 248.32203 246.23567 244.07330
 241.86894 239.67758 237.50221 235.34585 233.21049 231.08212 229.11276 227.27440
 225.56203 224.03867 222.67331 221.44994 220.33658 219.30122 218.40985 217.55549
 216.80213 215.98676 215.08940 214.45804 213.91267 214.38826 215.53012 216.93590
 217.94180 219.30179 221.10097 222.30983 223.39494 225.55852 228.34254 229.79771
 230.57161 231.78963 234.21056 238.12907 242.38014 246.52228 250.64459 254.64799
 258.39807 261.91422 265.21640 268.27786 271.07544 273.57794 275.70087 277.42953
 278.83374 280.01871 281.08328 282.28714 283.47150 284.52686 285.50952 286.45270
 287.32852 288.10843 288.78976 289.65802
 366.78100 356.33888 345.77477 334.64465 323.05154 311.24942 299.12331 286.93019
 274.64607 262.54696 250.55984 239.86473 229.99061 221.09850 213.28438 206.29026
 200.12815 195.07003 191.65592 189.70180 188.74269 188.81057 189.64946 190.96134
 192.69022 194.78911 197.05599 199.41888 201.86776 204.35165 206.44353 208.28941
 209.91930 211.06818 211.30107 211.53295 211.47384 211.18272 210.81960 210.45349
 210.07437 209.78826 209.60014 209.46803 209.39991 209.73479 210.12468 210.51756
 211.31445 212.49633 213.75022 215.53710 217.46899 219.51587 221.61475 223.70164
 225.76552 227.85341 229.95429 232.06418 234.19706 236.37294 238.63283 241.00671
 243.63160 245.88648 247.89237 249.66125 251.08213 252.20902 253.03490 253.35479
 253.39567 253.17356 252.53744 251.48932 250.09921 248.26409 246.17698 244.01386
 241.80875 239.61663 237.44051 235.28340 233.14728 231.01817 229.04805 227.20894
 225.49582 223.97171 222.60559 221.38147 220.26736 219.23124 218.33913 217.48401
 216.72990 215.91378 215.01566 214.38355 213.83743 214.34489 215.54379 217.05531
 218.05798 219.44623 221.20938 222.44006 223.57777 225.60732 228.33575 229.60687
 230.46365 231.70981 234.17361 238.10652 242.35580 246.44170 250.52611 254.52776
 258.26306 261.76852 265.06833 268.13919 270.94482 273.43903 275.55762 277.31137
 278.79767 280.09018 281.25461 282.36938 283.50104 284.54858 285.51144 286.39410
 287.19812 287.94168 288.60199 289.44348
 366.78100 356.33781 345.77263 334.64144 323.04725 311.24406 299.11688 286.92269
 274.63750 262.53731 250.54913 239.85294 229.97775 221.08457 213.26938 206.27419
 200.11100 195.05182 191.63663 189.68144 188.72125 188.78807 189.62588 190.93669
 192.66450 194.76232 197.02813 199.38994 201.83776 204.32057 206.41138 208.25619
 209.88501 211.03282 211.26463 211.49544 211.43526 211.14307 210.77888 210.41170
 210.03151 209.74432 209.55513 209.42195 209.35276 209.68657 210.07538 210.46720
 211.26301 212.44382 213.69664 215.48245 217.41326 219.45907 221.55689 223.64270
 225.70551 227.79232 229.89214 232.00095 234.13276 236.30757 238.56639 240.93920
 243.56301 245.81683 247.82164 249.58945 251.00926 252.13508 252.95989 253.27870
 253.31851 253.09533 252.45814 251.40895 250.01777 248.18158 246.09339 243.92920
 241.72302 239.52983 237.35264 235.19445 233.05727 230.92708 228.95589 227.11571
 225.40152 223.87633 222.50914 221.28396 220.16877 219.13158 218.23839 217.38221
 216.62702 215.80983 214.91064 214.27746 213.73027 214.28416 215.59283 217.16515
 218.18559 219.55127 221.20166 222.43832 223.62756 225.59422 228.26762 229.50607
 230.34154 231.65950 234.18744 238.13258 242.38399 246.44675 250.48578 254.46381
 258.19186 261.68646 264.97363 268.04248 270.84946 273.33298 275.41446 277.14288
 278.65268 280.00412 281.23645 282.38135 283.49609 284.54263 285.50131 286.37909
 287.17380 287.88947 288.50836 289.31308
 366.78100 356.33722 345.77144 334.63967 323.04489 311.24111 299.11333 286.91856
 274.63278 262.53200 250.54322 239.84645 229.97067 221.07689 213.26111 206.26534
 200.10156 195.04178 191.62600 189.67022 188.70945 188.77567 189.61289 190.92311
 192.65034 194.74756 197.01278 199.37400 201.82123 204.30345 206.39367 208.23789
 209.86611 211.01334 211.24456 211.47478 211.41400 211.12123 210.75645 210.38867
 210.00789 209.72012 209.53034 209.39656 209.32678 209.66001 210.04823 210.43945
 211.23467 212.41489 213.66712 215.45234 217.38256 219.42778 221.52501 223.61023
 225.67245 227.75867 229.85790 231.96612 234.09734 236.27156 238.52979 240.90201
 243.52523 245.77845 247.78267 249.54990 250.96912 252.09434 252.91856 253.23679
 253.27601 253.05223 252.41445 251.36468 249.97290 248.13612 246.04734 243.88256
 241.67579 239.48201 237.30423 235.14545 233.00768 230.87690 228.90512 227.06434
 225.34957 223.82379 222.45601 221.23023 220.11446 219.07668 218.18290 217.32612
 216.57034 215.75257 214.85279 214.21901 213.67123 214.25046 215.61893 217.24123
 218.30811 219.63637 221.16545 222.36647 223.58224 225.53448 228.17348 229.39413
 230.22845 231.58565 234.17706 238.18166 242.45337 246.49274 250.48949 254.45413
 258.18262 261.67136 264.94272 268.00003 270.80270 273.27612 275.31537 277.01297
 278.52341 279.90463 281.18143 282.35492 283.48959 284.52963 285.48788 286.36224
 287.15399 287.86456 288.47723 289.27872
 366.78100 356.33753 345.77206 334.64059 323.04612 311.24266 299.11519 286.92072
 274.63525 262.53478 250.54631 239.84984 229.97437 221.08090 213.26543 206.26997
 200.10650 195.04703 191.63156 189.67609 188.71562 188.78215 189.61968 190.93021
 192.65774 194.75528 197.02081 199.38234 201.82987 204.31240 206.40293 208.24746
 209.87599 211.02352 211.25505 211.48559 211.42512 211.13265 210.76818 210.40071
 210.02024 209.73277 209.54330 209.40983 209.34037 209.67390 210.06243 210.45396
 211.24949 212.43002 213.68255 215.46808 217.39861 219.44414 221.54168 223.62721
 225.68974 227.77627 229.87580 231.98433 234.11586 236.29039 238.54892 240.92145
 243.54499 245.79852 247.80305 249.57058 250.99011 252.11564 252.94017 253.25870
 253.29823 253.07476 252.43730 251.38783 249.99636 248.15989 246.07142 243.90695
 241.70048 239.50701 237.32954 235.17108 233.03361 230.90314 228.93167 227.09120
 225.37673 223.85126 222.48379 221.25832 220.14285 219.10539 218.21192 217.35545
 216.59998 215.78251 214.88304 214.24957 213.70210 214.26459 215.59352 217.30011
 218.47546 219.75456 221.14859 222.29265 223.51997 225.45853 228.06264 229.27150
 230.12056 231.51556 234.16641 238.22946 242.51620 246.53566 250.49554 254.44389
 258.17618 261.66168 264.91763 267.96378 270.76300 273.23196 275.24030 276.91721
 278.42929 279.82794 281.13351 282.33383 283.46716 284.50681 285.46393 286.33829
 287.12860 287.83688 288.45151 289.25333
 366.78100 356.33850 345.77400 334.64351 323.05001 311.24751 299.12101 286.92752
 274.64302 262.54352 250.55602 239.86053 229.98603 221.09353 213.27903 206.28454
 200.12204 195.06354 191.64904 189.69455 188.73505 188.80255 189.64105 190.95256
 192.68106 194.77956 197.04606 199.40856 201.85707 204.34057 206.43207 208.27757
 209.90708 211.05558 211.28808 211.51958 211.46009 211.16859 210.80509 210.43859
 210.05910 209.77260 209.58410 209.45160 209.38311 209.71761 210.10711 210.49961
 211.29612 212.47762 213.73112 215.51762 217.44912 219.49563 221.59413 223.68063
 225.74413 227.83164 229.93214 232.04164 234.17414 236.34965 238.60915 240.98265
 243.60715 245.86166 247.86716 249.63566 251.05616 252.18267 253.00817 253.32767
 253.36817 253.14568 252.50918 251.46068 250.07018 248.23468 246.14719 243.98369
 241.77819 239.58569 237.40920 235.25170 233.11520 230.98570 229.01521 227.17571
 225.46221 223.93771 222.57122 221.34672 220.23222 219.19572 218.30323 217.44773
 216.69323 215.87673 214.97824 214.34574 213.79924 214.31445 215.53168 217.33740
 218.68152 219.90663 221.16078 222.23473 223.45474 225.36252 227.92513 229.12447
 229.99585 231.43593 234.14946 238.26799 242.56224 246.55843 250.48820 254.42389
 258.15851 261.64035 264.88260 267.91849 270.71228 273.17697 275.16498 276.83478
 278.35257 279.76083 281.08633 282.30951 283.43661 284.47482 285.43356 286.30722
 287.09909 287.80795 288.42404 289.23251
 366.78100 356.33960 345.77620 334.64679 323.05439 311.25299 299.12759 286.93519
 274.65179 262.55338 250.56698 239.87258 229.99918 221.10778 213.29438 206.30097
 200.13957 195.08217 191.66877 189.71537 188.75697 188.82556 189.66516 190.97776
 192.70736 194.80696 197.07456 199.43815 201.88775 204.37235 206.46495 208.31155
 209.94215 211.09174 211.32534 211.55794 211.49954 211.20914 210.84673 210.48133
 210.10293 209.81753 209.63013 209.49873 209.43132 209.76692 210.15752 210.55112
 211.34872 212.53132 213.78591 215.57351 217.50611 219.55371 221.65331 223.74091
 225.80550 227.89410 229.99570 232.10630 234.23990 236.41650 238.67709 241.05169
 243.67729 245.93289 247.93949 249.70909 251.13068 252.25828 253.08488 253.40548
 253.44708 253.22567 252.59027 251.54287 250.15347 248.31907 246.23267 244.07026
 241.86586 239.67446 237.49906 235.34266 233.20726 231.07885 229.10945 227.27105
 225.55865 224.03525 222.66985 221.44644 220.33304 219.29764 218.40624 217.55184
 216.79844 215.98303 215.08563 214.45423 213.90883 214.37224 215.46709 217.34903
 218.87790 220.07483 221.20265 222.19377 223.38306 225.26114 227.78522 228.97908
 229.87910 231.37030 234.14305 238.30368 242.60559 246.58844 250.48816 254.40410
 258.13828 261.61594 264.84409 267.86832 270.65616 273.11209 275.08942 276.76132
 278.28598 279.70261 281.03995 282.28412 283.40250 284.44138 285.39944 286.27576
 287.06918 287.77997 288.40167 289.20416
 366.78100 356.34056 345.77812 334.64968 323.05824 311.25780 299.13336 286.94192
 274.65948 262.56204 250.57661 239.88317 230.01073 221.12029 213.30785 206.31541
 200.15497 195.09853 191.68609 189.73365 188.77621 188.84577 189.68633 190.99989
 192.73045 194.83101 197.09957 199.46413 201.91469 204.40025 206.49382 208.34138
 209.97294 211.12350 211.35806 211.59162 211.53418 211.24474 210.88330 210.51886
 210.14142 209.85698 209.67054 209.54010 209.47366 209.81022 210.20178 210.59634
 211.39490 212.57846 213.83403 215.62259 217.55615 219.60471 221.70527 223.79383
 225.85939 227.94895 230.05151 232.16307 234.29763 236.47519 238.73675 241.11231
 243.73887 245.99543 248.00299 249.77355 251.19611 252.32467 253.15224 253.47380
 253.51636 253.29592 252.66148 251.61504 250.22660 248.39316 246.30772 244.14628
 241.94284 239.75240 237.57796 235.42252 233.28808 231.16064 229.19220 227.35476
 225.64332 224.12089 222.75645 221.53401 220.42157 219.38713 218.49669 217.64325
 216.89081 216.07637 215.17993 214.54949 214.00505 214.42281 215.40979 217.35706
 219.04555 220.23701 221.25858 222.16524 223.31354 225.14410 227.63356 228.83800
 229.77710 231.32217 234.15268 238.35358 242.65967 246.61951 250.48834 254.39156
 258.12012 261.59119 264.80664 267.81628 270.59534 273.04254 275.01337 276.69156
 278.21991 279.63895 280.98593 282.23325 283.36829 284.40811 285.36557 286.24286
 287.03732 287.75314 288.37643 289.18097
 366.78100 356.34154 345.78007 334.65261 323.06214 311.26268 299.13921 286.94875
 274.66728 262.57082 250.58635 239.89389 230.02242 221.13296 213.32149 206.33003
 200.17056 195.11510 191.70363 189.75217 188.79570 188.86624 189.70777 191.02231
 192.75384 194.85538 197.12491 199.49045 201.94198 204.42852 206.52305 208.37159
 210.00412 211.15566 211.39119 211.62573 211.56926 211.28080 210.92033 210.55687
 210.18040 209.89694 209.71147 209.58201 209.51654 209.85408 210.24661 210.64215
 211.44168 212.62622 213.88275 215.67229 217.60682 219.65636 221.75789 223.84743
 225.91396 228.00450 230.10803 232.22057 234.35611 236.53464 238.79718 241.17371
 243.80125 246.05878 248.06732 249.83885 251.26239 252.39192 253.22046 253.54299
 253.58653 253.36706 252.73360 251.68813 250.30067 248.46820 246.38374 244.22327
 242.02081 239.83134 237.65788 235.50341 233.36995 231.24348 229.27602 227.43955
 225.72909 224.20762 222.84416 221.62269 220.51123 219.47776 218.58830 217.73583
 216.98437 216.17090 215.27544 214.64597 214.10251 214.47298 215.34825 217.36560
 219.20474 220.39696 221.31557 222.12231 223.21678 225.02774 227.49290 228.70769
 229.68721 231.28696 234.16896 238.40512 242.71140 246.65561 250.49597 254.38066
 258.10187 261.56720 264.76917 267.76245 270.53152 272.96585 274.93518 276.62201
 278.15436 279.57651 280.93060 282.17343 283.33545 284.37952 285.33704 286.21445
 287.00867 287.72702 288.35153 289.15787
 366.78100 356.34250 345.78201 334.65551 323.06601 311.26752 299.14502 286.95552
 274.67503 262.57953 250.59603 239.90454 230.03404 221.14554 213.33505 206.34455
 200.18605 195.13156 191.72106 189.77056 188.81507 188.88657 189.72907 191.04458
 192.77708 194.87959 197.15009 199.51659 201.96910 204.45660 206.55210 208.40161
 210.03511 211.18761 211.42412 211.65962 211.60412 211.31663 210.95713 210.59463
 210.21914 209.93664 209.75214 209.62365 209.55915 209.89765 210.29116 210.68766
 211.48816 212.67367 213.93117 215.72167 217.65718 219.70768 221.81018 223.90069
 225.96819 228.05969 230.16420 232.27770 234.41420 236.59371 238.85721 241.23471
 243.86322 246.12172 248.13122 249.90373 251.32823 252.45874 253.28824 253.61174
 253.65625 253.43775 252.80525 251.76076 250.37426 248.54276 246.45927 244.29977
 242.09827 239.90978 237.73728 235.58378 233.45129 231.32579 229.35929 227.52380
 225.81430 224.29380 222.93131 221.71081 220.60031 219.56782 218.67932 217.82782
 217.07733 216.26483 215.37033 214.74184 214.19934 214.52272 215.28673 217.36176
 219.36035 220.56120 221.38489 222.09015 223.11852 224.87276 227.33818 228.59024
 229.61351 231.26704 234.19681 238.46146 242.76360 246.69167 250.51082 254.36917
 258.08206 261.53940 264.72693 267.70425 270.46115 272.88330 274.85593 276.55466
 278.08783 279.51080 280.86960 282.11914 283.29184 284.34265 285.30646 286.18811
 286.98947 287.70819 288.33884 289.15698
 366.78100 356.34337 345.78375 334.65812 323.06949 311.27186 299.15024 286.96161
 274.68198 262.58736 250.60473 239.91410 230.04447 221.15685 213.34722 206.35759
 200.19997 195.14634 191.73671 189.78708 188.83246 188.90483 189.74820 191.06458
 192.79795 194.90132 197.17269 199.54007 201.99344 204.48181 206.57819 208.42856
 210.06293 211.21630 211.45368 211.69005 211.63542 211.34880 210.99017 210.62854
 210.25391 209.97229 209.78866 209.66103 209.59741 209.93678 210.33115 210.72852
 211.52990 212.71627 213.97464 215.76602 217.70239 219.75376 221.85713 223.94851
 226.01688 228.10925 230.21463 232.32900 234.46637 236.64674 238.91112 241.28949
 243.91886 246.17824 248.18861 249.96198 251.38735 252.51873 253.34910 253.67347
 253.71885 253.50122 252.86959 251.82596 250.44034 248.60971 246.52708 244.36846
 242.16783 239.98020 237.80857 235.65595 233.52432 231.39969 229.43407 227.59944
 225.89081 224.37118 223.00956 221.78993 220.68030 219.64868 218.76105 217.91042
 217.16079 216.34917 215.45554 214.82791 214.28629 214.56810 215.23393 217.34526
 219.50275 220.71533 221.46338 222.07199 223.02599 224.71368 227.17867 228.47173
 229.54324 231.25565 234.23300 238.52226 242.81961 246.73203 250.52017 254.35680
 258.06351 261.50870 264.68222 267.64413 270.38867 272.80130 274.78265 276.49533
 278.02521 279.44742 280.77597 282.09128 283.26422 284.31210 285.27667 286.15744
 286.96106 287.68356 288.31802 289.13663
 366.78100 356.34409 345.78518 334.66027 323.07236 311.27546 299.15455 286.96664
 274.68773 262.59382 250.61191 239.92200 230.05309 221.16618 213.35728 206.36837
 200.21146 195.15855 191.74964 189.80073 188.84682 188.91991 189.76400 191.08109
 192.81519 194.91928 197.19137 199.55946 202.01355 204.50264 206.59973 208.45082
 210.08591 211.24001 211.47810 211.71519 211.66128 211.37537 211.01746 210.65655
 210.28264 210.00173 209.81883 209.69192 209.62901 209.96910 210.36419 210.76228
 211.56437 212.75146 214.01055 215.80265 217.73974 219.79183 221.89592 223.98801
 226.05710 228.15019 230.25628 232.37137 234.50947 236.69056 238.95565 241.33474
 243.96483 246.22492 248.23601 250.01010 251.43619 252.56828 253.39938 253.72447
 253.77056 253.55365 252.92274 251.87983 250.49492 248.66501 246.58310 244.42520
 242.22529 240.03838 237.86747 235.71556 233.58465 231.46074 229.49583 227.66192
 225.95402 224.43511 223.07420 221.85529 220.74638 219.71547 218.82856 217.97865
 217.22974 216.41884 215.52593 214.89902 214.35811 214.60692 215.19475 217.31866
 219.63017 220.85895 221.55188 222.06898 222.94067 224.56296 227.01721 228.34344
 229.46651 231.24510 234.27451 238.58485 242.87518 246.77937 250.53055 254.34375
 258.04272 261.47601 264.63608 267.58362 270.31604 272.72198 274.71698 276.44348
 277.96988 279.38956 280.70001 282.04086 283.22623 284.28024 285.24600 286.13092
 286.93320 287.65610 288.29221 289.10895
 366.78100 356.34462 345.78625 334.66187 323.07450 311.27812 299.15775 286.97037
 274.69200 262.59862 250.61725 239.92787 230.05950 221.17312 213.36475 206.37637
 200.22000 195.16762 191.75925 189.81087 188.85750 188.93112 189.77575 191.09337
 192.82800 194.93262 197.20525 199.57387 202.02850 204.51812 206.61575 208.46737
 210.10299 211.25762 211.49624 211.73387 211.68049 211.39512 211.03774 210.67737
 210.30399 210.02362 209.84124 209.71487 209.65249 209.99312 210.38874 210.78737
 211.58999 212.77762 214.03724 215.82987 217.76749 219.82012 221.92474 224.01737
 226.08699 228.18062 230.28724 232.40287 234.54149 236.72312 238.98874 241.36836
 243.99899 246.25961 248.27124 250.04586 251.47249 252.60511 253.43674 253.76236
 253.80899 253.59261 252.96224 251.91986 250.53549 248.70611 246.62474 244.46736
 242.26799 240.08161 237.91124 235.75986 233.62949 231.50611 229.54174 227.70836
 226.00099 224.48261 223.12224 221.90386 220.79549 219.76511 218.87873 218.02936
 217.28098 216.47061 215.57823 214.95186 214.41148 214.63718 215.17039 217.28154
 219.74117 220.99883 221.64848 222.07616 222.85841 224.41833 226.85452 228.20836
 229.38626 231.23845 234.32193 238.65288 242.93405 246.81998 250.54738 254.33543
 258.02225 261.44177 264.58908 267.52213 270.24237 272.64383 274.65308 276.39270
 277.91742 279.33047 280.64349 281.99142 283.18228 284.23874 285.20865 286.09381
 286.89807 287.62146 288.25479 289.07706
 366.78100 356.34502 345.78704 334.66306 323.07608 311.28010 299.16012 286.97314
 274.69516 262.60218 250.62120 239.93222 230.06424 221.17826 213.37028 206.38231
 200.22633 195.17435 191.76637 189.81839 188.86541 188.93943 189.78445 191.10247
 192.83749 194.94251 197.21553 199.58455 202.03957 204.52959 206.62761 208.47963
 210.11565 211.27067 211.50969 211.74771 211.69473 211.40975 211.05277 210.69279
 210.31981 210.03983 209.85785 209.73187 209.66990 210.01092 210.40694 210.80596
 211.60898 212.79700 214.05702 215.85004 217.78806 219.84108 221.94610 224.03912
 226.10914 228.20316 230.31018 232.42620 234.56522 236.74724 239.01326 241.39328
 244.02430 246.28532 248.29734 250.07236 251.49938 252.63240 253.46442 253.79044
 253.83746 253.62149 252.99151 251.94953 250.56555 248.73657 246.65559 244.49861
 242.29963 240.11365 237.94367 235.79269 233.66271 231.53973 229.57575 227.74277
 226.03579 224.51781 223.15783 221.93985 220.83187 219.80189 218.91591 218.06693
 217.31895 216.50897 215.61699 214.99101 214.45103 214.66130 215.15807 217.23854
 219.83583 221.13576 221.74268 222.08173 222.77194 224.27682 226.69170 228.06931
 229.30573 231.23793 234.37834 238.72693 242.99979 246.86891 250.57246 254.33099
 258.00143 261.40717 264.54138 267.45917 270.16684 272.56610 274.58908 276.34158
 277.86420 279.26871 280.59503 281.94519 283.13651 284.19568 285.16693 286.05362
 286.85803 287.58154 288.21530 289.03796
 366.78100 356.34539 345.78778 334.66417 323.07756 311.28195 299.16234 286.97573
 274.69812 262.60551 250.62490 239.93629 230.06868 221.18307 213.37547 206.38786
 200.23225 195.18064 191.77303 189.82542 188.87281 188.94720 189.79259 191.11098
 192.84637 194.95176 197.22515 199.59454 202.04993 204.54032 206.63871 208.49110
 210.12749 211.28288 211.52227 211.76066 211.70805 211.42344 211.06683 210.70722
 210.33461 210.05501 209.87340 209.74779 209.68618 210.02757 210.42396 210.82335
 211.62674 212.81513 214.07552 215.86891 217.80730 219.86069 221.96608 224.05947
 226.12986 228.22425 230.33164 232.44803 234.58742 236.76981 239.03620 241.41659
 244.04798 246.30937 248.32176 250.09715 251.52455 252.65794 253.49033 253.81672
 253.86411 253.64850 253.01889 251.97728 250.59367 248.76506 246.68445 244.52784
 242.32923 240.14362 237.97401 235.82340 233.69379 231.57118 229.60757 227.77496
 226.06835 224.55074 223.19113 221.97352 220.86591 219.83630 218.95069 218.10209
 217.35448 216.54487 215.65326 215.02765 214.48804 214.68422 215.14775 217.20206
 219.90973 221.26088 221.82678 222.08182 222.68347 224.14256 226.53302 227.93159
 229.22926 231.24442 234.44142 238.80701 243.06874 246.92307 250.60231 254.33147
 257.98276 261.37228 264.49194 267.39478 270.08936 272.48532 274.52090 276.28345
 277.80719 279.20435 280.55295 281.90598 283.09668 284.15567 285.12729 286.01324
 286.81668 287.54007 288.17291 288.99506
 366.78100 356.34582 345.78865 334.66547 323.07930 311.28412 299.16495 286.97877
 274.70160 262.60942 250.62925 239.94107 230.07390 221.18872 213.38154 206.39437
 200.23919 195.18802 191.78084 189.83367 188.88149 188.95632 189.80214 191.12097
 192.85679 194.96262 197.23644 199.60627 202.06209 204.55291 206.65174 208.50456
 210.14139 211.29721 211.53704 211.77586 211.72369 211.43951 211.08334 210.72416
 210.35199 210.07281 209.89163 209.76646 209.70528 210.04711 210.44393 210.84376
 211.64758 212.83641 214.09723 215.89106 217.82988 219.88371 221.98953 224.08335
 226.15418 228.24900 230.35683 232.47365 234.61348 236.79630 239.06313 241.44395
 244.07578 246.33760 248.35043 250.12625 251.55408 252.68790 253.52072 253.84755
 253.89537 253.68020 253.05102 252.00985 250.62667 248.79850 246.71832 244.56215
 242.36397 240.17880 238.00962 235.85944 233.73027 231.60809 229.64492 227.81274
 226.10657 224.58939 223.23022 222.01304 220.90587 219.87669 218.99152 218.14334
 217.39617 216.58699 215.69581 215.07064 214.53146 214.71039 215.13312 217.18227
 219.95428 221.36336 221.90643 222.08650 222.60266 224.02132 226.38078 227.79399
 229.15375 231.25377 234.50775 238.89133 243.14296 246.98112 250.63496 254.33383
 257.96277 261.33417 264.43860 267.32709 270.01007 272.40451 274.45276 276.22601
 277.74884 279.14209 280.51105 281.86597 283.05646 284.11584 285.08398 285.96954
 286.77225 287.49307 288.12427 288.94482
 366.78100 356.34632 345.78963 334.66695 323.08126 311.28658 299.16790 286.98221
 274.70553 262.61384 250.63416 239.94648 230.07979 221.19511 213.38842 206.40174
 200.24706 195.19637 191.78969 189.84300 188.89132 188.96664 189.81295 191.13227
 192.86858 194.97490 197.24922 199.61953 202.07585 204.56716 206.66648 208.51980
 210.15711 211.31343 211.55374 211.79306 211.74137 211.45769 211.10201 210.74332
 210.37164 210.09295 209.91227 209.78759 209.72690 210.06922 210.46653 210.86685
 211.67117 212.86048 214.12180 215.91611 217.85543 219.90975 222.01606 224.11038
 226.18169 228.27701 230.38533 232.50264 234.64296 236.82627 239.09359 241.47491
 244.10722 246.36954 248.38285 250.15917 251.58749 252.72180 253.55512 253.88243
 253.93075 253.71607 253.08738 252.04670 250.66401 248.83633 246.75665 244.60096
 242.40328 240.21859 238.04991 235.90023 233.77154 231.64986 229.68717 227.85549
 226.14981 224.63312 223.27444 222.05775 220.95107 219.92239 219.03770 218.19002
 217.44333 216.63465 215.74396 215.11928 214.58060 214.74057 215.11850 217.17863
 219.96440 221.44257 221.99222 222.10715 222.53752 223.91628 226.23354 227.65431
 229.07576 231.26157 234.57240 238.97429 243.21667 247.03818 250.66739 254.33611
 257.93958 261.29141 264.38174 267.25800 269.93195 272.32697 274.38766 276.17120
 277.69662 279.08887 280.47440 281.82962 283.02094 284.07779 285.04736 285.93134
 286.73392 287.45627 288.08713 288.90775
 366.78100 356.34673 345.79046 334.66819 323.08292 311.28865 299.17038 286.98511
 274.70884 262.61757 250.63831 239.95104 230.08477 221.20050 213.39423 206.40796
 200.25369 195.20342 191.79715 189.85088 188.89961 188.97534 189.82207 191.14180
 192.87853 194.98526 197.25999 199.63072 202.08746 204.57919 206.67892 208.53265
 210.17038 211.32711 211.56784 211.80757 211.75630 211.47303 211.11776 210.75949
 210.38822 210.10995 209.92968 209.80541 209.74514 210.08787 210.48561 210.88634
 211.69107 212.88080 214.14253 215.93726 217.87699 219.93172 222.03845 224.13318
 226.20491 228.30064 230.40937 232.52710 234.66783 236.85156 239.11929 241.50102
 244.13376 246.39649 248.41022 250.18695 251.61568 252.75041 253.58414 253.91187
 253.96060 253.74633 253.11806 252.07779 250.69552 248.86825 246.78898 244.63371
 242.43644 240.25217 238.08391 235.93464 233.80637 231.68510 229.72283 227.89156
 226.18629 224.67002 223.31175 222.09548 220.98921 219.96094 219.07667 218.22940
 217.48313 216.67486 215.78459 215.16032 214.62206 214.76953 215.11797 217.17802
 219.94867 221.49863 222.08504 222.14328 222.48500 223.82365 226.09145 227.51378
 228.99606 231.26822 234.63538 239.05588 243.28941 247.09532 250.70174 254.33896
 257.91394 261.24384 264.32166 267.18738 269.85416 272.25159 274.32162 276.11383
 277.64630 279.04092 280.44919 281.80603 282.99551 284.05255 285.02011 285.90579
 286.71017 287.43552 288.06787 288.88666
 366.78100 356.34683 345.79066 334.66849 323.08332 311.28915 299.17098 286.98581
 274.70964 262.61847 250.63930 239.95213 230.08596 221.20179 213.39562 206.40945
 200.25528 195.20511 191.79894 189.85277 188.90160 188.97743 189.82426 191.14409
 192.88092 194.98775 197.26258 199.63341 202.09024 204.58207 206.68190 208.53573
 210.17356 211.33039 211.57122 211.81105 211.75988 211.47671 211.12154 210.76337
 210.39220 210.11403 209.93386 209.80969 209.74952 210.09235 210.49018 210.89101
 211.69584 212.88567 214.14750 215.94233 217.88216 219.93699 222.04382 224.13865
 226.21048 228.30631 230.41514 232.53297 234.67380 236.85763 239.12546 241.50729
 244.14012 246.40295 248.41678 250.19361 251.62244 252.75727 253.59110 253.91893
 253.96776 253.75359 253.12542 252.08525 250.70308 248.87591 246.79674 244.64157
 242.44440 240.26023 238.09206 235.94289 233.81472 231.69355 229.73138 227.90021
 226.19504 224.67887 223.32070 222.10453 220.99836 219.97019 219.08602 218.23885
 217.49268 216.68451 215.79434 215.17017 214.63200 214.78517 215.14702 217.16811
 219.92249 221.53365 222.16859 222.17975 222.43541 223.73921 225.95193 227.37578
 228.92337 231.28021 234.70204 239.13889 243.36438 247.15884 250.74240 254.34506
 257.88788 261.19440 264.25870 267.11594 269.77719 272.17538 274.25232 276.05252
 277.59781 278.99762 280.43439 281.79300 282.98114 284.03729 285.00507 285.89008
 286.69595 287.42233 288.05783 288.87982
 366.78100 356.34662 345.79024 334.66787 323.08249 311.28811 299.16973 286.98436
 274.70798 262.61660 250.63722 239.94984 230.08347 221.19909 213.39271 206.40633
 200.25196 195.20158 191.79520 189.84882 188.89744 188.97307 189.81969 191.13931
 192.87593 194.98256 197.25718 199.62780 202.08442 204.57604 206.67567 208.52929
 210.16691 211.32353 211.56416 211.80378 211.75240 211.46902 211.11364 210.75527
 210.38389 210.10551 209.92513 209.80076 209.74038 210.08300 210.48062 210.88124
 211.68587 212.87549 214.13711 215.93173 217.87136 219.92598 222.03260 224.12722
 226.19884 228.29447 230.40309 232.52071 234.66133 236.84496 239.11258 241.49420
 244.12682 246.38944 248.40307 250.17969 251.60831 252.74293 253.57655 253.90418
 253.95280 253.73842 253.11004 252.06967 250.68729 248.85991 246.78053 244.62515
 242.42778 240.24340 238.07502 235.92564 233.79727 231.67589 229.71351 227.88213
 226.17675 224.66038 223.30200 222.08562 220.97924 219.95087 219.06649 218.21911
 217.47273 216.66435 215.77398 215.14960 214.61122 214.78656 215.20078 217.15375
 219.89383 221.55017 222.23265 222.20299 222.37875 223.65486 225.82056 227.24927
 228.86122 231.29910 234.77521 239.22502 243.44525 247.23227 250.79231 254.35672
 257.86371 261.14502 264.19482 267.04440 269.70068 272.09671 274.17587 275.98080
 277.53793 278.93402 280.43451 281.79837 282.98526 284.03958 285.00568 285.88992
 286.69669 287.42392 288.06186 288.88391
 366.78100 356.34626 345.78953 334.66679 323.08105 311.28632 299.16758 286.98184
 274.70511 262.61337 250.63363 239.94590 230.07916 221.19443 213.38769 206.40095
 200.24622 195.19548 191.78874 189.84201 188.89027 188.96553 189.81180 191.13106
 192.86732 194.97359 197.24785 199.61811 202.07438 204.56564 206.66490 208.51817
 210.15543 211.31169 211.55196 211.79122 211.73949 211.45575 211.10001 210.74128
 210.36954 210.09080 209.91007 209.78533 209.72459 210.06686 210.46412 210.86438
 211.66865 212.85791 214.11917 215.91344 217.85270 219.90696 222.01323 224.10749
 226.17875 228.27402 230.38228 232.49955 234.63981 236.82307 239.09034 241.47160
 244.10386 246.36613 248.37939 250.15565 251.58392 252.71818 253.55144 253.87871
 253.92697 253.71223 253.08350 252.04276 250.66002 248.83229 246.75255 244.59681
 242.39908 240.21434 238.04561 235.89587 233.76713 231.64540 229.68266 227.85092
 226.14519 224.62845 223.26971 222.05298 220.94624 219.91750 219.03277 218.18503
 217.43829 216.62956 215.73882 215.11408 214.57535 214.77974 215.26262 217.14449
 219.85611 221.54868 222.27815 222.21404 222.31699 223.58052 225.69170 227.12634
 228.80960 231.32875 234.85812 239.31717 243.53461 247.31735 250.85284 254.37483
 257.84277 261.09647 264.13034 266.97321 269.62375 272.01654 274.09470 275.90442
 277.47879 278.90643 280.42264 281.79080 282.97824 284.03149 284.99753 285.87796
 286.68533 287.41431 288.04642 288.84805
 366.78100 356.34584 345.78869 334.66553 323.07937 311.28422 299.16506 286.97890
 274.70174 262.60959 250.62943 239.94127 230.07412 221.18896 213.38180 206.39465
 200.23949 195.18833 191.78118 189.83402 188.88186 188.95671 189.80255 191.12139
 192.85723 194.96308 197.23692 199.60676 202.06261 204.55345 206.65229 208.50514
 210.14198 211.29782 211.53767 211.77651 211.72435 211.44019 211.08404 210.72488
 210.35272 210.07357 209.89241 209.76725 209.70610 210.04794 210.44478 210.84463
 211.64847 212.83731 214.09815 215.89200 217.83084 219.88468 221.99053 224.08437
 226.15521 228.25006 230.35790 232.47474 234.61459 236.79743 239.06427 241.44512
 244.07696 246.33880 248.35164 250.12749 251.55533 252.68917 253.52202 253.84886
 253.89670 253.68155 253.05239 252.01123 250.62808 248.79992 246.71976 244.56360
 242.36545 240.18029 238.01113 235.86098 233.73182 231.60966 229.64651 227.81435
 226.10819 224.59104 223.23188 222.01472 220.90757 219.87841 218.99325 218.14509
 217.39794 216.58878 215.69762 215.07247 214.53331 214.76924 215.32666 217.13974
 219.79413 221.54361 222.31100 222.21605 222.25282 223.49623 225.57233 227.02649
 228.77226 231.36415 234.94801 239.41255 243.62685 247.40535 250.91774 254.39630
 257.82257 261.04837 264.06723 266.90463 269.55023 271.93756 274.01218 275.82278
 277.41534 278.88956 280.41171 281.78040 282.96799 284.02032 284.98428 285.86661
 286.67416 287.40173 288.03250 288.82523
 366.78100 356.34546 345.78792 334.66438 323.07783 311.28229 299.16275 286.97621
 274.69867 262.60613 250.62559 239.93704 230.06950 221.18396 213.37642 206.38888
 200.23334 195.18180 191.77425 189.82671 188.87417 188.94863 189.79409 191.11255
 192.84801 194.95346 197.22692 199.59638 202.05184 204.54230 206.64076 208.49322
 210.12967 211.28513 211.52459 211.76305 211.71051 211.42597 211.06943 210.70988
 210.33734 210.05780 209.87626 209.75072 209.68918 210.03064 210.42709 210.82655
 211.63001 212.81847 214.07893 215.87239 217.81085 219.86430 221.96976 224.06322
 226.13368 228.22814 230.33560 232.45206 234.59151 236.77397 239.04043 241.42089
 244.05235 246.31381 248.32627 250.10172 251.52918 252.66264 253.49510 253.82156
 253.86902 253.65348 253.02393 251.98239 250.59885 248.77031 246.68977 244.53323
 242.33469 240.14914 237.97960 235.82906 233.69952 231.57698 229.61344 227.78090
 226.07435 224.55681 223.19727 221.97973 220.87219 219.84265 218.95711 218.10856
 217.36102 216.55148 215.65994 215.03440 214.49486 214.76030 215.38742 217.14832
 219.70628 221.53798 222.35295 222.20418 222.17157 223.43114 225.44450 226.90184
 228.72345 231.40129 235.04556 239.51230 243.72372 247.49951 250.98833 254.42204
 257.80548 261.00247 264.00528 266.83908 269.47983 271.86160 273.93188 275.74619
 277.35989 278.87073 280.39709 281.76569 282.95038 284.00287 284.96539 285.84622
 286.65201 287.38254 288.00677 288.80225
 366.78100 356.34491 345.78683 334.66274 323.07565 311.27957 299.15948 286.97239
 274.69431 262.60122 250.62013 239.93105 230.06296 221.17687 213.36879 206.38070
 200.22461 195.17253 191.76444 189.81635 188.86327 188.93718 189.78209 191.10001
 192.83492 194.93983 197.21275 199.58166 202.03657 204.52649 206.62440 208.47631
 210.11223 211.26714 211.50605 211.74397 211.69088 211.40580 211.04871 210.68862
 210.31554 210.03545 209.85336 209.72728 209.66519 210.00610 210.40202 210.80093
 211.60384 212.79176 214.05167 215.84458 217.78250 219.83541 221.94032 224.03324
 226.10315 228.19706 230.30398 232.41989 234.55880 236.74072 239.00663 241.38654
 244.01746 246.27837 248.29028 250.06520 251.49211 252.62502 253.45694 253.78285
 253.82976 253.61368 252.98359 251.94150 250.55742 248.72833 246.64724 244.49016
 242.29107 240.10498 237.93490 235.78381 233.65372 231.53064 229.56655 227.73346
 226.02638 224.50829 223.14820 221.93012 220.82203 219.79194 218.90586 218.05677
 217.30868 216.49860 215.60651 214.98042 214.44034 214.74091 215.45100 217.18535
 219.60220 221.50868 222.39420 222.22754 222.11931 223.29202 225.28413 226.79965
 228.68428 231.43954 235.14865 239.61378 243.82188 247.59694 251.06686 254.45700
 257.79797 260.96362 263.94968 266.77713 269.41077 271.78345 273.84705 275.66599
 277.30627 278.85263 280.38062 281.74719 282.93130 283.98102 284.93835 285.81958
 286.62769 287.35965 287.97299 288.76550
 366.78100 356.34416 345.78532 334.66048 323.07264 311.27580 299.15496 286.96712
 274.68828 262.59444 250.61260 239.92276 230.05392 221.16708 213.35824 206.36940
 200.21256 195.15972 191.75088 189.80204 188.84820 188.92136 189.76552 191.08268
 192.81684 194.92101 197.19317 199.56133 202.01549 204.50465 206.60181 208.45297
 210.08813 211.24229 211.48045 211.71761 211.66377 211.37793 211.02009 210.65925
 210.28541 210.00457 209.82173 209.69489 209.63205 209.97221 210.36737 210.76553
 211.56769 212.75485 214.01401 215.80617 217.74333 219.79549 221.89965 223.99181
 226.06097 228.15413 230.26029 232.37545 234.51361 236.69477 238.95993 241.33909
 243.96925 246.22941 248.24057 250.01473 251.44089 252.57305 253.40421 253.72937
 253.77553 253.55870 252.92786 251.88502 250.50018 248.67034 246.58850 244.43066
 242.23082 240.04398 237.87314 235.72130 233.59046 231.46662 229.50178 227.66794
 225.96010 224.44126 223.08042 221.86158 220.75274 219.72190 218.83506 217.98522
 217.23638 216.42554 215.53270 214.90586 214.36502 214.71391 215.53824 217.23219
 219.48038 221.44180 222.40924 222.24673 222.07205 223.14368 225.12863 226.72009
 228.66183 231.49084 235.25922 239.71463 243.91699 247.69330 251.14409 254.49258
 257.79181 260.92926 263.89847 266.72235 269.34952 271.71094 273.76477 275.58124
 277.23914 278.81488 280.34662 281.71109 282.89249 283.94046 284.89624 285.77502
 286.58603 287.32092 287.93298 288.72632
 366.78100 356.34438 345.78576 334.66115 323.07353 311.27691 299.15629 286.96868
 274.69006 262.59644 250.61482 239.92521 230.05659 221.16997 213.36135 206.37274
 200.21612 195.16350 191.75488 189.80627 188.85265 188.92603 189.77041 191.08779
 192.82218 194.92656 197.19894 199.56732 202.02171 204.51109 206.60847 208.45985
 210.09524 211.24962 211.48800 211.72538 211.67177 211.38615 211.02853 210.66791
 210.29430 210.01368 209.83106 209.70444 209.64182 209.98221 210.37759 210.77597
 211.57835 212.76574 214.02512 215.81750 217.75488 219.80727 221.91165 224.00403
 226.07341 228.16680 230.27318 232.38856 234.52694 236.70832 238.97371 241.35309
 243.98347 246.24385 248.25524 250.02962 251.45600 252.58838 253.41977 253.74515
 253.79153 253.57491 252.94430 251.90168 250.51706 248.68744 246.60583 244.44821
 242.24859 240.06197 237.89135 235.73974 233.60912 231.48550 229.52088 227.68727
 225.97965 224.46103 223.10041 221.88180 220.77318 219.74256 218.85594 218.00633
 217.25771 216.44709 215.55447 214.92786 214.38724 214.74544 215.59172 217.25883
 219.41472 221.37131 222.37863 222.20097 221.96960 222.96744 224.96082 226.63995
 228.65643 231.57086 235.39909 239.84196 244.04556 247.82979 251.26833 254.56953
 257.81815 260.91364 263.85358 266.66199 269.27475 271.61829 273.66098 275.48746
 277.18509 278.78339 280.30624 281.66302 282.83972 283.88339 284.83545 285.71368
 286.52533 287.26401 287.87216 288.66299
 366.78100 356.34624 345.78949 334.66673 323.08097 311.28621 299.16746 286.98170
 274.70494 262.61318 250.63343 239.94567 230.07891 221.19416 213.38740 206.40064
 200.24588 195.19513 191.78837 189.84161 188.88985 188.96510 189.81134 191.13058
 192.86683 194.97307 197.24731 199.61755 202.07380 204.56504 206.66428 208.51752
 210.15477 211.31101 211.55125 211.79050 211.73874 211.45498 211.09922 210.74047
 210.36871 210.08995 209.90919 209.78444 209.72368 210.06592 210.46317 210.86341
 211.66765 212.85689 214.11814 215.91238 217.85162 219.90586 222.01211 224.10635
 226.17759 228.27284 230.38108 232.49832 234.63856 236.82181 239.08905 241.47029
 244.10253 246.36478 248.37802 250.15426 251.58251 252.71675 253.54999 253.87723
 253.92548 253.71072 253.08196 252.04120 250.65845 248.83069 246.75093 244.59518
 242.39742 240.21266 238.04390 235.89415 233.76539 231.64363 229.68087 227.84912
 226.14336 224.62660 223.26785 222.05109 220.94433 219.91557 219.03082 218.18306
 217.43630 216.62754 215.73679 215.11203 214.57327 214.86775 215.56351 217.22711
 219.48842 221.39275 222.36490 222.10233 221.78369 222.71263 224.72801 226.50781
 228.62196 231.66034 235.55946 239.99101 244.20920 248.02061 251.45107 254.69942
 257.88330 260.92853 263.82382 266.60602 269.19180 271.50159 273.52631 275.37433
 277.11505 278.72989 280.23331 281.58368 282.75641 283.79523 284.74362 285.61652
 286.42838 287.15726 287.76675 288.55927
 366.78100 356.34629 345.78957 334.66686 323.08115 311.28644 299.16772 286.98201
 274.70530 262.61358 250.63387 239.94616 230.07945 221.19473 213.38802 206.40131
 200.24659 195.19588 191.78917 189.84246 188.89074 188.96603 189.81232 191.13160
 192.86789 194.97418 197.24847 199.61875 202.07504 204.56633 206.66561 208.51890
 210.15619 211.31248 211.55276 211.79205 211.74034 211.45662 211.10091 210.74220
 210.37049 210.09177 209.91106 209.78635 209.72563 210.06792 210.46521 210.86550
 211.66978 212.85907 214.12036 215.91464 217.85393 219.90822 222.01451 224.10879
 226.18008 228.27537 230.38365 232.50094 234.64123 236.82451 239.09180 241.47309
 244.10538 246.36766 248.38095 250.15724 251.58552 252.71981 253.55310 253.88039
 253.92867 253.71396 253.08525 252.04453 250.66182 248.83411 246.75440 244.59868
 242.40097 240.21626 238.04754 235.89783 233.76912 231.64741 229.68469 227.85298
 226.14727 224.63055 223.27184 222.05513 220.94842 219.91970 219.03499 218.18728
 217.44056 216.63185 215.74114 215.11643 214.57771 214.89867 215.65692 217.10831
 219.44121 221.48727 222.48367 222.09914 221.61183 222.44440 224.42171 226.26436
 228.51215 231.67468 235.67892 240.11981 244.34091 248.16980 251.61670 254.83788
 257.98404 260.99207 263.84964 266.60483 269.16516 271.44366 273.43021 275.26398
 277.02414 278.66333 280.15042 281.47916 282.63754 283.67487 284.62646 285.50748
 286.32675 287.04031 287.67014 288.47992
 366.78100 356.34427 345.78555 334.66082 323.07309 311.27636 299.15564 286.96791
 274.68918 262.59545 250.61373 239.92400 230.05527 221.16854 213.35982 206.37109
 200.21436 195.16163 191.75291 189.80418 188.85045 188.92372 189.76800 191.08527
 192.81954 194.92381 197.19609 199.56436 202.01863 204.50790 206.60518 208.45645
 210.09172 211.24599 211.48427 211.72154 211.66781 211.38208 211.02436 210.66363
 210.28990 210.00917 209.82645 209.69972 209.63699 209.97726 210.37254 210.77081
 211.57308 212.76035 214.01963 215.81190 217.74917 219.80144 221.90572 223.99799
 226.06726 228.16053 230.26681 232.38208 234.52035 236.70162 238.96690 241.34617
 243.97644 246.23671 248.24799 250.02226 251.44853 252.58080 253.41208 253.73735
 253.78362 253.56689 252.93617 251.89344 250.50871 248.67898 246.59726 244.43953
 242.23980 240.05307 237.88235 235.73062 233.59989 231.47616 229.51144 227.67771
 225.96998 224.45125 223.09053 221.87180 220.76307 219.73234 218.84562 217.99589
 217.24716 216.43643 215.54371 214.91698 214.37625 214.81795 215.86154 217.06549
 219.10602 221.40230 222.66971 222.32268 221.66975 222.33430 224.18025 226.02022
 228.34164 231.61115 235.70792 240.15614 244.38170 248.26088 251.72455 254.95428
 258.07138 261.06927 263.90857 266.65451 269.20447 271.47382 273.46381 275.28012
 276.99463 278.55804 279.96088 281.21167 282.35172 283.39627 284.36813 285.25235
 286.04330 286.73703 287.33902 288.10617
 366.78100 356.34482 345.78664 334.66246 323.07528 311.27909 299.15891 286.97173
 274.69355 262.60037 250.61919 239.93001 230.06183 221.17565 213.36747 206.37928
 200.22310 195.17092 191.76274 189.81456 188.86138 188.93520 189.78002 191.09784
 192.83265 194.93747 197.21029 199.57911 202.03393 204.52375 206.62157 208.47339
 210.10921 211.26402 211.50284 211.74066 211.68748 211.40230 211.04512 210.68494
 210.31176 210.03158 209.84940 209.72321 209.66103 210.00185 210.39767 210.79649
 211.59931 212.78713 214.04695 215.83977 217.77758 219.83040 221.93522 224.02804
 226.09786 228.19168 230.29850 232.41432 234.55314 236.73495 239.00077 241.38059
 244.01141 246.27223 248.28405 250.05887 251.48569 252.61851 253.45033 253.77614
 253.82296 253.60678 252.97660 251.93442 250.55024 248.72106 246.63988 244.48270
 242.28351 240.09733 237.92715 235.77597 233.64579 231.52261 229.55843 227.72525
 226.01807 224.49988 223.13970 221.92152 220.81334 219.78316 218.89698 218.04780
 217.29962 216.48944 215.59726 214.97107 214.43089 214.87233 215.91530 217.12209
 218.92354 221.22275 222.68703 222.46854 221.79701 222.33084 224.07866 225.88657
 228.24069 231.61861 235.76239 240.17667 244.38556 248.25954 251.72484 254.95020
 258.06454 261.06885 263.91583 266.68570 269.26328 271.56989 273.58789 275.39435
 277.08118 278.59796 279.95789 281.13538 282.20645 283.24213 284.20425 285.07938
 285.86053 286.55328 287.17941 287.97733
 366.78100 356.34443 345.78585 334.66128 323.07371 311.27713 299.15656 286.96899
 274.69042 262.59684 250.61527 239.92570 230.05712 221.17055 213.36198 206.37340
 200.21683 195.16426 191.75568 189.80711 188.85354 188.92697 189.77139 191.08882
 192.82325 194.92767 197.20010 199.56853 202.02295 204.51238 206.60981 208.46123
 210.09666 211.25109 211.48952 211.72694 211.67337 211.38780 211.03022 210.66965
 210.29608 210.01550 209.83293 209.70636 209.64378 209.98421 210.37964 210.77807
 211.58049 212.76792 214.02735 215.81977 217.75720 219.80963 221.91405 224.00648
 226.07591 228.16934 230.27576 232.39119 234.52962 236.71104 238.97647 241.35590
 243.98632 246.24675 248.25818 250.03260 251.45903 252.59146 253.42289 253.74831
 253.79474 253.57817 252.94759 251.90502 250.52045 248.69087 246.60930 244.45173
 242.25215 240.06558 237.89501 235.74344 233.61286 231.48929 229.52472 227.69114
 225.98357 224.46500 223.10442 221.88585 220.77728 219.74670 218.86013 218.01056
 217.26199 216.45141 215.55884 214.93227 214.39169 214.87743 216.02501 217.12852
 218.74727 221.07199 222.59958 222.39217 221.68941 222.23337 223.94025 225.82570
 228.20424 231.66066 235.85785 240.25043 244.44350 248.32353 251.80449 255.03725
 258.14386 261.13690 263.97986 266.73047 269.29745 271.59756 273.61627 275.42575
 277.10266 278.63464 279.98578 281.13043 282.11914 283.15656 284.12183 284.86111
 285.49014 286.20084 286.83231 287.63702
 366.78100 356.34201 345.78101 334.65402 323.06403 311.26504 299.14204 286.95205
 274.67106 262.57507 250.59107 239.89908 230.02809 221.13910 213.32810 206.33711
 200.17812 195.12312 191.71213 189.76114 188.80515 188.87615 189.71816 191.03317
 192.76518 194.86718 197.13719 199.50320 201.95521 204.44221 206.53722 208.38623
 210.01924 211.17124 211.40725 211.64226 211.58626 211.29827 210.93828 210.57529
 210.19929 209.91630 209.73131 209.60232 209.53732 209.87533 210.26834 210.66435
 211.46435 212.64936 213.90637 215.69637 217.63138 219.68139 221.78340 223.87340
 225.94041 228.03142 230.13543 232.24843 234.38444 236.56345 238.82646 241.20346
 243.83147 246.08948 248.09848 249.87049 251.29450 252.42451 253.25351 253.57652
 253.62053 253.40154 252.76854 251.72355 250.33656 248.50457 246.42057 244.26058
 242.05859 239.86959 237.69660 235.54261 233.40962 231.28362 229.31663 227.48064
 225.77065 224.24965 222.88666 221.66567 220.55468 219.52168 218.63269 217.78070
 217.02971 216.21671 215.32172 214.69273 214.14973 214.76999 216.23419 217.20003
 218.39218 220.72998 222.51688 222.38907 221.58002 222.09323 223.73108 225.73459
 228.10600 231.68364 235.93906 240.31659 244.55913 248.52740 252.09601 255.34557
 258.42001 261.35550 264.14810 266.81372 269.29745 271.52164 273.48615 275.30920
 276.91400 278.43283 279.74039 280.79156 281.77972 282.80045 283.70096 284.52356
 285.27365 285.94162 286.52515 287.26877
 366.78100 356.34254 345.78208 334.65562 323.06616 311.26769 299.14523 286.95577
 274.67531 262.57985 250.59639 239.90493 230.03447 221.14600 213.33554 206.34508
 200.18662 195.13216 191.72170 189.77124 188.81578 188.88731 189.72985 191.04539
 192.77793 194.88047 197.15101 199.51755 201.97009 204.45763 206.55316 208.40270
 210.03624 211.18878 211.42532 211.66086 211.60540 211.31794 210.95847 210.59601
 210.22055 209.93809 209.75363 209.62517 209.56071 209.89925 210.29279 210.68932
 211.48986 212.67540 213.93294 215.72348 217.65902 219.70956 221.81210 223.90263
 225.97017 228.06171 230.16625 232.27979 234.41633 236.59587 238.85941 241.23694
 243.86548 246.12402 248.13356 249.90610 251.33064 252.46118 253.29072 253.61426
 253.65879 253.44033 252.80787 251.76341 250.37695 248.54549 246.46203 244.30257
 242.10110 239.91264 237.74018 235.58672 233.45426 231.32880 229.36234 227.52688
 225.81742 224.29695 222.93449 221.71403 220.60357 219.57111 218.68265 217.83119
 217.08073 216.26826 215.37380 214.74534 214.20288 214.81969 216.27562 217.27089
 218.28027 220.41249 222.39034 222.42702 221.54054 221.97751 223.56340 225.65331
 228.07840 231.72989 236.00110 240.37492 244.62331 248.65935 252.30542 255.57410
 258.62418 261.51105 264.23621 266.83194 269.26053 271.43475 273.37537 275.18384
 276.73138 278.19006 279.44446 280.54111 281.45865 282.43051 283.38205 284.23508
 284.99969 285.68060 286.27542 287.03345
 366.78100 356.34521 345.78742 334.66363 323.07684 311.28105 299.16126 286.97447
 274.69668 262.60390 250.62311 239.93432 230.06653 221.18074 213.37295 206.38516
 200.22937 195.17758 191.76979 189.82200 188.86921 188.94342 189.78863 191.10684
 192.84205 194.94727 197.22048 199.58969 202.04490 204.53511 206.63332 208.48553
 210.12174 211.27695 211.51616 211.75437 211.70158 211.41679 211.06000 210.70021
 210.32742 210.04764 209.86585 209.74006 209.67827 210.01948 210.41569 210.81490
 211.61811 212.80632 214.06653 215.85974 217.79795 219.85116 221.95637 224.04958
 226.11979 228.21401 230.32122 232.43743 234.57664 236.75885 239.02506 241.40527
 244.03648 246.29769 248.30990 250.08511 251.51232 252.64553 253.47774 253.80395
 253.85116 253.63538 253.00559 251.96380 250.58001 248.75122 246.67043 244.51364
 242.31485 240.12906 237.95927 235.80848 233.67869 231.55590 229.59211 227.75932
 226.05253 224.53475 223.17496 221.95717 220.84938 219.81959 218.93380 218.08501
 217.33722 216.52743 215.63564 215.00985 214.47006 214.98955 216.22179 217.26973
 218.31216 220.23660 222.17331 222.31909 221.51494 221.92415 223.48956 225.62915
 228.07803 231.78508 236.05496 240.36183 244.64117 248.74384 252.43648 255.72185
 258.74826 261.61002 264.29935 266.83618 269.21545 271.35419 273.29288 275.05112
 276.57861 278.04465 279.29367 280.43839 281.50275 282.42355 283.29221 284.15750
 284.93573 285.62875 286.23416 287.00568
 366.78100 356.34522 345.78744 334.66367 323.07689 311.28111 299.16133 286.97455
 274.69678 262.60400 250.62322 239.93444 230.06666 221.18089 213.37311 206.38533
 200.22955 195.17778 191.77000 189.82222 188.86944 188.94366 189.78889 191.10711
 192.84233 194.94755 197.22077 199.59000 202.04522 204.53544 206.63366 208.48588
 210.12211 211.27733 211.51655 211.75477 211.70199 211.41722 211.06044 210.70066
 210.32788 210.04810 209.86633 209.74055 209.67877 210.01999 210.41622 210.81544
 211.61866 212.80688 214.06710 215.86033 217.79855 219.85177 221.95699 224.05021
 226.12044 228.21466 230.32188 232.43810 234.57732 236.75955 239.02577 241.40599
 244.03721 246.29843 248.31066 250.08588 251.51310 252.64632 253.47854 253.80477
 253.85199 253.63621 253.00643 251.96465 250.58088 248.75210 246.67132 244.51454
 242.31577 240.12999 237.96021 235.80943 233.67965 231.55688 229.59310 227.76032
 226.05354 224.53576 223.17599 221.95821 220.85043 219.82065 218.93487 218.08610
 217.33832 216.52854 215.63676 215.01098 214.47121 215.01944 216.31485 217.26433
 218.28195 220.14476 222.01968 222.28627 221.74852 222.04854 223.49820 225.69882
 228.11430 231.83052 236.07326 240.32465 244.57680 248.72234 252.48045 255.82681
 258.82129 261.64676 264.32568 266.81161 269.13794 271.25919 273.25958 274.96173
 276.54172 277.98013 279.23544 280.38760 281.54114 282.62589 283.62274 284.52582
 285.33804 286.06134 286.69318 287.49838
 366.78100 356.34366 345.78432 334.65899 323.07065 311.27331 299.15197 286.96364
 274.68430 262.58996 250.60762 239.91729 230.04795 221.16061 213.35127 206.36193
 200.20460 195.15126 191.74192 189.79258 188.83825 188.91091 189.75457 191.07123
 192.80490 194.90856 197.18022 199.54788 202.00154 204.49021 206.58687 208.43753
 210.07219 211.22586 211.46352 211.70018 211.64584 211.35951 211.00117 210.63983
 210.26549 209.98415 209.80082 209.67348 209.61014 209.94980 210.34447 210.74213
 211.54379 212.73045 213.98912 215.78078 217.71744 219.76910 221.87276 223.96443
 226.03309 228.12575 230.23141 232.34608 234.48374 236.66440 238.92906 241.30773
 243.93739 246.19705 248.20771 249.98137 251.40704 252.53870 253.36936 253.69402
 253.73969 253.52235 252.89101 251.84767 250.46234 248.63200 246.54966 244.39132
 242.19099 240.00365 237.83231 235.67997 233.54863 231.42430 229.45896 227.62462
 225.91628 224.39695 223.03561 221.81627 220.70693 219.67560 218.78826 217.93792
 217.18858 216.37724 215.48391 214.85657 214.31523 214.96761 216.46875 217.28284
 218.25525 220.14728 221.99840 222.32213 221.96013 222.15193 223.65128 225.57887
 228.10648 231.86610 236.11037 240.31169 244.57500 248.70700 252.44566 255.81967
 258.85825 261.68143 264.33234 266.79807 269.07745 271.19174 273.13995 274.89569
 276.48880 277.88605 279.37854 280.83218 282.09018 283.20322 284.21869 285.13861
 285.96600 286.70279 287.34644 288.16669
 366.78100 356.34440 345.78580 334.66120 323.07360 311.27700 299.15639 286.96879
 274.69019 262.59659 250.61499 239.92539 230.05679 221.17019 213.36159 206.37299
 200.21638 195.16378 191.75518 189.80658 188.85298 188.92638 189.77078 191.08818
 192.82258 194.92698 197.19937 199.56777 202.02217 204.51157 206.60897 208.46037
 210.09577 211.25017 211.48857 211.72597 211.67236 211.38676 211.02916 210.66856
 210.29496 210.01436 209.83176 209.70516 209.64256 209.98296 210.37835 210.77675
 211.57915 212.76655 214.02595 215.81835 217.75575 219.80815 221.91255 224.00495
 226.07434 228.16774 230.27414 232.38954 234.52794 236.70934 238.97474 241.35414
 243.98454 246.24494 248.25633 250.03073 251.45713 252.58953 253.42093 253.74633
 253.79273 253.57613 252.94553 251.90293 250.51832 248.68872 246.60712 244.44952
 242.24992 240.06332 237.89272 235.74112 233.61052 231.48692 229.52231 227.68871
 225.98111 224.46251 223.10191 221.88331 220.77471 219.74411 218.85751 218.00791
 217.25930 216.44870 215.55610 214.92950 214.38890 215.02785 216.49377 217.33606
 218.24113 220.03883 221.89699 222.25050 221.86731 221.98061 223.76627 225.61465
 228.18369 231.96423 236.24023 240.49205 244.72928 248.80568 252.53777 255.91032
 258.93576 261.74478 264.37198 266.81915 269.08057 271.19186 273.11353 274.86282
 276.63336 278.61636 280.37357 281.91650 283.25180 284.43317 285.51102 286.48746
 287.36566 288.14771 288.83087 289.70151
 366.78100 356.34540 345.78780 334.66420 323.07760 311.28200 299.16241 286.97581
 274.69821 262.60561 250.62501 239.93641 230.06881 221.18321 213.37561 206.38801
 200.23241 195.18082 191.77322 189.82562 188.87302 188.94742 189.79282 191.11122
 192.84662 194.95202 197.22542 199.59482 202.05023 204.54063 206.63903 208.49143
 210.12783 211.28323 211.52263 211.76103 211.70843 211.42383 211.06723 210.70764
 210.33504 210.05544 209.87384 209.74824 209.68664 210.02804 210.42444 210.82384
 211.62724 212.81564 214.07604 215.86945 217.80785 219.86125 221.96665 224.06005
 226.13045 228.22485 230.33225 232.44865 234.58805 236.77045 239.03686 241.41726
 244.04866 246.31006 248.32246 250.09786 251.52526 252.65866 253.49106 253.81746
 253.86486 253.64927 253.01967 251.97807 250.59447 248.76587 246.68527 244.52867
 242.33007 240.14447 237.97487 235.82427 233.69468 231.57208 229.60848 227.77588
 226.06928 224.55168 223.19208 221.97448 220.86688 219.83728 218.95168 218.10309
 217.35549 216.54589 215.65429 215.02869 214.48909 215.10143 216.50819 217.36420
 218.24858 219.95004 221.73203 222.04810 221.52219 221.63377 223.67197 225.69270
 228.34962 232.12741 236.39896 240.67468 244.90396 248.98761 252.72746 256.10678
 259.15341 261.94913 264.54105 266.94464 269.17737 271.26453 273.16537 275.06168
 277.32144 279.36115 281.12616 282.67596 284.01721 285.20386 286.28650 287.26727
 288.14941 288.93494 289.62115 290.49567
 366.78100 356.34535 345.78770 334.66405 323.07739 311.28174 299.16209 286.97544
 274.69779 262.60514 250.62448 239.93583 230.06818 221.18253 213.37488 206.38723
 200.23157 195.17992 191.77227 189.82462 188.87197 188.94632 189.79167 191.11001
 192.84536 194.95071 197.22406 199.59341 202.04876 204.53910 206.63745 208.48980
 210.12615 211.28150 211.52085 211.75919 211.70654 211.42189 211.06524 210.70559
 210.33294 210.05328 209.87163 209.74598 209.68433 210.02568 210.42203 210.82138
 211.62472 212.81307 214.07342 215.86677 217.80512 219.85847 221.96381 224.05716
 226.12751 228.22186 230.32921 232.44556 234.58490 236.76725 239.03360 241.41395
 244.04530 246.30665 248.31900 250.09434 251.52169 252.65504 253.48739 253.81374
 253.86109 253.64543 253.01578 251.97413 250.59048 248.76183 246.68118 244.52452
 242.32587 240.14022 237.97057 235.81992 233.69027 231.56761 229.60396 227.77131
 226.06466 224.54701 223.18736 221.96971 220.86205 219.83240 218.94675 218.09810
 217.35045 216.54080 215.64914 215.02349 214.48384 215.11813 216.55199 217.36147
 218.19670 219.85384 221.63029 221.96724 221.36259 221.36171 223.45253 225.61205
 228.35732 232.20074 236.51213 240.78596 244.99542 249.08485 252.88011 256.31589
 259.39557 262.17892 264.74072 267.09854 269.28244 271.34137 273.18936 275.48236
 277.90695 279.98517 281.78354 283.36264 284.72922 285.93829 287.04138 288.04071
 288.93948 289.73984 290.43903 291.33008
 366.78100 356.34645 345.78990 334.66735 323.08181 311.28726 299.16871 286.98316
 274.70661 262.61506 250.63551 239.94797 230.08142 221.19687 213.39032 206.40377
 200.24922 195.19867 191.79213 189.84558 188.89403 188.96948 189.81593 191.13538
 192.87184 194.97829 197.25274 199.62319 202.07964 204.57109 206.67054 208.52400
 210.16145 211.31790 211.55835 211.79780 211.74625 211.46270 211.10716 210.74861
 210.37706 210.09851 209.91796 209.79341 209.73286 210.07532 210.47277 210.87322
 211.67767 212.86712 214.12857 215.92302 217.86248 219.91693 222.02338 224.11783
 226.18928 228.28473 230.39319 232.51064 234.65109 236.83454 239.10199 241.48344
 244.11589 246.37835 248.39180 250.16825 251.59670 252.73115 253.56460 253.89205
 253.94051 253.72596 253.09741 252.05686 250.67431 248.84676 246.76721 244.61167
 242.41412 240.22957 238.06102 235.91147 233.78292 231.66137 229.69883 227.86728
 226.16173 224.64518 223.28663 222.07008 220.96353 219.93499 219.05044 218.20289
 217.45634 216.64779 215.75724 215.13270 214.59415 215.17476 216.52132 217.41322
 218.19119 219.64905 221.40352 221.93147 221.41171 221.42482 223.34991 225.59030
 228.36179 232.24348 236.58580 240.84270 245.03369 249.11925 252.90378 256.34192
 259.45059 262.26682 264.86053 267.23666 269.44775 271.50430 273.28021 275.72974
 278.14822 280.22122 282.01508 283.59021 284.95334 286.15936 287.25967 288.25650
 289.15302 289.95135 290.64880 291.53760
 366.78100 356.34735 345.79170 334.67005 323.08540 311.29175 299.17410 286.98945
 274.71380 262.62315 250.64450 239.95785 230.09220 221.20854 213.40289 206.41724
 200.26359 195.21394 191.80829 189.86264 188.91199 188.98834 189.83569 191.15604
 192.89339 195.00074 197.27609 199.64744 202.10479 204.59714 206.69749 208.55184
 210.19019 211.34754 211.58889 211.82924 211.77859 211.49594 211.14128 210.78363
 210.41298 210.13533 209.95568 209.83203 209.77238 210.11573 210.51408 210.91543
 211.72078 212.91113 214.17348 215.96883 217.90918 219.96453 222.07188 224.16723
 226.23958 228.33593 230.44528 232.56363 234.70498 236.88933 239.15768 241.54002
 244.17337 246.43672 248.45107 250.22842 251.65777 252.79312 253.62747 253.95582
 254.00517 253.79152 253.16387 252.12422 250.74257 248.91592 246.83727 244.68262
 242.48597 240.30232 238.13467 235.98602 233.85837 231.73772 229.77607 227.94542
 226.24076 224.72511 223.36746 222.15181 221.04616 220.01851 219.13486 218.28821
 217.54256 216.73491 215.84526 215.22161 214.68396 215.22086 216.48653 217.43497
 218.25278 219.53943 221.14735 221.73502 221.34123 221.51807 223.19276 225.58430
 228.38820 232.29623 236.65800 240.92555 245.12032 249.22523 253.00974 256.40076
 259.46848 262.30847 264.92599 267.30432 269.51562 271.57819 273.43347 275.71765
 278.01187 280.02573 281.76837 283.29855 284.62280 285.79443 286.86334 287.83170
 288.70264 289.47821 290.15576 291.01920
 366.78100 356.34768 345.79236 334.67104 323.08672 311.29340 299.17608 286.99177
 274.71645 262.62613 250.64781 239.96149 230.09617 221.21285 213.40753 206.42221
 200.26889 195.21957 191.81425 189.86893 188.91861 188.99530 189.84298 191.16366
 192.90134 195.00902 197.28470 199.65638 202.11406 204.60674 206.70742 208.56210
 210.20078 211.35846 211.60014 211.84083 211.79051 211.50819 211.15387 210.79655
 210.42623 210.14891 209.96959 209.84627 209.78695 210.13063 210.52931 210.93099
 211.73667 212.92736 214.19004 215.98572 217.92640 219.98208 222.08976 224.18544
 226.25812 228.35480 230.46448 232.58316 234.72484 236.90952 239.17820 241.56089
 244.19457 246.45825 248.47293 250.25061 251.68029 252.81597 253.65065 253.97933
 254.02901 253.81569 253.18837 252.14905 250.76773 248.94142 246.86310 244.70878
 242.51246 240.32914 238.16182 236.01350 233.88618 231.76586 229.80454 227.97422
 226.26990 224.75458 223.39726 222.18195 221.07663 220.04931 219.16599 218.31967
 217.57435 216.76703 215.87771 215.25439 214.71707 215.23953 216.47159 217.41982
 218.29472 219.48988 220.93346 221.39729 221.11957 221.47534 222.94601 225.54971
 228.40533 232.38460 236.79265 241.08232 245.27779 249.39897 253.24930 256.67593
 259.72238 262.53119 265.14902 267.52304 269.69653 271.71844 273.57672 275.65033
 277.79672 279.78769 281.51056 283.02335 284.33255 285.49084 286.54764 287.50500
 288.36603 289.13281 289.80264 290.65625
 366.78100 356.34758 345.79217 334.67075 323.08633 311.29292 299.17550 286.99108
 274.71566 262.62525 250.64683 239.96041 230.09500 221.21158 213.40616 206.42075
 200.26733 195.21791 191.81250 189.86708 188.91666 188.99324 189.84083 191.16141
 192.89899 195.00658 197.28216 199.65374 202.11133 204.60391 206.70449 208.55907
 210.19766 211.35524 211.59682 211.83741 211.78699 211.50457 211.15016 210.79274
 210.42232 210.14491 209.96549 209.84207 209.78265 210.12624 210.52482 210.92640
 211.73199 212.92257 214.18515 215.98074 217.92132 219.97690 222.08449 224.18007
 226.25265 228.34923 230.45882 232.57740 234.71898 236.90357 239.17215 241.55473
 244.18832 246.45190 248.46648 250.24406 251.67365 252.80923 253.64381 253.97240
 254.02198 253.80856 253.18115 252.14173 250.76031 248.93390 246.85548 244.70106
 242.50464 240.32123 238.15381 236.00539 233.87798 231.75756 229.79614 227.96573
 226.26131 224.74589 223.38848 222.17306 221.06764 220.04022 219.15681 218.31039
 217.56497 216.75756 215.86814 215.24472 214.70731 215.22961 216.45692 217.36874
 218.34920 219.51924 220.65834 220.94099 220.82127 221.41222 222.84630 225.55170
 228.41441 232.49934 236.97633 241.26726 245.43513 249.54213 253.41116 256.88403
 259.92615 262.68872 265.30441 267.70389 269.88660 271.92453 273.84662 275.65796
 277.40488 279.15747 280.82559 282.29031 283.55792 284.67941 285.70261 286.62955
 287.46323 288.20563 288.85419 289.68069
 366.78100 356.34646 345.78992 334.66737 323.08183 311.28729 299.16875 286.98321
 274.70667 262.61512 250.63558 239.94804 230.08150 221.19696 213.39041 206.40387
 200.24933 195.19879 191.79225 189.84571 188.89416 188.96962 189.81608 191.13554
 192.87200 194.97845 197.25291 199.62337 202.07983 204.57129 206.67075 208.52420
 210.16166 211.31812 211.55858 211.79804 211.74649 211.46295 211.10741 210.74887
 210.37733 210.09879 209.91824 209.79370 209.73316 210.07562 210.47308 210.87353
 211.67799 212.86745 214.12891 215.92337 217.86283 219.91728 222.02374 224.11820
 226.18966 228.28512 230.39357 232.51103 234.65149 236.83495 239.10241 241.48387
 244.11632 246.37878 248.39224 250.16870 251.59716 252.73161 253.56507 253.89253
 253.94099 253.72645 253.09791 252.05736 250.67482 248.84728 246.76774 244.61220
 242.41465 240.23011 238.06157 235.91203 233.78349 231.66195 229.69940 227.86786
 226.16232 224.64578 223.28724 222.07069 220.96415 219.93561 219.05107 218.20353
 217.45699 216.64844 215.75790 215.13336 214.59482 215.16794 216.49843 217.31471
 218.26569 219.55573 220.62416 220.73726 220.52299 221.15219 222.79510 225.51277
 228.55429 232.61627 237.08473 241.37498 245.53255 249.63968 253.53191 257.01453
 260.02359 262.71118 265.26688 267.66748 269.89243 271.97394 273.92599 275.65787
 277.10333 278.52213 280.06723 281.50784 282.76248 283.87250 284.88519 285.80264
 286.62781 287.36261 288.00452 288.82254
 366.78100 356.34546 345.78792 334.66438 323.07784 311.28230 299.16276 286.97622
 274.69868 262.60615 250.62561 239.93707 230.06953 221.18399 213.37645 206.38891
 200.23337 195.18183 191.77429 189.82675 188.87421 188.94867 189.79413 191.11259
 192.84805 194.95351 197.22697 199.59644 202.05190 204.54236 206.64082 208.49328
 210.12974 211.28520 211.52466 211.76312 211.71058 211.42604 211.06950 210.70996
 210.33742 210.05788 209.87634 209.75080 209.68926 210.03073 210.42719 210.82665
 211.63011 212.81857 214.07903 215.87249 217.81095 219.86441 221.96987 224.06333
 226.13379 228.22825 230.33571 232.45217 234.59163 236.77409 239.04055 241.42102
 244.05248 246.31394 248.32640 250.10186 251.52932 252.66278 253.49524 253.82170
 253.86916 253.65362 253.02408 251.98254 250.59900 248.77046 246.68992 244.53338
 242.33484 240.14931 237.97977 235.82923 233.69969 231.57715 229.61361 227.78107
 226.07453 224.55699 223.19745 221.97991 220.87237 219.84283 218.95729 218.10875
 217.36121 216.55167 215.66014 215.03460 214.49506 215.11835 216.55042 217.30899
 218.20549 219.51581 220.65758 220.72044 220.35297 220.93848 222.68956 225.47182
 228.57820 232.67764 237.14343 241.41461 245.58693 249.72607 253.65590 257.16547
 260.17838 262.83755 265.32385 267.66498 269.86676 271.95749 273.95279 275.72037
 277.06302 278.16727 279.57385 281.05630 282.34607 283.48715 284.52826 285.47141
 286.31967 287.07504 287.73492 288.57587
 366.78100 356.34584 345.78868 334.66552 323.07935 311.28419 299.16503 286.97887
 274.70171 262.60955 250.62939 239.94122 230.07406 221.18890 213.38174 206.39458
 200.23942 195.18825 191.78109 189.83393 188.88177 188.95661 189.80245 191.12129
 192.85712 194.96296 197.23680 199.60664 202.06248 204.55332 206.65216 208.50499
 210.14183 211.29767 211.53751 211.77635 211.72419 211.44003 211.08386 210.72470
 210.35254 210.07338 209.89222 209.76706 209.70589 210.04773 210.44457 210.84441
 211.64825 212.83709 214.09793 215.89176 217.83060 219.88444 221.99028 224.08412
 226.15496 228.24980 230.35763 232.47447 234.61431 236.79715 239.06399 241.44483
 244.07667 246.33850 248.35134 250.12718 251.55502 252.68886 253.52170 253.84854
 253.89637 253.68121 253.05205 252.01089 250.62773 248.79957 246.71940 244.56324
 242.36508 240.17992 238.01076 235.86060 233.73144 231.60927 229.64611 227.81395
 226.10779 224.59063 223.23147 222.01431 220.90714 219.87798 218.99282 218.14466
 217.39750 216.58834 215.69718 215.07201 214.53285 215.14227 216.53833 217.33769
 218.27240 219.50429 220.60524 220.56052 220.12570 220.75198 222.56700 225.37851
 228.53920 232.72873 237.22150 241.51456 245.72217 249.86551 253.79709 257.31973
 260.36829 263.06763 265.55756 267.86591 270.01797 272.07690 274.04584 275.78128
 276.92142 278.13531 279.83405 281.35718 282.67529 283.84152 284.90552 285.86942
 286.73633 287.50833 288.18271 289.04218
 366.78100 356.34667 345.79034 334.66801 323.08268 311.28835 299.17002 286.98468
 274.70835 262.61702 250.63769 239.95036 230.08403 221.19970 213.39337 206.40704
 200.25271 195.20238 191.79605 189.84971 188.89838 188.97405 189.82072 191.14039
 192.87706 194.98373 197.25840 199.62907 202.08574 204.57741 206.67708 208.53075
 210.16841 211.32508 211.56575 211.80542 211.75409 211.47076 211.11543 210.75710
 210.38577 210.10744 209.92711 209.80278 209.74245 210.08511 210.48278 210.88345
 211.68812 212.87779 214.13946 215.93413 217.87380 219.92847 222.03514 224.12981
 226.20148 228.29714 230.40581 232.52348 234.66415 236.84782 239.11549 241.49716
 244.12983 246.39250 248.40617 250.18284 251.61151 252.74618 253.57984 253.90751
 253.95618 253.74185 253.11352 252.07319 250.69086 248.86353 246.78420 244.62887
 242.43154 240.24721 238.07888 235.92954 233.80121 231.67988 229.71755 227.88622
 226.18089 224.66456 223.30623 222.08990 220.98357 219.95524 219.07091 218.22357
 217.47724 216.66891 215.77858 215.15425 214.61592 215.18791 216.50385 217.35391
 218.35164 219.55568 220.57510 220.32550 219.76619 220.46451 222.35536 225.32367
 228.58960 232.81282 237.31598 241.65955 245.90932 250.07516 254.01573 257.56613
 260.63321 263.35370 265.85324 268.14072 270.26199 272.26981 274.19858 275.86713
 276.92630 278.76324 280.51215 282.04782 283.37683 284.55264 285.62540 286.59726
 287.47131 288.24969 288.92966 289.79617
 366.78100 356.34684 345.79068 334.66852 323.08336 311.28920 299.17104 286.98588
 274.70971 262.61855 250.63939 239.95223 230.08607 221.20191 213.39575 206.40959
 200.25543 195.20527 191.79911 189.85295 188.90179 188.97763 189.82447 191.14430
 192.88114 194.98798 197.26282 199.63366 202.09050 204.58234 206.68218 208.53602
 210.17386 211.33070 211.57154 211.81138 211.76022 211.47706 211.12190 210.76373
 210.39257 210.11441 209.93425 209.81009 209.74993 210.09277 210.49061 210.89145
 211.69629 212.88613 214.14797 215.94281 217.88265 219.93749 222.04432 224.13916
 226.21100 228.30684 230.41568 232.53352 234.67436 236.85820 239.12604 241.50788
 244.14072 246.40356 248.41740 250.19424 251.62308 252.75791 253.59175 253.91959
 253.96843 253.75427 253.12611 252.08595 250.70379 248.87663 246.79747 244.64231
 242.44515 240.26099 238.09283 235.94367 233.81551 231.69434 229.73218 227.90102
 226.19586 224.67970 223.32154 222.10538 220.99922 219.97106 219.08690 218.23974
 217.49358 216.68542 215.79526 215.17110 214.63293 215.19504 216.48889 217.33354
 218.38570 219.63243 220.54866 220.17131 219.54678 220.25400 222.08228 225.20361
 228.59731 232.89043 237.42119 241.78770 246.04716 250.21860 254.17328 257.71649
 260.76779 263.47925 266.00278 268.31824 270.45261 272.46930 274.41232 276.12772
 277.38995 279.27090 281.02872 282.57220 283.90799 285.08978 286.16803 287.14481
 288.02332 288.80566 289.48907 290.36002
 366.78100 356.34659 345.79018 334.66777 323.08236 311.28795 299.16954 286.98413
 274.70772 262.61631 250.63690 239.94949 230.08308 221.19867 213.39226 206.40585
 200.25144 195.20103 191.79462 189.84821 188.89680 188.97239 189.81898 191.13857
 192.87516 194.98175 197.25634 199.62693 202.08352 204.57511 206.67470 208.52829
 210.16588 211.32247 211.56306 211.80265 211.75124 211.46782 211.11241 210.75400
 210.38259 210.10418 209.92377 209.79936 209.73895 210.08154 210.47913 210.87972
 211.68431 212.87390 214.13549 215.93008 217.86967 219.92426 222.03085 224.12544
 226.19703 228.29262 230.40121 232.51880 234.65939 236.84298 239.11057 241.49216
 244.12475 246.38734 248.40093 250.17752 251.60611 252.74070 253.57429 253.90188
 253.95047 253.73606 253.10765 252.06724 250.68483 248.85742 246.77801 244.62260
 242.42519 240.24078 238.07237 235.92296 233.79455 231.67314 229.71073 227.87932
 226.17391 224.65750 223.29909 222.08268 220.97627 219.94786 219.06345 218.21604
 217.46963 216.66122 215.77081 215.14640 214.60799 215.17731 216.48669 217.30534
 218.38698 219.68886 220.48026 220.04437 219.45157 220.17041 221.89117 225.08414
 228.59494 232.96011 237.51218 241.87622 246.11591 250.25542 254.16321 257.65341
 260.70468 263.45041 266.03293 268.40897 270.58817 272.66193 274.64777 276.42667
 277.65869 279.27554 280.96753 282.45984 283.75128 284.89392 285.93637 286.88077
 287.73016 288.48654 289.14731 289.98938
 366.78100 356.34603 345.78907 334.66610 323.08014 311.28517 299.16621 286.98024
 274.70328 262.61131 250.63135 239.94338 230.07642 221.19145 213.38449 206.39752
 200.24256 195.19159 191.78463 189.83766 188.88569 188.96073 189.80676 191.12580
 192.86183 194.96787 197.24190 199.61194 202.06797 204.55901 206.65804 208.51108
 210.14811 211.30415 211.54418 211.78322 211.73125 211.44729 211.09132 210.73236
 210.36039 210.08142 209.90046 209.77549 209.71453 210.05656 210.45360 210.85363
 211.65767 212.84670 214.10774 215.90177 217.84081 219.89484 222.00088 224.09491
 226.16595 228.26098 230.36902 232.48605 234.62608 236.80912 239.07615 241.45719
 244.08922 246.35126 248.36429 250.14033 251.56836 252.70240 253.53543 253.86247
 253.91050 253.69554 253.06657 252.02561 250.64264 248.81468 246.73471 244.57875
 242.38078 240.19581 238.02685 235.87688 233.74792 231.62595 229.66299 227.83102
 226.12506 224.60809 223.24913 222.03216 220.92520 219.89623 219.01127 218.16330
 217.41634 216.60737 215.71641 215.09144 214.55247 215.14250 216.50003 217.27136
 218.34000 219.68843 220.36464 219.91206 219.35323 219.96652 221.82774 225.07658
 228.68871 233.05777 237.61404 241.99040 246.22527 250.33714 254.19835 257.64545
 260.68643 263.46707 266.08301 268.49435 270.72614 272.84625 274.87338 276.69888
 278.10852 279.24173 280.45813 281.78021 282.93344 283.95374 284.88461 285.72791
 286.48639 287.16177 287.75180 288.50372
 366.78100 356.34515 345.78731 334.66346 323.07661 311.28077 299.16092 286.97407
 274.69622 262.60338 250.62253 239.93368 230.06584 221.17999 213.37214 206.38430
 200.22845 195.17660 191.76876 189.82091 188.86806 188.94222 189.78737 191.10552
 192.84067 194.94583 197.21898 199.58813 202.04329 204.53344 206.63159 208.48375
 210.11990 211.27505 211.51421 211.75236 211.69951 211.41466 211.05782 210.69797
 210.32512 210.04528 209.86343 209.73758 209.67574 210.01689 210.41304 210.81220
 211.61535 212.80350 214.06365 215.85681 217.79496 219.84811 221.95327 224.04642
 226.11657 228.21073 230.31788 232.43403 234.57319 236.75534 239.02149 241.40165
 244.03280 246.29395 248.30610 250.08126 251.50841 252.64156 253.47372 253.79987
 253.84702 253.63118 253.00133 251.95948 250.57564 248.74679 246.66594 244.50909
 242.31025 240.12440 237.95455 235.80371 233.67386 231.55101 229.58717 227.75432
 226.04747 224.52963 223.16978 221.95193 220.84408 219.81424 218.92839 218.07954
 217.33170 216.52185 215.63000 215.00416 214.46431 215.08957 216.53355 217.25490
 218.24762 219.62262 220.28932 219.75333 219.12938 219.64804 221.72758 225.00194
 228.77466 233.14709 237.70949 242.11595 246.37202 250.48659 254.34039 257.76892
 260.77219 263.53210 266.13507 268.55859 270.81635 272.96814 275.02069 276.86407
 278.33716 279.44800 280.23782 280.79709 281.85208 282.89481 283.84610 284.70795
 285.48306 286.17331 286.77628 287.54471
 366.78100 356.34459 345.78619 334.66178 323.07438 311.27797 299.15757 286.97016
 274.69176 262.59835 250.61695 239.92754 230.05914 221.17273 213.36433 206.37592
 200.21952 195.16711 191.75871 189.81030 188.85690 188.93049 189.77509 191.09268
 192.82727 194.93187 197.20446 199.57306 202.02765 204.51725 206.61484 208.46644
 210.10203 211.25663 211.49522 211.73282 211.67941 211.39401 211.03660 210.67620
 210.30279 210.02239 209.83998 209.71358 209.65117 209.99177 210.38736 210.78595
 211.58855 212.77614 214.03574 215.82833 217.76593 219.81852 221.92312 224.01571
 226.08531 228.17890 230.28550 232.40109 234.53969 236.72128 238.98688 241.36647
 243.99707 246.25766 248.26926 250.04385 251.47044 252.60304 253.43463 253.76023
 253.80682 253.59042 252.96001 251.91761 250.53320 248.70380 246.62239 244.46499
 242.26558 240.07918 237.90877 235.75737 233.62696 231.50356 229.53915 227.70575
 225.99834 224.47994 223.11953 221.90112 220.79272 219.76231 218.87591 218.02650
 217.27810 216.46769 215.57529 214.94888 214.40848 215.05161 216.54865 217.29366
 218.15744 219.50328 220.21437 219.61839 218.89935 219.31677 221.56439 224.88936
 228.82634 233.23706 237.82571 242.24763 246.51669 250.63060 254.45331 257.85861
 260.86185 263.61237 266.19977 268.61334 270.88190 273.06174 275.13443 276.97849
 278.45718 279.50327 280.07965 280.25214 280.77597 281.82809 282.81827 283.71530
 284.52206 285.24048 285.86810 286.66791
 366.78100 356.34509 345.78717 334.66326 323.07635 311.28044 299.16052 286.97361
 274.69570 262.60279 250.62187 239.93296 230.06505 221.17914 213.37122 206.38331
 200.22740 195.17548 191.76757 189.81966 188.86675 188.94083 189.78592 191.10401
 192.83910 194.94418 197.21727 199.58636 202.04145 204.53153 206.62962 208.48171
 210.11779 211.27288 211.51197 211.75006 211.69714 211.41223 211.05532 210.69541
 210.32249 210.04258 209.86067 209.73476 209.67284 210.01393 210.41002 210.80910
 211.61219 212.80028 214.06037 215.85345 217.79154 219.84463 221.94972 224.04280
 226.11289 228.20698 230.31407 232.43015 234.56924 236.75133 239.01741 241.39750
 244.02859 246.28968 248.30176 250.07685 251.50394 252.63703 253.46911 253.79520
 253.84229 253.62638 252.99646 251.95455 250.57064 248.74172 246.66081 244.50390
 242.30499 240.11907 237.94916 235.79825 233.66834 231.54542 229.58151 227.74860
 226.04169 224.52377 223.16386 221.94595 220.83803 219.80812 218.92221 218.07330
 217.32538 216.51547 215.62356 214.99765 214.45773 215.06381 216.49188 217.40663
 218.13080 219.29260 220.03784 219.44722 218.69348 219.02554 221.45010 224.78728
 228.88776 233.33949 237.95932 242.38800 246.66154 250.76439 254.55371 257.93378
 260.94452 263.70697 266.28882 268.69205 270.95779 273.15637 275.23831 277.07935
 278.53381 279.50836 279.96368 280.05481 280.20346 280.82361 281.81982 282.75507
 283.59625 284.34531 284.99966 285.83359
 366.78100 356.34548 345.78796 334.66444 323.07792 311.28240 299.16288 286.97636
 274.69884 262.60632 250.62580 239.93728 230.06976 221.18424 213.37672 206.38920
 200.23368 195.18216 191.77464 189.82712 188.87460 188.94908 189.79456 191.11304
 192.84851 194.95399 197.22747 199.59695 202.05243 204.54291 206.64139 208.49387
 210.13035 211.28583 211.52531 211.76379 211.71127 211.42675 211.07023 210.71071
 210.33819 210.05867 209.87715 209.75163 209.69011 210.03159 210.42807 210.82755
 211.63103 212.81951 214.07999 215.87347 217.81195 219.86543 221.97091 224.06439
 226.13487 228.22935 230.33683 232.45331 234.59279 236.77527 239.04175 241.42223
 244.05371 246.31519 248.32767 250.10315 251.53063 252.66411 253.49659 253.82306
 253.87054 253.65502 253.02550 251.98398 250.60046 248.77194 246.69142 244.53490
 242.33638 240.15086 237.98134 235.83082 233.70130 231.57878 229.61526 227.78274
 226.07622 224.55870 223.19918 221.98166 220.87414 219.84462 218.95910 218.11058
 217.36306 216.55354 215.66202 215.03650 214.49698 215.07550 216.44327 217.49199
 218.22188 219.30135 219.97757 219.27483 218.44287 218.68704 221.30974 224.70700
 228.93648 233.43375 238.08182 242.51160 246.79385 250.89531 254.66481 258.02048
 261.02682 263.80637 266.39670 268.79968 271.07013 273.26569 275.35529 277.19684
 278.57941 279.44159 279.79590 279.81024 279.93015 280.51205 281.42279 282.30917
 283.10922 283.82169 284.44406 285.23724
 366.78100 356.34517 345.78734 334.66350 323.07667 311.28084 299.16101 286.97418
 274.69634 262.60351 250.62268 239.93385 230.06602 221.18018 213.37235 206.38452
 200.22869 195.17686 191.76902 189.82119 188.86836 188.94253 189.78770 191.10587
 192.84103 194.94620 197.21937 199.58854 202.04371 204.53387 206.63204 208.48421
 210.12038 211.27555 211.51471 211.75288 211.70005 211.41522 211.05839 210.69855
 210.32572 210.04589 209.86406 209.73823 209.67639 210.01756 210.41373 210.81290
 211.61607 212.80423 214.06440 215.85757 217.79574 219.84891 221.95407 224.04724
 226.11741 228.21158 230.31875 232.43491 234.57408 236.75625 239.02242 241.40259
 244.03376 246.29492 248.30709 250.08226 251.50943 252.64260 253.47476 253.80093
 253.84810 253.63227 253.00244 251.96060 250.57677 248.74794 246.66711 244.51028
 242.31144 240.12561 237.95578 235.80495 233.67512 231.55228 229.58845 227.75562
 226.04879 224.53096 223.17112 221.95329 220.84546 219.81563 218.92980 218.08096
 217.33313 216.52330 215.63147 215.00564 214.46581 215.05728 216.45514 217.51849
 218.26195 219.26553 219.88156 219.16194 218.28090 218.43311 221.10866 224.67816
 228.98587 233.53020 238.19286 242.63098 246.93295 251.03363 254.77638 258.10666
 261.11786 263.91467 266.51260 268.91299 271.18390 273.38480 275.47604 277.29410
 278.66724 279.44986 279.66418 279.55499 279.68753 280.31354 281.26175 282.14841
 282.96689 283.69574 284.33249 285.14392
 354.97500 345.04800 334.58700 324.11500 313.32600 302.53700 291.65000 280.76700
 269.93100 259.19300 248.62200 238.61700 229.08700 220.35500 212.54000 205.53500
 199.46400 194.49300 191.14300 189.19000 188.08900 188.01400 188.72400 189.90600
 191.46900 193.38200 195.40300 197.55600 199.80700 202.06000 204.28800 206.47900
 208.55200 210.37800 212.02500 213.65900 214.99800 216.11800 217.17200 218.25900
 219.49400 220.64500 221.67900 222.61400 223.54500 224.98200 226.57100 228.19000
 229.79700 231.81100 233.86500 235.97200 238.24200 240.55300 242.89900 245.25300
 247.48800 249.53500 251.36600 252.84800 254.09800 255.16700 256.02700 256.25300
 256.09500 255.54300 253.93500 252.56600 251.38400 250.24500 249.05200 247.70100
 246.01600 243.99600 241.78400 239.39300 236.81300 234.22300 231.65800 229.14400
 226.74000 224.47300 222.33500 220.32500 218.44000 216.67700 214.96200 213.47200
 212.20000 211.10800 210.26000 209.63900 209.24400 209.03100 209.05800 209.33300
 209.78400 210.62600 211.33100 212.39100 213.62500 214.84668 217.72949 219.47640
 220.32566 220.86828 220.88710 220.27371 219.43733 218.84250 219.04934 220.86203
 222.60583 225.72206 229.03064 232.61777 236.12270 239.51333 242.70767 245.68587
 248.41061 250.90679 253.19353 254.91714 256.48655 257.94920 259.39966 260.69384
 261.81714 262.77997 263.71679 264.54570 265.26305 265.89772 266.47676 267.00133
 267.47312 267.89325 268.26027 268.72800
