|-------------------------------------------------------------------------|
|   File Name : in_temp.dat
|   Subject   : temperature profiles used for initial guess atmosphere
|   File Type : input of gmtr
|   Data Type : atmospherical data
|   Author/s  : WRF-Chem
|   Date      : Fri Jul 26 15:39:24 2024
|-------------------------------------------------------------------------|

 WRF-Chem temperature
#
 values of T (K)    (8f10.5)
#
 354.97500 345.04800 334.58700 324.11500 313.32600 302.53700 291.65000 280.76700
 269.93100 259.19300 248.62200 238.61700 229.08700 220.35500 212.54000 205.53500
 199.46400 194.49300 191.14300 189.19000 188.08900 188.01400 188.72400 189.90600
 191.46900 193.38200 195.40300 197.55600 199.80700 202.06000 204.28800 206.47900
 208.55200 210.37800 212.02500 213.65900 214.99800 216.11800 217.17200 218.25900
 219.49400 220.64500 221.67900 222.61400 223.54500 224.98200 226.57100 228.19000
 229.79700 231.81100 233.86500 235.97200 238.24200 240.55300 242.89900 245.25300
 247.48800 249.53500 251.36600 252.84800 254.09800 255.16700 256.02700 256.25300
 256.09500 255.54300 253.93500 252.56600 251.38400 250.24500 249.05200 247.70100
 246.01600 243.99600 241.78400 239.39300 236.81300 234.22300 231.65800 229.14400
 226.74000 224.47300 222.33500 220.32500 218.44000 216.67700 214.96200 213.47200
 212.20000 211.10800 210.26000 209.63900 209.24400 209.03100 209.05800 209.33300
 209.78400 210.62600 211.33100 212.39100 213.62500 214.84668 217.72949 219.47640
 220.32566 220.86828 220.88710 220.27371 219.43733 218.84250 219.04934 220.86203
 222.60583 225.72206 229.03064 232.61777 236.12270 239.51333 242.70767 245.68587
 248.41061 250.90679 253.19353 254.91714 256.48655 257.94920 259.39966 260.69384
 261.81714 262.77997 263.71679 264.54570 265.26305 265.89772 266.47676 267.00133
 267.47312 267.89325 268.26027 268.72800
 366.78100 356.33500 345.76700 334.63300 323.03600 311.23000 299.10000 286.90300
 274.61500 262.51200 250.52100 239.82200 229.94400 221.04800 213.23000 206.23200
 200.06600 195.00400 191.58600 189.62800 188.66500 188.72900 189.56400 190.87200
 192.59700 194.69200 196.95500 199.31400 201.75900 204.23900 206.32700 208.16900
 209.79500 210.94000 211.16900 211.39700 211.33400 211.03900 210.67200 210.30200
 209.91900 209.62900 209.43700 209.30100 209.22900 209.56000 209.94600 210.33500
 211.12800 212.30600 213.55600 215.33900 217.26700 219.31000 221.40500 223.48800
 225.54800 227.63200 229.72900 231.83500 233.96400 236.13600 238.39200 240.76200
 243.38300 245.63400 247.63600 249.40100 250.81800 251.94100 252.76300 253.07900
 253.11600 252.89000 252.25000 251.19800 249.80400 247.96500 245.87400 243.70700
 241.49800 239.30200 237.12200 234.96100 232.82100 230.68800 228.71400 226.87100
 225.15400 223.62600 222.25600 221.02800 219.91000 218.87000 217.97400 217.11500
 216.35700 215.53700 214.63500 213.99900 213.44900 212.85855 212.01316 212.61654
 214.26826 216.08686 218.14273 220.53346 223.40855 226.78828 231.49734 235.90155
 239.42278 243.28576 247.23140 251.11907 254.80144 258.23331 261.38913 264.27520
 266.89312 269.26852 271.44504 273.08845 274.58484 275.98591 277.39845 278.65879
 279.75272 280.69038 281.56708 282.34086 283.01050 283.60295 284.14348 284.63317
 285.07358 285.46577 285.80838 286.24500
 381.81900 372.39900 361.20600 349.77600 337.62200 324.85300 311.81000 298.35300
 284.86000 271.32400 258.56100 246.30400 236.08700 226.79600 218.44800 211.29000
 205.52200 200.89400 197.38100 194.84800 193.01500 192.31500 192.25000 192.43100
 192.91200 193.53700 194.13600 194.71200 195.26200 195.83100 196.39300 196.97600
 197.60400 198.14900 198.58400 199.05700 199.69500 200.37800 201.05400 201.70800
 202.31300 202.85700 203.35500 203.86200 204.56900 205.29700 206.02600 206.98700
 208.19300 209.44100 210.96900 212.57600 214.46200 216.51300 218.63000 220.85300
 223.34100 225.96200 228.73900 231.69700 234.70600 237.70600 240.69200 243.65700
 246.73700 249.69900 252.52100 255.06300 257.29000 259.23300 260.63300 261.68000
 262.46100 262.79800 262.69100 262.22400 261.06900 259.52500 257.70700 255.50700
 253.00100 250.30200 247.39800 244.45200 241.65400 239.05400 236.73300 234.59000
 232.59500 230.72500 228.83400 226.82600 224.66600 222.38700 220.10400 217.71500
 215.45900 213.06600 210.54600 208.09300 205.35400 202.08130 196.05959 200.71215
 209.01611 216.90438 223.84126 229.78593 235.00632 240.20838 245.98943 250.68668
 254.32982 257.93487 261.55666 264.96801 268.15192 271.06452 273.76717 276.25691
 278.57680 280.74479 282.77456 284.60533 286.27232 287.81705 289.31715 290.65561
 291.81734 292.81312 293.70701 294.49387 295.17482 295.77730 296.32696 296.82492
 297.27278 297.67160 298.02000 298.46400
 399.33000 389.90700 379.81300 368.66800 357.52200 345.30100 333.07400 320.22700
 307.21600 293.84800 280.37600 267.29600 254.61000 242.98700 232.15100 221.97700
 212.67200 204.28600 197.66900 192.82100 189.48600 187.45200 186.81400 187.08900
 187.78100 189.05400 190.64800 192.54200 194.63000 196.75200 198.67100 200.15800
 201.53500 202.48700 202.97500 203.34000 203.53900 203.49700 203.38500 203.24700
 203.00500 202.78600 202.60300 202.43700 202.42600 202.88800 203.42000 203.95100
 204.89500 205.99200 207.30100 208.95800 210.73800 213.10000 215.56400 218.18000
 220.96600 223.91800 226.96100 230.09200 233.29300 236.55700 239.95500 243.53700
 246.84500 249.39000 251.54200 253.47400 255.19500 256.48400 257.43100 258.05900
 258.21200 258.04000 257.58200 256.64300 255.23900 253.50700 251.40800 249.05600
 246.57600 243.99400 241.38900 238.83000 236.34400 233.98600 231.96900 230.11800
 228.42300 226.89900 225.54800 224.29700 223.10500 221.96500 220.95800 220.11300
 219.49000 218.92000 218.32500 217.88100 217.42300 216.96366 216.35568 216.80261
 217.73415 218.28582 218.64258 219.10077 220.44626 222.53987 226.38451 230.35736
 233.59734 237.39164 241.29814 245.22796 248.98002 252.51130 255.78595 258.80109
 261.54781 264.05210 266.34239 268.04198 269.58951 271.01303 272.35754 273.55718
 274.59842 275.49092 276.28989 276.99307 277.60161 278.14001 278.63122 279.07623
 279.47646 279.83287 280.14422 280.54100
 399.73800 389.78500 379.66200 368.15100 356.64100 344.35000 331.79200 318.88800
 305.72600 292.49300 279.20900 266.73800 254.69600 244.21100 234.45700 225.43300
 217.56900 210.45100 204.30000 199.30600 195.45800 192.57600 191.02700 190.38600
 190.23900 190.53400 191.16600 191.92500 192.79500 193.76600 194.73200 195.31200
 195.80000 196.05200 196.11500 196.11500 196.03900 195.72300 195.34000 194.98900
 194.75100 194.79200 195.13300 195.59800 196.50600 198.13600 199.85800 201.56600
 204.17900 206.82300 209.89300 213.28400 216.82800 220.60500 224.38700 228.20900
 232.03200 235.82500 239.56000 243.25800 246.84500 250.20100 253.70900 257.46800
 261.53000 264.22100 266.60100 268.68100 270.32900 271.74100 272.83600 273.47400
 273.89800 274.00200 273.75700 273.28800 272.37100 271.10000 269.58900 267.77900
 265.81600 263.72100 261.39300 258.91600 256.29800 253.42300 250.33100 247.11400
 243.83700 240.52900 237.24900 233.99900 230.72800 227.51500 224.25400 220.95200
 217.62700 213.65600 210.12100 206.78900 204.01000 201.99491 199.07309 198.76551
 199.40006 200.48994 201.46112 202.31912 203.45100 204.96110 207.47502 210.85391
 213.70530 217.29629 220.99574 224.72316 228.28753 231.64854 234.68024 237.40893
 239.70644 241.60899 243.46854 245.67368 247.68154 249.52395 251.24767 252.78566
 254.12057 255.26479 256.23740 257.09036 257.82852 258.48160 259.07744 259.61723
 260.10271 260.53504 260.91270 261.39400
 399.73800 389.78500 379.66200 368.15100 356.64100 344.35000 331.79200 318.88800
 305.72600 292.49300 279.20900 266.73800 254.69600 244.21100 234.45700 225.43300
 217.56900 210.45100 204.30000 199.30600 195.45800 192.57600 191.02700 190.38600
 190.23900 190.53400 191.16600 191.92500 192.79500 193.76600 194.73200 195.31200
 195.80000 196.05200 196.11500 196.11500 196.03900 195.72300 195.34000 194.98900
 194.75100 194.79200 195.13300 195.59800 196.50600 198.13600 199.85800 201.56600
 204.17900 206.82300 209.89300 213.28400 216.82800 220.60500 224.38700 228.20900
 232.03200 235.82500 239.56000 243.25800 246.84500 250.20100 253.70900 257.46800
 261.53000 264.22100 266.60100 268.68100 270.32900 271.74100 272.83600 273.47400
 273.89800 274.00200 273.75700 273.28800 272.37100 271.10000 269.58900 267.77900
 265.81600 263.72100 261.39300 258.91600 256.29800 253.42300 250.33100 247.11400
 243.83700 240.52900 237.24900 233.99900 230.72800 227.51500 224.25400 220.95200
 217.62700 213.65600 210.12100 206.78900 204.01000 201.99491 199.07309 198.76551
 199.40006 200.48994 201.46112 202.31912 203.45100 204.96110 207.47502 210.85391
 213.70530 217.29629 220.99574 224.72316 228.28753 231.64854 234.68024 237.40893
 239.70644 241.60899 243.46854 245.67368 247.68154 249.52395 251.24767 252.78566
 254.12057 255.26479 256.23740 257.09036 257.82852 258.48160 259.07744 259.61723
 260.10271 260.53504 260.91270 261.39400
 399.33000 389.90700 379.81300 368.66800 357.52200 345.30100 333.07400 320.22700
 307.21600 293.84800 280.37600 267.29600 254.61000 242.98700 232.15100 221.97700
 212.67200 204.28600 197.66900 192.82100 189.48600 187.45200 186.81400 187.08900
 187.78100 189.05400 190.64800 192.54200 194.63000 196.75200 198.67100 200.15800
 201.53500 202.48700 202.97500 203.34000 203.53900 203.49700 203.38500 203.24700
 203.00500 202.78600 202.60300 202.43700 202.42600 202.88800 203.42000 203.95100
 204.89500 205.99200 207.30100 208.95800 210.73800 213.10000 215.56400 218.18000
 220.96600 223.91800 226.96100 230.09200 233.29300 236.55700 239.95500 243.53700
 246.84500 249.39000 251.54200 253.47400 255.19500 256.48400 257.43100 258.05900
 258.21200 258.04000 257.58200 256.64300 255.23900 253.50700 251.40800 249.05600
 246.57600 243.99400 241.38900 238.83000 236.34400 233.98600 231.96900 230.11800
 228.42300 226.89900 225.54800 224.29700 223.10500 221.96500 220.95800 220.11300
 219.49000 218.92000 218.32500 217.88100 217.42300 216.96366 216.35568 216.80261
 217.73415 218.28582 218.64258 219.10077 220.44626 222.53987 226.38451 230.35736
 233.59734 237.39164 241.29814 245.22796 248.98002 252.51130 255.78595 258.80109
 261.54781 264.05210 266.34239 268.04198 269.58951 271.01303 272.35754 273.55718
 274.59842 275.49092 276.28989 276.99307 277.60161 278.14001 278.63122 279.07623
 279.47646 279.83287 280.14422 280.54100
 381.81900 372.39900 361.20600 349.77600 337.62200 324.85300 311.81000 298.35300
 284.86000 271.32400 258.56100 246.30400 236.08700 226.79600 218.44800 211.29000
 205.52200 200.89400 197.38100 194.84800 193.01500 192.31500 192.25000 192.43100
 192.91200 193.53700 194.13600 194.71200 195.26200 195.83100 196.39300 196.97600
 197.60400 198.14900 198.58400 199.05700 199.69500 200.37800 201.05400 201.70800
 202.31300 202.85700 203.35500 203.86200 204.56900 205.29700 206.02600 206.98700
 208.19300 209.44100 210.96900 212.57600 214.46200 216.51300 218.63000 220.85300
 223.34100 225.96200 228.73900 231.69700 234.70600 237.70600 240.69200 243.65700
 246.73700 249.69900 252.52100 255.06300 257.29000 259.23300 260.63300 261.68000
 262.46100 262.79800 262.69100 262.22400 261.06900 259.52500 257.70700 255.50700
 253.00100 250.30200 247.39800 244.45200 241.65400 239.05400 236.73300 234.59000
 232.59500 230.72500 228.83400 226.82600 224.66600 222.38700 220.10400 217.71500
 215.45900 213.06600 210.54600 208.09300 205.35400 202.08130 196.05959 200.71215
 209.01611 216.90438 223.84126 229.78593 235.00632 240.20838 245.98943 250.68668
 254.32982 257.93487 261.55666 264.96801 268.15192 271.06452 273.76717 276.25691
 278.57680 280.74479 282.77456 284.60533 286.27232 287.81705 289.31715 290.65561
 291.81734 292.81312 293.70701 294.49387 295.17482 295.77730 296.32696 296.82492
 297.27278 297.67160 298.02000 298.46400
 366.78100 356.33931 345.77563 334.64594 323.05326 311.25157 299.12589 286.93320
 274.64952 262.55083 250.56414 239.86946 229.99577 221.10409 213.29040 206.29672
 200.13503 195.07735 191.66366 189.70998 188.75129 188.81960 189.65892 190.97123
 192.70055 194.79986 197.06718 199.43049 201.87981 204.36412 206.45643 208.30275
 209.93306 211.08238 211.31569 211.54801 211.48932 211.19864 210.83595 210.47026
 210.09158 209.80589 209.61821 209.48652 209.41884 209.75415 210.14447 210.53778
 211.33509 212.51741 213.77172 215.55904 217.49135 219.53867 221.63798 223.72530
 225.78961 227.87793 229.97924 232.08955 234.22287 236.39918 238.65950 241.03381
 243.65913 245.91444 247.92076 249.69007 251.11138 252.23870 253.06501 253.38533
 253.42664 253.20496 252.56927 251.52159 250.13190 248.29721 246.21053 244.04784
 241.84316 239.65147 237.47579 235.31910 233.18342 231.05473 229.08504 227.24636
 225.53367 224.00999 222.64430 221.42062 220.30693 219.27125 218.37956 217.52488
 216.77119 215.95550 215.05782 214.42613 213.88045 213.09058 211.22661 210.37578
 210.76736 212.35776 214.42067 216.39215 219.20506 223.59000 229.41408 234.56728
 238.45671 242.27110 246.07831 249.98289 253.97412 257.64404 260.42902 262.31384
 265.07114 267.89017 270.21753 272.04340 273.88351 275.74811 277.33380 278.92914
 280.64478 282.23907 283.70526 285.06073 286.24304 287.28940 288.24896 289.12372
 289.90930 290.61807 291.23911 292.06448
 366.78100 356.33952 345.77603 334.64655 323.05407 311.25258 299.12710 286.93462
 274.65113 262.55265 250.56617 239.87168 229.99820 221.10672 213.29323 206.29975
 200.13827 195.08078 191.66730 189.71382 188.75533 188.82385 189.66337 190.97588
 192.70540 194.80492 197.07243 199.43595 201.88547 204.36998 206.46250 208.30902
 209.93953 211.08905 211.32257 211.55508 211.49660 211.20612 210.84363 210.47815
 210.09967 209.81418 209.62670 209.49522 209.42773 209.76325 210.15377 210.54728
 211.34480 212.52732 213.78183 215.56935 217.50187 219.54938 221.64890 223.73642
 225.80093 227.88945 229.99097 232.10148 234.23500 236.41152 238.67203 241.04655
 243.67207 245.92758 247.93410 249.70362 251.12513 252.25265 253.07917 253.39968
 253.44120 253.21972 252.58423 251.53675 250.14727 248.31278 246.22630 244.06382
 241.85933 239.66785 237.49237 235.33588 233.20040 231.07192 229.10243 227.26395
 225.55147 224.02798 222.66250 221.43902 220.32553 219.29005 218.39857 217.54408
 216.79060 215.97512 215.07763 214.44615 213.90067 213.13126 211.31512 210.43994
 210.84000 212.43411 214.51012 216.45671 219.18234 223.52357 229.35880 234.49336
 238.36694 242.16786 245.96892 249.88612 253.92221 257.57318 260.32266 262.22766
 264.99417 267.82562 270.16278 271.96820 273.77200 275.61780 277.22031 278.82892
 280.55261 282.14481 283.60605 284.96078 286.14246 287.19119 288.15076 289.02365
 289.81229 290.51904 291.14188 291.97040
 366.78100 356.33978 345.77656 334.64734 323.05512 311.25390 299.12868 286.93646
 274.65324 262.55502 250.56880 239.87458 230.00136 221.11014 213.29692 206.30370
 200.14248 195.08526 191.67204 189.71882 188.76060 188.82938 189.66916 190.98194
 192.71172 194.81150 197.07928 199.44306 201.89284 204.37762 206.47040 208.31718
 209.94796 211.09774 211.33152 211.56430 211.50608 211.21586 210.85363 210.48841
 210.11019 209.82497 209.63775 209.50653 209.43931 209.77509 210.16587 210.55965
 211.35743 212.54021 213.79499 215.58277 217.51555 219.56333 221.66311 223.75089
 225.81567 227.90445 230.00623 232.11701 234.25079 236.42757 238.68835 241.06313
 243.68891 245.94469 247.95147 249.72125 251.14303 252.27081 253.09759 253.41837
 253.46015 253.23893 252.60371 251.55649 250.16727 248.33305 246.24683 244.08461
 241.88039 239.68917 237.51395 235.35773 233.22251 231.09429 229.12507 227.28685
 225.57463 224.05141 222.68619 221.46297 220.34975 219.31453 218.42331 217.56909
 216.81587 216.00065 215.10343 214.47221 213.92699 213.17323 211.39371 210.51472
 210.91830 212.51112 214.59520 216.51230 219.17114 223.46283 229.30251 234.41649
 238.27417 242.06450 245.86115 249.79124 253.87143 257.49963 260.21213 262.13708
 264.91168 267.75610 270.10480 271.89456 273.66528 275.49359 277.11197 278.73364
 280.46237 282.05493 283.51022 284.86526 286.04745 287.09689 288.05664 288.93039
 289.71921 290.42764 291.04929 291.87897
 366.78100 356.33995 345.77690 334.64785 323.05580 311.25476 299.12971 286.93766
 274.65461 262.55656 250.57051 239.87646 230.00341 221.11237 213.29932 206.30627
 200.14522 195.08817 191.67512 189.72207 188.76402 188.83298 189.67293 190.98588
 192.71583 194.81578 197.08373 199.44768 201.89763 204.38259 206.47554 208.32249
 209.95344 211.10339 211.33734 211.57029 211.51224 211.22220 210.86015 210.49510
 210.11705 209.83200 209.64495 209.51390 209.44685 209.78281 210.17376 210.56771
 211.36566 212.54861 213.80356 215.59151 217.52446 219.57241 221.67237 223.76032
 225.82527 227.91422 230.01617 232.12712 234.26107 236.43802 238.69898 241.07393
 243.69988 245.95583 247.96278 249.73273 251.15468 252.28263 253.10959 253.43054
 253.47249 253.25144 252.61639 251.56934 250.18029 248.34624 246.26020 244.09815
 241.89410 239.70305 237.52800 235.37195 233.23690 231.10885 229.13981 227.30176
 225.58971 224.06666 222.70161 221.47856 220.36551 219.33046 218.43941 217.58537
 216.83232 216.01727 215.12022 214.48917 213.94412 213.20857 211.47177 210.59911
 210.99390 212.58932 214.68015 216.56526 219.15654 223.40862 229.24673 234.34032
 238.18083 241.96054 245.75392 249.69905 253.82318 257.42209 260.09674 262.04376
 264.82248 267.67792 270.03891 271.81815 273.56213 275.37729 277.01086 278.64667
 280.37680 281.96942 283.42062 284.77554 285.95749 287.00830 287.96744 288.83945
 289.62988 290.33664 290.96176 291.79224
 366.78100 356.33998 345.77696 334.64794 323.05592 311.25490 299.12988 286.93787
 274.65485 262.55683 250.57081 239.87679 230.00377 221.11275 213.29973 206.30671
 200.14569 195.08867 191.67565 189.72264 188.76462 188.83360 189.67358 190.98656
 192.71654 194.81652 197.08450 199.44848 201.89846 204.38344 206.47642 208.32341
 209.95439 211.10437 211.33835 211.57133 211.51331 211.22329 210.86127 210.49625
 210.11823 209.83321 209.64619 209.51518 209.44816 209.78414 210.17512 210.56910
 211.36708 212.55006 213.80504 215.59302 217.52600 219.57398 221.67396 223.76195
 225.82693 227.91591 230.01789 232.12887 234.26285 236.43983 238.70081 241.07579
 243.70177 245.95775 247.96473 249.73472 251.15670 252.28468 253.11166 253.43264
 253.47462 253.25360 252.61858 251.57156 250.18254 248.34852 246.26250 244.10049
 241.89647 239.70545 237.53043 235.37441 233.23939 231.11137 229.14235 227.30433
 225.59231 224.06929 222.70427 221.48126 220.36824 219.33322 218.44220 217.58818
 216.83516 216.02014 215.12312 214.49210 213.94708 213.23508 211.55365 210.68932
 211.07114 212.66458 214.76268 216.62643 219.13499 223.35698 229.19206 234.26460
 238.08693 241.85545 245.64758 249.61032 253.77602 257.34348 259.98013 261.94876
 264.72650 267.58978 269.96317 271.73587 273.46277 275.26898 276.91943 278.56567
 280.29739 281.89078 283.33627 284.69150 285.87415 286.92493 287.88312 288.75766
 289.54761 290.25574 290.88040 291.70862
 366.78100 356.33992 345.77683 334.64775 323.05567 311.25458 299.12950 286.93742
 274.65434 262.55625 250.57017 239.87609 230.00300 221.11192 213.29884 206.30575
 200.14467 195.08759 191.67450 189.72142 188.76334 188.83225 189.67217 190.98509
 192.71501 194.81492 197.08284 199.44676 201.89667 204.38159 206.47451 208.32142
 209.95234 211.10226 211.33617 211.56909 211.51101 211.22092 210.85884 210.49376
 210.11568 209.83059 209.64351 209.51243 209.44534 209.78126 210.17218 210.56609
 211.36401 212.54693 213.80184 215.58976 217.52268 219.57060 221.67051 223.75843
 225.82335 227.91226 230.01418 232.12510 234.25901 236.43593 238.69685 241.07176
 243.69768 245.95360 247.96051 249.73043 251.15235 252.28027 253.10718 253.42810
 253.47002 253.24893 252.61385 251.56677 250.17768 248.34360 246.25752 244.09543
 241.89135 239.70027 237.52519 235.36910 233.23402 231.10594 229.13685 227.29877
 225.58669 224.06360 222.69852 221.47544 220.36235 219.32727 218.43619 217.58210
 216.82902 216.01394 215.11686 214.48577 213.94069 213.25539 211.63680 210.78574
 211.15012 212.73578 214.84541 216.69402 219.11494 223.30190 229.13589 234.18820
 237.99197 241.74991 245.54424 249.52629 253.72934 257.26416 259.86456 261.85349
 264.62518 267.49039 269.87546 271.64658 273.36588 275.16919 276.83640 278.49316
 280.22290 281.81717 283.26028 284.61557 285.79675 286.84763 287.80771 288.68188
 289.47049 290.18192 290.80664 291.63727
 366.78100 356.33978 345.77656 334.64735 323.05513 311.25391 299.12869 286.93648
 274.65326 262.55504 250.56882 239.87461 230.00139 221.11017 213.29695 206.30374
 200.14252 195.08530 191.67208 189.71887 188.76065 188.82943 189.66921 190.98200
 192.71178 194.81156 197.07934 199.44313 201.89291 204.37769 206.47047 208.31726
 209.94804 211.09782 211.33160 211.56439 211.50617 211.21595 210.85373 210.48852
 210.11030 209.82508 209.63786 209.50665 209.43943 209.77521 210.16599 210.55978
 211.35756 212.54034 213.79512 215.58291 217.51569 219.56347 221.66325 223.75104
 225.81582 227.90460 230.00638 232.11717 234.25095 236.42773 238.68851 241.06330
 243.68908 245.94486 247.95164 249.72142 251.14321 252.27099 253.09777 253.41855
 253.46034 253.23912 252.60390 251.55668 250.16747 248.33325 246.24703 244.08481
 241.88060 239.68938 237.51416 235.35794 233.22273 231.09451 229.12529 227.28707
 225.57486 224.05164 222.68642 221.46320 220.34999 219.31477 218.42355 217.56933
 216.81612 216.00090 215.10368 214.47246 213.92725 213.27103 211.72098 210.88387
 211.23668 212.80389 214.92703 216.76720 219.09816 223.24561 229.07790 234.10533
 237.89087 241.64085 245.44388 249.44829 253.68503 257.18506 259.75113 261.76190
 264.51971 267.38046 269.77490 271.54861 273.26990 275.07965 276.76236 278.42627
 280.15659 281.74869 283.19104 284.54501 285.72870 286.77820 287.73871 288.61258
 289.40472 290.11093 290.73788 291.57190
 366.78100 356.33953 345.77607 334.64660 323.05414 311.25267 299.12721 286.93474
 274.65128 262.55281 250.56635 239.87188 229.99841 221.10695 213.29348 206.30002
 200.13855 195.08109 191.66762 189.71416 188.75569 188.82422 189.66376 190.97629
 192.70583 194.80536 197.07290 199.43643 201.88597 204.37050 206.46304 208.30957
 209.94010 211.08964 211.32317 211.55571 211.49724 211.20678 210.84431 210.47885
 210.10038 209.81491 209.62745 209.49598 209.42852 209.76405 210.15459 210.54812
 211.34566 212.52819 213.78273 215.57026 217.50279 219.55033 221.64986 223.73740
 225.80193 227.89047 229.99200 232.10254 234.23607 236.41260 238.67314 241.04767
 243.67321 245.92874 247.93528 249.70481 251.12635 252.25388 253.08042 253.40095
 253.44248 253.22102 252.58555 251.53809 250.14862 248.31416 246.22769 244.06523
 241.86076 239.66929 237.49383 235.33736 233.20190 231.07343 229.10397 227.26550
 225.55304 224.02957 222.66411 221.44064 220.32717 219.29171 218.40024 217.54578
 216.79231 215.97685 215.07938 214.44792 213.90245 213.27972 211.80865 210.98386
 211.32762 212.87497 215.00420 216.83270 219.09082 223.18991 229.01382 234.01250
 237.78410 241.53098 245.34903 249.38031 253.64374 257.10861 259.64081 261.67526
 264.41046 267.25967 269.66025 271.44092 273.17468 274.99866 276.69510 278.36392
 280.09476 281.68619 283.12744 284.48279 285.66547 286.71503 287.67700 288.55029
 289.34097 290.05173 290.67700 291.51260
 366.78100 356.33930 345.77560 334.64591 323.05321 311.25151 299.12581 286.93311
 274.64942 262.55072 250.56402 239.86932 229.99563 221.10393 213.29023 206.29653
 200.13483 195.07714 191.66344 189.70974 188.75104 188.81934 189.65865 190.97095
 192.70025 194.79955 197.06685 199.43016 201.87946 204.36376 206.45606 208.30237
 209.93267 211.08197 211.31527 211.54757 211.48888 211.19818 210.83548 210.46978
 210.09108 209.80539 209.61769 209.48599 209.41829 209.75360 210.14390 210.53720
 211.33450 212.51680 213.77111 215.55841 217.49071 219.53801 221.63731 223.72462
 225.78892 227.87722 229.97852 232.08882 234.22213 236.39843 238.65873 241.03303
 243.65834 245.91364 247.91994 249.68924 251.11054 252.23785 253.06415 253.38445
 253.42575 253.20405 252.56836 251.52066 250.13096 248.29626 246.20956 244.04687
 241.84217 239.65047 237.47477 235.31808 233.18238 231.05368 229.08398 227.24528
 225.53259 224.00889 222.64319 221.41949 220.30579 219.27010 218.37840 217.52370
 216.77000 215.95431 215.05661 214.42491 213.87921 213.28789 211.89090 211.09814
 211.42033 212.93074 215.08157 216.89900 219.08705 223.14169 228.95059 233.91486
 237.67163 241.41808 245.25677 249.31902 253.60512 257.03510 259.53729 261.59692
 264.30124 267.12900 269.53354 271.32291 273.07593 274.92206 276.63153 278.30188
 280.03275 281.62595 283.07092 284.42545 285.60898 286.65924 287.61938 288.49435
 289.28522 289.99536 290.62213 291.45996
 366.78100 356.33850 345.77399 334.64349 323.04998 311.24748 299.12097 286.92747
 274.64296 262.54346 250.55595 239.86045 229.98594 221.09344 213.27893 206.28443
 200.12192 195.06342 191.64891 189.69441 188.73490 188.80240 189.64089 190.95239
 192.68088 194.77938 197.04587 199.40837 201.85686 204.34036 206.43185 208.27735
 209.90684 211.05534 211.28783 211.51933 211.45982 211.16832 210.80481 210.43831
 210.05880 209.77230 209.58379 209.45129 209.38278 209.71728 210.10677 210.49927
 211.29576 212.47726 213.73075 215.51725 217.44874 219.49524 221.59373 223.68023
 225.74372 227.83122 229.93171 232.04121 234.17370 236.34920 238.60869 240.98219
 243.60668 245.86118 247.86668 249.63517 251.05567 252.18216 253.00766 253.32715
 253.36765 253.14514 252.50864 251.46013 250.06963 248.23412 246.14662 243.98311
 241.77761 239.58510 237.40860 235.25109 233.11459 230.98508 229.01458 227.17507
 225.46157 223.93706 222.57056 221.34605 220.23155 219.19504 218.30254 217.44703
 216.69253 215.87602 214.97752 214.34501 213.79851 213.26607 212.00813 211.19095
 211.50804 212.99223 215.15919 216.97333 219.09869 223.10162 228.87950 233.80859
 237.55530 241.30478 245.16960 249.26506 253.56738 256.96234 259.43710 261.52417
 264.19067 266.98874 269.39359 271.19525 272.97559 274.85095 276.57159 278.24152
 279.97226 281.56876 283.01862 284.37424 285.55872 286.60886 287.56854 288.44302
 289.23495 289.94516 290.57248 291.41217
 366.78100 356.33823 345.77346 334.64269 323.04892 311.24616 299.11939 286.92562
 274.64085 262.54108 250.55331 239.85754 229.98277 221.09000 213.27524 206.28047
 200.11770 195.05893 191.64416 189.68939 188.72962 188.79685 189.63508 190.94632
 192.67455 194.77278 197.03901 199.40124 201.84947 204.33270 206.42393 208.26916
 209.89840 211.04663 211.27886 211.51009 211.45032 211.15855 210.79478 210.42801
 210.04824 209.76148 209.57271 209.43994 209.37117 209.70540 210.09463 210.48686
 211.28309 212.46432 213.71755 215.50379 217.43502 219.48125 221.57948 223.66571
 225.72894 227.81617 229.91640 232.02563 234.15787 236.33310 238.59233 240.96556
 243.58979 245.84402 247.84925 249.61748 251.03771 252.16395 252.98918 253.30841
 253.34864 253.12587 252.48910 251.44033 250.04956 248.21379 246.12603 243.96226
 241.75649 239.56372 237.38695 235.22918 233.09241 230.96264 228.99187 227.15211
 225.43834 223.91357 222.54680 221.32203 220.20726 219.17049 218.27772 217.42195
 216.66719 215.85042 214.95165 214.31888 213.77211 213.26970 212.08267 211.32567
 211.58694 213.04781 215.25470 217.04338 219.10481 223.05598 228.81252 233.70197
 237.43443 241.18571 245.08089 249.21162 253.52423 256.88217 259.33301 261.45297
 264.08020 266.84238 269.24789 271.06848 272.88391 274.79333 276.52563 278.18918
 279.91534 281.51184 282.97137 284.32886 285.51163 286.56100 287.52267 288.39685
 289.18762 289.89999 290.52902 291.36902
 366.78100 356.33795 345.77291 334.64186 323.04781 311.24476 299.11772 286.92367
 274.63862 262.53858 250.55053 239.85448 229.97944 221.08639 213.27134 206.27629
 200.11325 195.05420 191.63915 189.68411 188.72406 188.79101 189.62896 190.93992
 192.66787 194.76582 197.03178 199.39373 201.84168 204.32464 206.41559 208.26054
 209.88949 211.03745 211.26940 211.50035 211.44031 211.14826 210.78421 210.41716
 210.03712 209.75007 209.56102 209.42798 209.35893 209.69288 210.08183 210.47379
 211.26974 212.45069 213.70365 215.48960 217.42055 219.46651 221.56446 223.65041
 225.71336 227.80032 229.90027 232.00922 234.14118 236.31613 238.57508 240.94803
 243.57199 245.82594 247.83089 249.59885 251.01880 252.14475 252.96971 253.28866
 253.32861 253.10556 252.46852 251.41947 250.02842 248.19238 246.10433 243.94028
 241.73423 239.54119 237.36414 235.20609 233.06905 230.93900 228.96795 227.12791
 225.41386 223.88881 222.52176 221.29672 220.18167 219.14462 218.25158 217.39553
 216.64048 215.82343 214.92439 214.29134 213.74429 213.27280 212.15881 211.42284
 211.74324 213.11229 215.31877 217.09975 219.10991 223.02094 228.72638 233.57170
 237.29652 241.05627 244.99103 249.16151 253.48093 256.80396 259.23938 261.39575
 263.97794 266.69904 269.10492 270.94794 272.80078 274.74615 276.48737 278.14322
 279.86258 281.45712 282.92795 284.28516 285.46936 286.51804 287.47949 288.35294
 289.14694 289.85611 290.48648 291.32977
 366.78100 356.33705 345.77110 334.63915 323.04420 311.24025 299.11230 286.91735
 274.63140 262.53045 250.54150 239.84455 229.96860 221.07464 213.25869 206.26274
 200.09879 195.03884 191.62289 189.66694 188.70599 188.77204 189.60909 190.91914
 192.64619 194.74324 197.00829 199.36934 201.81639 204.29844 206.38849 208.23254
 209.86059 211.00764 211.23869 211.46874 211.40779 211.11484 210.74989 210.38193
 210.00098 209.71303 209.52308 209.38913 209.31918 209.65223 210.04028 210.43133
 211.22638 212.40643 213.65848 215.44353 217.37358 219.41863 221.51568 223.60073
 225.66278 227.74883 229.84788 231.95593 234.08698 236.26103 238.51908 240.89113
 243.51418 245.76722 247.77127 249.53832 250.95737 252.08242 252.90647 253.22452
 253.26357 253.03962 252.40167 251.35172 249.95977 248.12282 246.03387 243.86892
 241.66197 239.46802 237.29007 235.13112 232.99317 230.86222 228.89027 227.04932
 225.33437 223.80842 222.44047 221.21451 220.09856 219.06061 218.16666 217.30971
 216.55376 215.73581 214.83586 214.20191 213.65396 213.24423 212.27620 211.48956
 211.82062 213.31647 215.42099 217.09996 219.08672 222.92139 228.63899 233.45126
 237.16447 240.93959 244.91705 249.12354 253.44386 256.73578 259.16068 261.35181
 263.88361 266.55554 268.95859 270.82379 272.71347 274.69608 276.44357 278.09079
 279.80835 281.40228 282.88651 284.24417 285.42929 286.47888 287.43954 288.31357
 289.10626 289.81952 290.44553 291.29636
 366.78100 356.33626 345.76953 334.63679 323.04105 311.23632 299.10758 286.91185
 274.62511 262.52337 250.53364 239.83590 229.95916 221.06443 213.24769 206.25095
 200.08622 195.02548 191.60875 189.65201 188.69027 188.75554 189.59180 190.90106
 192.62733 194.72359 196.98785 199.34812 201.79438 204.27565 206.36491 208.20817
 209.83544 210.98170 211.21196 211.44123 211.37949 211.08575 210.72002 210.35128
 209.96955 209.68081 209.49007 209.35534 209.28460 209.61686 210.00413 210.39439
 211.18865 212.36792 213.61918 215.40345 217.33271 219.37697 221.47324 223.55750
 225.61876 227.70403 229.80229 231.90955 234.03982 236.21308 238.47035 240.84161
 243.46387 245.71614 247.71940 249.48566 250.90393 252.02819 252.85145 253.16872
 253.20698 252.98225 252.34351 251.29277 249.90004 248.06230 245.97256 243.80683
 241.59909 239.40435 237.22562 235.06588 232.92715 230.79541 228.82267 226.98094
 225.26520 223.73846 222.36973 221.14299 220.02625 218.98752 218.09278 217.23505
 216.47831 215.65957 214.75884 214.12410 213.57536 213.21974 212.37956 211.61086
 211.84927 213.47830 215.53488 217.12146 219.06787 222.82541 228.56015 233.34143
 237.04152 240.83485 244.85478 249.09236 253.40692 256.66556 259.07959 261.30615
 263.78836 266.40872 268.80655 270.69556 272.62405 274.64307 276.39630 278.03372
 279.75058 281.33423 282.85129 284.21121 285.39453 286.44485 287.40610 288.27948
 289.07181 289.78287 290.41531 291.25809
 366.78100 356.33566 345.76832 334.63498 323.03864 311.23330 299.10396 286.90762
 274.62028 262.51794 250.52760 239.82926 229.95192 221.05658 213.23924 206.24190
 200.07656 195.01523 191.59789 189.64055 188.67821 188.74287 189.57853 190.88719
 192.61285 194.70851 196.97217 199.33183 201.77749 204.25815 206.34681 208.18947
 209.81613 210.96179 211.19145 211.42011 211.35777 211.06343 210.69709 210.32775
 209.94541 209.65607 209.46473 209.32939 209.25805 209.58971 209.97637 210.36603
 211.15969 212.33835 213.58901 215.37268 217.30134 219.34500 221.44066 223.52432
 225.58498 227.66964 229.76730 231.87396 234.00362 236.17628 238.43294 240.80360
 243.42526 245.67692 247.67958 249.44524 250.86290 251.98656 252.80922 253.12588
 253.16354 252.93820 252.29886 251.24752 249.85418 248.01584 245.92550 243.75916
 241.55082 239.35548 237.17614 235.01580 232.87647 230.74413 228.77079 226.92845
 225.21211 223.68477 222.31543 221.08809 219.97075 218.93141 218.03607 217.17773
 216.42039 215.60105 214.69971 214.06437 213.51503 213.20323 212.46658 211.74844
 211.90025 213.59846 215.63860 217.15398 219.05406 222.74272 228.48848 233.23344
 236.91917 240.73454 244.79768 249.06325 253.36343 256.58685 258.99127 261.25494
 263.69196 266.26224 268.65607 270.57175 272.53973 274.59549 276.35318 277.97879
 279.69156 281.27902 282.81317 284.17532 285.36060 286.41022 287.37173 288.24701
 289.03955 289.75208 290.38159 291.23553
 366.78100 356.33495 345.76689 334.63284 323.03578 311.22973 299.09968 286.90262
 274.61457 262.51151 250.52046 239.82141 229.94335 221.04730 213.22924 206.23119
 200.06514 195.00308 191.58503 189.62697 188.66392 188.72787 189.56281 190.87076
 192.59570 194.69065 196.95360 199.31254 201.75749 204.23744 206.32538 208.16733
 209.79327 210.93822 211.16717 211.39511 211.33206 211.03700 210.66995 210.29990
 209.91684 209.62679 209.43473 209.29868 209.22663 209.55757 209.94352 210.33246
 211.12541 212.30336 213.55330 215.33625 217.26419 219.30714 221.40209 223.48503
 225.54498 227.62892 229.72587 231.83182 233.96076 236.13271 238.38865 240.75860
 243.37955 245.63049 247.63244 249.39738 250.81433 251.93728 252.75922 253.07517
 253.11211 252.88606 252.24601 251.19395 249.79990 247.96084 245.86979 243.70274
 241.49368 239.29763 237.11757 234.95652 232.81647 230.68341 228.70936 226.86631
 225.14925 223.62120 222.25114 221.02309 219.90504 218.86498 217.96893 217.10987
 216.35182 215.53177 214.62971 213.99366 213.44360 213.18066 212.55945 211.87010
 211.98634 213.70441 215.71950 217.18466 219.04883 222.66966 228.41785 233.12213
 236.79782 240.63846 244.74571 249.03575 253.31374 256.50107 258.89835 261.19870
 263.59659 266.11920 268.51028 270.45645 272.46295 274.55515 276.31696 277.92960
 279.63663 281.23450 282.77216 284.13663 285.32239 286.37335 287.33490 288.20914
 289.00320 289.71628 290.34595 291.19714
 366.78100 356.33420 345.76539 334.63059 323.03278 311.22598 299.09517 286.89737
 274.60856 262.50476 250.51295 239.81315 229.93434 221.03754 213.21873 206.21993
 200.05312 194.99032 191.57152 189.61271 188.64891 188.71210 189.54630 190.85349
 192.57769 194.67188 196.93408 199.29227 201.73647 204.21566 206.30286 208.14405
 209.76925 210.91344 211.14164 211.36884 211.30503 211.00923 210.64142 210.27062
 209.88681 209.59601 209.40320 209.26640 209.19359 209.52379 209.90898 210.29718
 211.08937 212.26657 213.51577 215.29796 217.22516 219.26735 221.36155 223.44374
 225.50294 227.58613 229.68233 231.78752 233.91572 236.08691 238.34211 240.71130
 243.33150 245.58169 247.58289 249.34709 250.76328 251.88548 252.70667 253.02187
 253.05806 252.83126 252.19045 251.13765 249.74284 247.90304 245.81123 243.64343
 241.43362 239.23682 237.05601 234.89421 232.75341 230.61960 228.64480 226.80099
 225.08319 223.55438 222.18358 220.95477 219.83597 218.79516 217.89836 217.03855
 216.27975 215.45894 214.55614 213.91933 213.36853 213.15573 212.65295 211.98566
 212.09218 213.80183 215.77777 217.21294 219.04956 222.60657 228.34436 233.00998
 236.68143 240.55069 244.69974 249.01006 253.25804 256.40918 258.80005 261.13672
 263.50235 265.98257 268.37299 270.35165 272.39560 274.51880 276.28381 277.88293
 279.58295 281.19034 282.73178 284.09589 285.28235 286.33453 287.29590 288.17145
 288.96701 289.67795 290.30725 291.16537
 366.78100 356.33349 345.76398 334.62847 323.02995 311.22244 299.09093 286.89242
 274.60291 262.49840 250.50589 239.80538 229.92586 221.02835 213.20884 206.20933
 200.04182 194.97831 191.55880 189.59928 188.63477 188.69726 189.53075 190.83724
 192.56073 194.65422 196.91571 199.27319 201.71668 204.19517 206.28166 208.12215
 209.74664 210.89013 211.11761 211.34410 211.27959 210.98308 210.61457 210.24306
 209.85855 209.56704 209.37352 209.23601 209.16250 209.49199 209.87648 210.26397
 211.05546 212.23194 213.48043 215.26192 217.18841 219.22990 221.32339 223.40488
 225.46337 227.54585 229.64134 231.74583 233.87332 236.04381 238.29830 240.66679
 243.28627 245.53576 247.53625 249.29974 250.71523 251.83672 252.65721 252.97170
 253.00718 252.77967 252.13816 251.08465 249.68914 247.84863 245.75612 243.58760
 241.37709 239.17958 236.99807 234.83556 232.69405 230.55954 228.58403 226.73951
 225.02100 223.49149 222.11998 220.89047 219.77096 218.72945 217.83193 216.97142
 216.21191 215.39040 214.48689 213.84938 213.29787 213.13251 212.74185 212.10988
 212.20480 213.89166 215.82140 217.23799 219.04892 222.55347 228.26950 232.90289
 236.57439 240.47263 244.66141 248.98532 253.19466 256.30731 258.69415 261.06720
 263.40942 265.85434 268.24731 270.26123 272.33701 274.48389 276.24896 277.83734
 279.52643 281.14713 282.69016 284.05606 285.24268 286.29514 287.25705 288.13141
 288.92865 289.64005 290.27301 291.12802
 366.78100 356.33278 345.76257 334.62635 323.02714 311.21892 299.08670 286.88749
 274.59727 262.49205 250.49884 239.79762 229.91741 221.01919 213.19897 206.19876
 200.03054 194.96633 191.54611 189.58589 188.62068 188.68246 189.51525 190.82103
 192.54381 194.63660 196.89738 199.25416 201.69695 204.17473 206.26052 208.10030
 209.72408 210.86687 211.09365 211.31944 211.25422 210.95700 210.58779 210.21557
 209.83035 209.53814 209.34392 209.20571 209.13149 209.46027 209.84406 210.23084
 211.02163 212.19741 213.44519 215.22598 217.15176 219.19254 221.28533 223.36611
 225.42390 227.50568 229.60046 231.70425 233.83103 236.00082 238.25460 240.62238
 243.24117 245.48995 247.48974 249.25252 250.66730 251.78809 252.60787 252.92165
 252.95644 252.72822 252.08601 251.03179 249.63557 247.79436 245.70114 243.53193
 241.32071 239.12249 236.94028 234.77706 232.63484 230.49963 228.52341 226.67820
 224.95898 223.42876 222.05655 220.82633 219.70612 218.66390 217.76568 216.90447
 216.14425 215.32203 214.41782 213.77960 213.22739 213.10851 212.82762 212.24591
 212.31921 213.97278 215.85324 217.25328 219.04991 222.51115 228.19855 232.80223
 236.47769 240.40535 244.62929 248.95999 253.12173 256.19525 258.57968 260.98941
 263.31842 265.73645 268.13446 270.18405 272.28699 274.45068 276.21307 277.79077
 279.46912 281.10419 282.64951 284.01474 285.20251 286.25391 287.21811 288.09280
 288.88779 289.60208 290.23260 291.09146
 366.78100 356.33204 345.76108 334.62412 323.02416 311.21520 299.08224 286.88228
 274.59132 262.48536 250.49140 239.78944 229.90848 221.00952 213.18856 206.18760
 200.01864 194.95368 191.53272 189.57176 188.60580 188.66684 189.49888 190.80392
 192.52596 194.61800 196.87804 199.23408 201.67612 204.15316 206.23820 208.07724
 209.70028 210.84231 211.06835 211.29339 211.22743 210.92947 210.55951 210.18655
 209.80059 209.50763 209.31267 209.17371 209.09875 209.42679 209.80983 210.19587
 210.98591 212.16095 213.40799 215.18803 217.11307 219.15311 221.24515 223.32519
 225.38223 227.46327 229.55731 231.66035 233.78639 235.95543 238.20847 240.57551
 243.19355 245.44159 247.44063 249.20267 250.61671 251.73675 252.55579 252.86883
 252.90287 252.67391 252.03095 250.97599 249.57903 247.73707 245.64311 243.47315
 241.26119 239.06223 236.87927 234.71531 232.57235 230.43639 228.45943 226.61347
 224.89351 223.36255 221.98959 220.75863 219.63767 218.59471 217.69575 216.83379
 216.07283 215.24987 214.34490 213.70594 213.15298 213.08199 212.91425 212.39261
 212.43576 214.04233 215.86813 217.26334 219.05959 222.47543 228.13350 232.71066
 236.39323 240.34956 244.60291 248.93256 253.03912 256.07407 258.45898 260.90173
 263.22665 265.62668 268.03217 270.11789 272.24423 274.41904 276.17834 277.74698
 279.41360 281.06207 282.60718 283.97415 285.16104 286.21381 287.17621 288.05234
 288.84634 289.56299 290.19272 291.05151
 366.78100 356.33129 345.75958 334.62188 323.02117 311.21146 299.07775 286.87705
 274.58534 262.47863 250.48392 239.78122 229.89951 220.99980 213.17809 206.17639
 200.00668 194.94097 191.51926 189.55756 188.59085 188.65114 189.48243 190.78673
 192.50802 194.59931 196.85860 199.21390 201.65519 204.13148 206.21577 208.05407
 209.67636 210.81765 211.04294 211.26724 211.20053 210.90182 210.53111 210.15741
 209.77070 209.47699 209.28128 209.14158 209.06587 209.39316 209.77545 210.16075
 210.95004 212.12433 213.37062 215.14992 217.07421 219.11350 221.20479 223.28409
 225.34038 227.42067 229.51396 231.61626 233.74155 235.90984 238.16213 240.52843
 243.14572 245.39301 247.39130 249.15260 250.56589 251.68518 252.50347 252.81577
 252.84906 252.61935 251.97564 250.91994 249.52223 247.67952 245.58481 243.41411
 241.20140 239.00169 236.81798 234.65328 232.50957 230.37286 228.39515 226.54844
 224.82774 223.29603 221.92232 220.69061 219.56891 218.52520 217.62549 216.76278
 216.00108 215.17737 214.27166 213.63195 213.07825 213.05508 213.00035 212.54568
 212.55376 214.10330 215.86514 217.26233 219.07455 222.44324 228.07481 232.62856
 236.32117 240.30632 244.58401 248.90558 252.94879 255.94618 258.33252 260.80118
 263.12827 265.51996 267.93784 270.05997 272.20990 274.39130 276.14728 277.70642
 279.35474 281.02545 282.56882 283.93478 285.11948 286.17319 287.13550 288.01038
 288.80829 289.52014 290.15036 291.01379
 366.78100 356.33044 345.75788 334.61932 323.01776 311.20720 299.07264 286.87108
 274.57852 262.47096 250.47540 239.77184 229.88928 220.98872 213.16616 206.16360
 199.99304 194.92648 191.50392 189.54136 188.57380 188.63324 189.46368 190.76712
 192.48756 194.57800 196.83644 199.19087 201.63131 204.10675 206.19019 208.02763
 209.64907 210.78951 211.01395 211.23739 211.16983 210.87027 210.49871 210.12415
 209.73659 209.44203 209.24547 209.10491 209.02835 209.35479 209.73623 210.12067
 210.90911 212.08255 213.32799 215.10643 217.02987 219.06831 221.15875 223.23719
 225.29263 227.37207 229.46451 231.56595 233.69039 235.85783 238.10927 240.47471
 243.09115 245.33759 247.33503 249.09547 250.50791 251.62635 252.44379 252.75523
 252.78767 252.55711 251.91255 250.85599 249.45743 247.61387 245.51831 243.34674
 241.13318 238.93262 236.74806 234.58250 232.43794 230.30038 228.32182 226.47426
 224.75270 223.22014 221.84558 220.61302 219.49046 218.44590 217.54534 216.68178
 215.91922 215.09466 214.18810 213.54754 212.99298 213.02328 213.09491 212.69702
 212.67950 214.14851 215.83324 217.26396 219.09834 222.41817 228.02133 232.55898
 236.26346 240.27681 244.57417 248.88077 252.85292 255.81293 258.19720 260.68240
 263.01755 265.41156 267.84802 270.01068 272.18375 274.36823 276.11932 277.67084
 279.29446 280.99500 282.53427 283.89685 285.08099 286.13351 287.09570 287.97220
 288.76828 289.48209 290.11508 290.97333
 366.78100 356.32972 345.75644 334.61716 323.01488 311.20360 299.06832 286.86604
 274.57277 262.46449 250.46821 239.76393 229.88065 220.97937 213.15609 206.15281
 199.98153 194.91425 191.49097 189.52769 188.55941 188.61813 189.44785 190.75058
 192.47030 194.56002 196.81774 199.17146 201.61118 204.08590 206.16862 208.00534
 209.62606 210.76578 210.98950 211.21222 211.14394 210.84366 210.47139 210.09611
 209.70783 209.41255 209.21527 209.07399 208.99671 209.32243 209.70315 210.08687
 210.87459 212.04731 213.29203 215.06975 216.99247 219.03020 221.11992 223.19764
 225.25236 227.33108 229.42280 231.52352 233.64724 235.81396 238.06468 240.42940
 243.04512 245.29084 247.28756 249.04728 250.45901 251.57673 252.39345 252.70417
 252.73589 252.50461 251.85933 250.80205 249.40277 247.55849 245.46221 243.28993
 241.07565 238.87437 236.68909 234.52282 232.37754 230.23926 228.25998 226.41170
 224.68942 223.15614 221.78086 220.54758 219.42430 218.37902 217.47774 216.61346
 215.85018 215.02490 214.11762 213.47635 212.92107 212.99832 213.18086 212.87120
 212.79132 214.17549 215.80269 217.25255 219.11072 222.39825 227.97838 232.50252
 236.21835 240.25945 244.57326 248.85938 252.75293 255.67450 258.05460 260.54825
 262.89676 265.30334 267.76367 269.97000 272.16644 274.34659 276.08865 277.63327
 279.24426 280.96045 282.49911 283.86053 285.04324 286.09650 287.05789 287.93533
 288.72916 289.44431 290.07535 290.93729
 366.78100 356.32829 345.75359 334.61288 323.00918 311.19647 299.05977 286.85606
 274.56135 262.45165 250.45394 239.74824 229.86353 220.96083 213.13612 206.13141
 199.95871 194.89000 191.46530 189.50059 188.53089 188.58818 189.41647 190.71777
 192.43606 194.52436 196.78065 199.13295 201.57124 204.04453 206.12583 207.96112
 209.58042 210.71871 210.94101 211.16230 211.09259 210.79089 210.41718 210.04048
 209.65077 209.35407 209.15536 209.01265 208.93395 209.25824 209.63754 210.01983
 210.80613 211.97742 213.22071 214.99701 216.91830 218.95460 221.04289 223.11918
 225.17248 227.24977 229.34007 231.43936 233.56166 235.72695 237.97624 240.33954
 242.95383 245.19813 247.19342 248.95172 250.36201 251.47830 252.29360 252.60289
 252.63319 252.40048 251.75378 250.69507 249.29436 247.44866 245.35095 243.17725
 240.96154 238.75884 236.57213 234.40442 232.25772 230.11801 228.13731 226.28760
 224.56390 223.02919 221.65248 220.41778 219.29307 218.24637 217.34366 216.47796
 215.71325 214.88654 213.97784 213.33513 212.77843 212.93910 213.31870 213.00256
 212.92659 214.20021 215.71313 217.24362 219.15392 222.38499 227.93971 232.45766
 236.18617 240.25645 244.58339 248.84364 252.65315 255.53394 257.90576 260.39948
 262.76355 265.19064 267.68030 269.93109 272.14963 274.32156 276.05045 277.58987
 279.19888 280.92496 282.46469 283.82532 285.00858 286.05963 287.02167 287.89948
 288.69196 289.40976 290.03717 290.90298
 366.78100 356.32709 345.75118 334.60927 323.00436 311.19045 299.05254 286.84763
 274.55172 262.44081 250.44190 239.73499 229.84908 220.94517 213.11926 206.11335
 199.93944 194.86953 191.44362 189.47771 188.50680 188.56289 189.38998 190.69007
 192.40716 194.49425 196.74934 199.10043 201.53752 204.00961 206.08970 207.92379
 209.54188 210.67897 210.90006 211.12015 211.04924 210.74633 210.37142 209.99351
 209.60260 209.30469 209.10478 208.96087 208.88096 209.20405 209.58214 209.96323
 210.74832 211.91841 213.16050 214.93559 216.85568 218.89077 220.97786 223.05295
 225.10504 227.18113 229.27022 231.36831 233.48940 235.65349 237.90158 240.26367
 242.87676 245.11985 247.11394 248.87103 250.28012 251.39521 252.20930 252.51739
 252.54648 252.31257 251.66466 250.60475 249.20284 247.35593 245.25702 243.08211
 240.86520 238.66129 236.47338 234.30447 232.15656 230.01565 228.03374 226.18283
 224.45792 222.92201 221.54410 220.30819 219.18228 218.13437 217.23046 216.36355
 215.59764 214.76973 213.85982 213.21591 212.65800 212.89006 213.43834 213.19357
 212.98114 214.19533 215.69791 217.23752 219.15874 222.38416 227.91640 232.42775
 236.16855 240.26669 244.60193 248.82878 252.54619 255.37857 257.73813 260.22705
 262.61139 265.06973 267.59564 269.89465 272.13654 274.29926 276.01547 277.54993
 279.14859 280.89139 282.43393 283.79498 284.97604 286.02667 286.98883 287.86469
 288.65958 289.37405 290.00485 290.86411
 366.78100 356.32791 345.75282 334.61172 323.00763 311.19454 299.05745 286.85336
 274.55827 262.44817 250.45008 239.74399 229.85890 220.95581 213.13072 206.12562
 199.95253 194.88344 191.45835 189.49326 188.52316 188.58007 189.40798 190.70889
 192.42680 194.51471 196.77061 199.12252 201.56043 204.03334 206.11425 207.94915
 209.56806 210.70597 210.92788 211.14879 211.07870 210.77660 210.40251 210.02542
 209.63533 209.33824 209.13915 208.99605 208.91696 209.24087 209.61978 210.00169
 210.78759 211.95850 213.20141 214.97732 216.89823 218.93414 221.02204 223.09795
 225.15086 227.22777 229.31768 231.41659 233.53849 235.70340 237.95231 240.31522
 242.92913 245.17303 247.16794 248.92585 250.33576 251.45167 252.26658 252.57548
 252.60539 252.37230 251.72521 250.66612 249.26503 247.41893 245.32084 243.14675
 240.93066 238.72757 236.54047 234.37238 232.22529 230.08520 228.10411 226.25402
 224.52992 222.99483 221.61774 220.38265 219.25756 218.21046 217.30737 216.44128
 215.67619 214.84910 213.94001 213.29691 212.73982 212.94533 213.43086 213.44005
 213.13171 214.13042 215.57523 217.25644 219.25519 222.38815 227.89099 232.39818
 236.15419 240.28108 244.61989 248.80431 252.42036 255.19902 257.54825 260.03568
 262.44916 264.94989 267.51947 269.87030 272.13544 274.28851 275.99472 277.52066
 279.11722 280.85806 282.40079 283.76187 284.94421 285.99478 286.95612 287.83377
 288.62860 289.34235 289.97250 290.83041
 366.78100 356.32757 345.75214 334.61072 323.00629 311.19286 299.05543 286.85101
 274.55558 262.44515 250.44672 239.74029 229.85487 220.95144 213.12601 206.12058
 199.94716 194.87773 191.45230 189.48687 188.51644 188.57302 189.40059 190.70116
 192.41873 194.50631 196.76188 199.11345 201.55102 204.02359 206.10417 207.93874
 209.55731 210.69488 210.91646 211.13703 211.06660 210.76417 210.38974 210.01232
 209.62189 209.32446 209.12503 208.98161 208.90218 209.22575 209.60432 209.98589
 210.77147 211.94204 213.18461 214.96018 216.88076 218.91633 221.00390 223.07947
 225.13204 227.20862 229.29819 231.39676 233.51833 235.68291 237.93148 240.29405
 242.90762 245.15119 247.14577 248.90334 250.31291 251.42848 252.24306 252.55163
 252.58120 252.34777 251.70034 250.64092 249.23949 247.39306 245.29463 243.12021
 240.90378 238.70035 236.51292 234.34449 232.19707 230.05664 228.07521 226.22478
 224.50036 222.96493 221.58750 220.35207 219.22664 218.17922 217.27579 216.40936
 215.64393 214.81651 213.90708 213.26365 212.70622 212.94600 213.51248 213.61751
 213.26437 214.08138 215.45247 217.29037 219.36598 222.37982 227.86671 232.37395
 236.14493 240.29967 244.63716 248.77135 252.28093 255.00600 257.35175 259.84140
 262.29156 264.84100 267.45773 269.86050 272.14517 274.28278 275.97849 277.49710
 279.09311 280.82529 282.36749 283.72928 284.91132 285.96265 286.92374 287.80191
 288.59778 289.31100 289.94147 290.79843
 366.78100 356.32662 345.75023 334.60785 323.00246 311.18808 299.04970 286.84431
 274.54793 262.43654 250.43716 239.72978 229.84339 220.93901 213.11263 206.10624
 199.93186 194.86147 191.43509 189.46871 188.49732 188.55294 189.37955 190.67917
 192.39579 194.48240 196.73702 199.08763 201.52425 203.99587 206.07548 207.90910
 209.52672 210.66333 210.88395 211.10356 211.03218 210.72880 210.35341 209.97503
 209.58364 209.28526 209.08488 208.94049 208.86011 209.18272 209.56034 209.94096
 210.72557 211.89519 213.13681 214.91142 216.83104 218.86565 220.95227 223.02689
 225.07850 227.15412 229.24273 231.34035 233.46097 235.62458 237.87220 240.23381
 242.84643 245.08905 247.08266 248.83928 250.24790 251.36251 252.17613 252.48374
 252.51236 252.27798 251.62959 250.56921 249.16682 247.31944 245.22006 243.04467
 240.82729 238.62290 236.43452 234.26514 232.11675 229.97537 227.99299 226.14160
 224.41622 222.87983 221.50145 220.26507 219.13868 218.09030 217.18591 216.31853
 215.55215 214.72376 213.81338 213.16899 212.61061 212.91707 213.64107 213.74498
 213.35399 214.09538 215.42227 217.31134 219.40919 222.36681 227.83392 232.34192
 236.13536 240.32065 244.65166 248.72952 252.13290 254.81047 257.15909 259.65143
 262.14163 264.74255 267.40430 269.85620 272.15408 274.27206 275.95316 277.46548
 279.06516 280.79413 282.33688 283.69867 284.88181 285.93253 286.89566 287.77109
 288.56577 289.28116 289.90988 290.76617
 366.78100 356.32596 345.74892 334.60587 322.99983 311.18479 299.04575 286.83970
 274.54266 262.43062 250.43058 239.72254 229.83549 220.93045 213.10341 206.09637
 199.92133 194.85028 191.42324 189.45620 188.48416 188.53911 189.36507 190.66403
 192.37999 194.46595 196.71990 199.06986 201.50582 203.97678 206.05574 207.88869
 209.50565 210.64161 210.86157 211.08052 211.00848 210.70444 210.32840 209.94936
 209.55731 209.25827 209.05723 208.91219 208.83115 209.15310 209.53006 209.91002
 210.69398 211.86293 213.10389 214.87785 216.79681 218.83077 220.91672 222.99068
 225.04164 227.11660 229.20456 231.30151 233.42147 235.58443 237.83139 240.19234
 242.80430 245.04626 247.03922 248.79518 250.20313 251.31709 252.13005 252.43701
 252.46496 252.22992 251.58088 250.51984 249.11680 247.26875 245.16871 242.99267
 240.77463 238.56959 236.38054 234.21050 232.06146 229.91942 227.93637 226.08433
 224.35829 222.82125 221.44221 220.20516 219.07812 218.02908 217.12404 216.25600
 215.48895 214.65991 213.74887 213.10383 212.54478 212.90459 213.75465 213.86459
 213.43739 214.14069 215.44308 217.30711 219.40149 222.35854 227.79364 232.30687
 236.12906 240.34488 244.66476 248.68250 251.98222 254.61777 256.97186 259.46539
 261.99588 264.64789 267.35345 269.84851 272.15625 274.25189 275.91739 277.42722
 279.04001 280.76260 282.30457 283.66769 284.85153 285.90283 286.86530 287.74295
 288.53854 289.25015 289.88147 290.73355
 366.78100 356.32582 345.74863 334.60545 322.99927 311.18409 299.04490 286.83872
 274.54154 262.42935 250.42917 239.72099 229.83381 220.92862 213.10144 206.09426
 199.91907 194.84789 191.42071 189.45353 188.48134 188.53616 189.36198 190.66079
 192.37661 194.46243 196.71625 199.06606 201.50188 203.97270 206.05151 207.88433
 209.50115 210.63697 210.85678 211.07560 211.00342 210.69923 210.32305 209.94387
 209.55169 209.25250 209.05132 208.90614 208.82496 209.14677 209.52359 209.90341
 210.68722 211.85604 213.09686 214.87068 216.78949 218.82331 220.90913 222.98294
 225.03376 227.10858 229.19640 231.29321 233.41303 235.57585 237.82266 240.18348
 242.79530 245.03712 247.02993 248.78575 250.19357 251.30738 252.12020 252.42702
 252.45484 252.21965 251.57047 250.50929 249.10610 247.25792 245.15774 242.98156
 240.76337 238.55819 236.36901 234.19882 232.04964 229.90746 227.92428 226.07209
 224.34591 222.80873 221.42954 220.19236 219.06518 218.01600 217.11081 216.24263
 215.47545 214.64626 213.73508 213.08990 212.53072 212.92024 213.84053 213.98564
 213.53175 214.18597 215.47049 217.29385 219.39165 222.36157 227.75116 232.27583
 236.12872 240.37315 244.67514 248.62759 251.82500 254.42038 256.78165 259.27698
 261.84991 264.55380 267.30240 269.83646 272.15103 274.22592 275.87683 277.38702
 279.01837 280.72366 282.27063 283.63736 284.82080 285.87439 286.83499 287.71317
 288.50821 289.22189 289.84955 290.70218
 366.78100 356.32611 345.74922 334.60633 323.00044 311.18555 299.04666 286.84077
 274.54388 262.43199 250.43210 239.72421 229.83732 220.93243 213.10554 206.09865
 199.92376 194.85287 191.42598 189.45909 188.48720 188.54231 189.36842 190.66753
 192.38364 194.46975 196.72386 199.07397 201.51008 203.98118 206.06029 207.89340
 209.51051 210.64662 210.86673 211.08584 211.01395 210.71006 210.33417 209.95528
 209.56339 209.26450 209.06361 208.91872 208.83783 209.15994 209.53705 209.91716
 210.70127 211.87038 213.11149 214.88560 216.80471 218.83882 220.92493 222.99904
 225.05015 227.12526 229.21337 231.31048 233.43059 235.59370 237.84081 240.20192
 242.81403 245.05614 247.04925 248.80536 250.21347 251.32758 252.14069 252.44780
 252.47591 252.24102 251.59213 250.53124 249.12835 247.28046 245.18057 243.00468
 240.78679 238.58190 236.39301 234.22312 232.07423 229.93233 227.94944 226.09755
 224.37166 222.83477 221.45588 220.21899 219.09210 218.04321 217.13832 216.27043
 215.50354 214.67465 213.76376 213.11887 212.55998 212.96034 213.90625 214.09999
 213.63913 214.23262 215.49487 217.28464 219.39526 222.37181 227.70912 232.25252
 236.13234 240.40143 244.67870 248.55919 251.65491 254.21201 256.58307 259.08560
 261.70361 264.46124 267.25034 269.81924 272.13940 274.19614 275.83670 277.35153
 278.99219 280.69116 282.23990 283.60492 284.79141 285.84348 286.80801 287.68335
 288.47873 289.19443 289.82483 290.66800
 366.78100 356.32669 345.75038 334.60807 323.00276 311.18845 299.05013 286.84482
 274.54851 262.43720 250.43789 239.73058 229.84427 220.93996 213.11365 206.10734
 199.93302 194.86271 191.43640 189.47009 188.49878 188.55447 189.38116 190.68085
 192.39754 194.48423 196.73892 199.08960 201.52629 203.99798 206.07767 207.91136
 209.52905 210.66574 210.88643 211.10612 211.03481 210.73149 210.35618 209.97787
 209.58656 209.28825 209.08794 208.94363 208.86332 209.18601 209.56370 209.94439
 210.72907 211.89876 213.14045 214.91514 216.83483 218.86952 220.95621 223.03090
 225.08259 227.15828 229.24696 231.34465 233.46534 235.62903 237.87672 240.23841
 242.85110 245.09379 247.08748 248.84417 250.25286 251.36754 252.18123 252.48892
 252.51761 252.28330 251.63499 250.57468 249.17237 247.32506 245.22575 243.05043
 240.83312 238.62881 236.44050 234.27119 232.12288 229.98157 227.99926 226.14795
 224.42264 222.88633 221.50801 220.27170 219.14539 218.09708 217.19277 216.32546
 215.55915 214.73084 213.82053 213.17622 212.61790 213.01694 213.95972 214.19859
 213.75719 214.28871 215.52338 217.28421 219.40324 222.38496 227.67000 232.23439
 236.13841 240.42613 244.67174 248.47467 251.47141 253.99408 256.37976 258.89548
 261.56104 264.37112 267.19644 269.79358 272.11893 274.16132 275.79605 277.32004
 278.96509 280.66138 282.20987 283.57727 284.76297 285.81458 286.78018 287.65793
 288.45663 289.17560 289.80469 290.65329
 366.78100 356.32746 345.75191 334.61037 323.00582 311.19228 299.05473 286.85019
 274.55464 262.44410 250.44555 239.73901 229.85346 220.94992 213.12437 206.11883
 199.94528 194.87574 191.45019 189.48465 188.51410 188.57056 189.39801 190.69847
 192.41592 194.50338 196.75883 199.11029 201.54775 204.02020 206.10066 207.93511
 209.55357 210.69102 210.91248 211.13293 211.06239 210.75984 210.38530 210.00775
 209.61721 209.31966 209.12012 208.97657 208.89703 209.22048 209.59894 209.98039
 210.76585 211.93630 213.17876 214.95421 216.87467 218.91013 220.99758 223.07304
 225.12549 227.20195 229.29140 231.38986 233.51131 235.67577 237.92422 240.28668
 242.90013 245.14359 247.13804 248.89550 250.30495 251.42041 252.23486 252.54332
 252.57277 252.33923 251.69168 250.63214 249.23059 247.38405 245.28550 243.11096
 240.89442 238.69087 236.50333 234.33478 232.18724 230.04669 228.06515 226.21460
 224.49006 222.95451 221.57697 220.34142 219.21588 218.16833 217.26479 216.39824
 215.63270 214.80515 213.89561 213.25206 212.69452 213.08469 214.00650 214.27803
 213.88652 214.35963 215.56213 217.29529 219.41418 222.39436 227.63258 232.21967
 236.14490 240.44463 244.65091 248.37120 251.27504 253.76881 256.17456 258.71088
 261.42487 264.28467 267.14044 269.76001 272.09003 274.11978 275.75180 277.28638
 278.93396 280.63202 282.18051 283.54733 284.73389 285.78641 286.75177 287.62994
 288.42920 289.14417 289.77679 290.61789
 366.78100 356.32846 345.75393 334.61339 323.00985 311.19732 299.06078 286.85724
 274.56271 262.45317 250.45563 239.75010 229.86556 220.96303 213.13849 206.13395
 199.96142 194.89288 191.46834 189.50381 188.53427 188.59173 189.42020 190.72166
 192.44012 194.52859 196.78505 199.13751 201.57598 204.04944 206.13090 207.96637
 209.58583 210.72430 210.94676 211.16822 211.09869 210.79715 210.42361 210.04708
 209.65754 209.36100 209.16247 209.01993 208.94139 209.26586 209.64532 210.02778
 210.81425 211.98571 213.22917 215.00564 216.92710 218.96357 221.05203 223.12849
 225.18196 227.25942 229.34988 231.44935 233.57181 235.73727 237.98674 240.35020
 242.96466 245.20913 247.20459 248.96305 250.37352 251.48998 252.30544 252.61491
 252.64537 252.41283 251.76630 250.70776 249.30723 247.46169 245.36415 243.19062
 240.97508 238.77254 236.58601 234.41847 232.27193 230.13240 228.15186 226.30232
 224.57879 223.04425 221.66771 220.43318 219.30864 218.26210 217.35957 216.49403
 215.72950 214.90296 213.99442 213.35189 212.79535 213.16595 214.04155 214.34399
 214.02380 214.44275 215.61848 217.31824 219.42038 222.40259 227.59996 232.20544
 236.14952 240.45334 244.61288 248.24471 251.06279 253.53500 255.96861 258.53555
 261.30151 264.20557 267.08453 269.72086 272.05466 274.07321 275.70526 277.25220
 278.90085 280.59756 282.14575 283.51193 284.69974 285.75107 286.71545 287.59271
 288.39053 289.10864 289.73605 290.57983
 366.78100 356.32971 345.75642 334.61713 323.01484 311.20355 299.06826 286.86597
 274.57268 262.46439 250.46810 239.76381 229.88052 220.97923 213.15594 206.15265
 199.98136 194.91407 191.49078 189.52749 188.55920 188.61791 189.44762 190.75033
 192.47004 194.55975 196.81746 199.17117 201.61088 204.08559 206.16830 208.00501
 209.62572 210.76543 210.98914 211.21185 211.14356 210.84327 210.47098 210.09569
 209.70740 209.41211 209.21482 209.07353 208.99624 209.32195 209.70266 210.08637
 210.87408 212.04679 213.29150 215.06921 216.99192 219.02963 221.11934 223.19705
 225.25176 227.33047 229.42218 231.52289 233.64660 235.81331 238.06402 240.42873
 243.04444 245.29015 247.28686 249.04657 250.45828 251.57599 252.39270 252.70341
 252.73512 252.50383 251.85854 250.80125 249.40196 247.55767 245.46138 243.28909
 241.07480 238.87351 236.68822 234.52193 232.37664 230.23835 228.25906 226.41077
 224.68848 223.15519 221.77990 220.54661 219.42332 218.37803 217.47674 216.61245
 215.84916 215.02387 214.11658 213.47529 212.92000 213.26096 214.06648 214.40025
 214.16533 214.53697 215.68970 217.35568 219.43724 222.40625 227.56767 232.19061
 236.15274 240.45274 244.55545 248.09178 250.83145 253.29085 255.76187 258.37097
 261.19135 264.13550 267.03128 269.67804 272.01398 274.02426 275.65955 277.21973
 278.86890 280.55447 282.10202 283.46906 284.65527 285.70724 286.67224 287.54926
 288.34744 289.06253 289.69455 290.53204
 366.78100 356.33133 345.75966 334.62200 323.02133 311.21166 299.07799 286.87732
 274.58565 262.47899 250.48432 239.78165 229.89998 221.00031 213.17864 206.17698
 200.00731 194.94164 191.51997 189.55830 188.59163 188.65197 189.48330 190.78763
 192.50896 194.60029 196.85962 199.21496 201.65629 204.13262 206.21695 208.05528
 209.67761 210.81895 211.04428 211.26861 211.20194 210.90327 210.53260 210.15894
 209.77227 209.47860 209.28293 209.14326 209.06759 209.39493 209.77726 210.16259
 210.95192 212.12625 213.37258 215.15192 217.07625 219.11558 221.20691 223.28624
 225.34257 227.42291 229.51624 231.61857 233.74390 235.91223 238.16456 240.53090
 243.14823 245.39556 247.39389 249.15522 250.56855 251.68789 252.50622 252.81855
 252.85188 252.62221 251.97854 250.92288 249.52521 247.68254 245.58787 243.41720
 241.20453 239.00487 236.82120 234.65653 232.51286 230.37619 228.39852 226.55186
 224.83119 223.29952 221.92585 220.69418 219.57252 218.52885 217.62918 216.76651
 216.00484 215.18117 214.27551 213.63584 213.08217 213.37579 214.06955 214.46027
 214.30577 214.63565 215.78101 217.40698 219.44838 222.40982 227.54207 232.17880
 236.15546 240.44334 244.47777 247.91293 250.58093 253.03699 255.55417 258.21594
 261.09323 264.07407 266.98053 269.63324 271.97150 273.97739 275.62021 277.19080
 278.83606 280.50513 282.05063 283.41843 284.60532 285.65637 286.62009 287.49866
 288.29581 289.01382 289.64084 290.47983
 366.78100 356.33310 345.76320 334.62730 323.02840 311.22050 299.08860 286.88970
 274.59980 262.49490 250.50200 239.80111 229.92121 221.02331 213.20341 206.20351
 200.03561 194.97171 191.55181 189.59191 188.62701 188.68911 189.52221 190.82831
 192.55141 194.64451 196.90561 199.26271 201.70581 204.18391 206.27001 208.11012
 209.73422 210.87732 211.10442 211.33052 211.26562 210.96872 210.59982 210.22792
 209.84302 209.55112 209.35722 209.21932 209.14542 209.47452 209.85862 210.24572
 211.03682 212.21292 213.46102 215.24212 217.16823 219.20933 221.30243 223.38353
 225.44163 227.52373 229.61883 231.72293 233.85003 236.02013 238.27423 240.64233
 243.26143 245.51053 247.51063 249.27373 250.68883 251.80993 252.63003 252.94413
 252.97923 252.75134 252.10944 251.05554 249.65964 247.81874 245.72584 243.55694
 241.34604 239.14814 236.96624 234.80334 232.66144 230.52654 228.55064 226.70574
 224.98684 223.45694 222.08504 220.85514 219.73524 218.69335 217.79545 216.93455
 216.17465 215.35275 214.44885 213.81095 213.25905 213.49863 214.06464 214.50374
 214.47437 214.74197 215.85490 217.46266 219.48579 222.40933 227.51460 232.16798
 236.15689 240.42552 244.38258 247.71181 250.31615 252.77823 255.34831 258.07141
 261.00635 264.02036 266.93121 269.58752 271.92944 273.93637 275.58978 277.16519
 278.80093 280.44894 281.99344 283.36078 284.54562 285.59787 286.56223 287.44052
 288.23767 288.95343 289.58469 290.41629
 366.78100 356.33541 345.76783 334.63424 323.03766 311.23207 299.10249 286.90590
 274.61831 262.51573 250.52514 239.82656 229.94897 221.05339 213.23580 206.23821
 200.07263 195.01104 191.59346 189.63587 188.67329 188.73770 189.57312 190.88153
 192.60694 194.70236 196.96577 199.32519 201.77060 204.25102 206.33943 208.18184
 209.80826 210.95367 211.18309 211.41150 211.34892 211.05433 210.68774 210.31816
 209.93557 209.64599 209.45440 209.31882 209.24723 209.57864 209.96506 210.35447
 211.14789 212.32630 213.57672 215.36013 217.28855 219.33196 221.42737 223.51079
 225.57120 227.65562 229.75303 231.85945 233.98886 236.16127 238.41769 240.78810
 243.40952 245.66093 247.66335 249.42876 250.84617 251.96959 252.79200 253.10842
 253.14583 252.92025 252.28066 251.22907 249.83549 247.99690 245.90632 243.73973
 241.53115 239.33556 237.15597 234.99539 232.85580 230.72322 228.74963 226.90705
 225.19046 223.66288 222.29329 221.06570 219.94812 218.90853 218.01295 217.15436
 216.39678 215.57719 214.67560 214.04002 213.49043 213.64902 214.02365 214.56952
 214.63535 214.85423 215.95461 217.52522 219.48134 222.41040 227.49138 232.16035
 236.15878 240.40079 244.27235 247.49203 250.04167 252.51762 255.14609 257.93564
 260.92941 263.97198 266.88248 269.53891 271.88782 273.90250 275.56824 277.14282
 278.76065 280.38605 281.92761 283.29550 284.48138 285.53381 286.49518 287.37561
 288.17230 288.88708 289.51724 290.35175
 366.78100 356.33781 345.77262 334.64144 323.04725 311.24406 299.11687 286.92269
 274.63750 262.53731 250.54912 239.85294 229.97775 221.08456 213.26937 206.27419
 200.11100 195.05181 191.63662 189.68144 188.72125 188.78806 189.62587 190.93669
 192.66450 194.76231 197.02812 199.38993 201.83775 204.32056 206.41137 208.25618
 209.88500 211.03281 211.26462 211.49543 211.43525 211.14306 210.77887 210.41168
 210.03150 209.74431 209.55512 209.42193 209.35275 209.68656 210.07537 210.46718
 211.26300 212.44381 213.69662 215.48243 217.41324 219.45906 221.55687 223.64268
 225.70549 227.79231 229.89212 232.00093 234.13274 236.30756 238.56637 240.93918
 243.56299 245.81681 247.82162 249.58943 251.00924 252.13506 252.95987 253.27868
 253.31849 253.09531 252.45812 251.40893 250.01774 248.18155 246.09337 243.92918
 241.72299 239.52980 237.35262 235.19443 233.05724 230.92705 228.95587 227.11568
 225.40149 223.87630 222.50912 221.28393 220.16874 219.13155 218.23837 217.38218
 216.62699 215.80980 214.91062 214.27743 213.73024 213.80515 213.98210 214.60268
 214.85040 214.95839 216.03665 217.58330 219.49809 222.40276 227.47966 232.16241
 236.15924 240.36696 244.14558 247.25423 249.75688 252.25359 254.94492 257.80698
 260.86035 263.92844 266.83420 269.48776 271.84586 273.87595 275.55875 277.13251
 278.72476 280.31662 281.85532 283.22266 284.40790 285.45947 286.42282 287.30252
 288.09863 288.81647 289.44199 290.27652
 366.78100 356.33943 345.77586 334.64629 323.05372 311.25215 299.12658 286.93401
 274.65044 262.55187 250.56530 239.87073 229.99716 221.10559 213.29202 206.29845
 200.13687 195.07930 191.66573 189.71216 188.75359 188.82202 189.66145 190.97388
 192.70331 194.80274 197.07017 199.43360 201.88303 204.36746 206.45989 208.30632
 209.93675 211.08618 211.31961 211.55204 211.49347 211.20290 210.84033 210.47476
 210.09619 209.81062 209.62305 209.49148 209.42391 209.75934 210.14977 210.54319
 211.34062 212.52305 213.77748 215.56491 217.49734 219.54477 221.64420 223.73163
 225.79606 227.88449 229.98592 232.09635 234.22978 236.40621 238.66664 241.04107
 243.66650 245.92193 247.92836 249.69779 251.11922 252.24665 253.07308 253.39351
 253.43494 253.21337 252.57780 251.53023 250.14066 248.30609 246.21951 244.05694
 241.85237 239.66080 237.48523 235.32866 233.19309 231.06452 229.09495 227.25638
 225.54381 224.02024 222.65467 221.43110 220.31753 219.28196 218.39039 217.53582
 216.78225 215.96668 215.06911 214.43754 213.89197 213.92415 214.00015 214.58025
 215.01007 215.11108 216.10789 217.68623 219.55569 222.42348 227.45712 232.15475
 236.15517 240.32146 244.00046 246.99779 249.46185 251.98691 254.74623 257.68704
 260.80096 263.89090 266.78989 269.43964 271.80585 273.85394 275.55902 277.13519
 278.69754 280.24442 281.77780 283.14508 284.32993 285.38211 286.34491 287.22333
 288.02313 288.73892 289.36929 290.20273
 366.78100 356.34125 345.77951 334.65176 323.06102 311.26127 299.13752 286.94678
 274.66503 262.56829 250.58354 239.89079 230.01905 221.12930 213.31756 206.32581
 200.16606 195.11032 191.69857 189.74683 188.79008 188.86033 189.70159 191.01584
 192.74710 194.84835 197.11760 199.48286 201.93411 204.42037 206.51462 208.36287
 209.99513 211.14638 211.38164 211.61589 211.55914 211.27040 210.90965 210.54591
 210.16916 209.88541 209.69967 209.56992 209.50418 209.84143 210.23368 210.62894
 211.42819 212.61245 213.86870 215.65795 217.59221 219.64146 221.74272 223.83197
 225.89823 227.98848 230.09173 232.20399 234.33924 236.51750 238.77975 241.15600
 243.78326 246.04051 248.04877 249.82002 251.24327 252.37253 253.20078 253.52304
 253.56629 253.34654 252.71280 251.66705 250.27931 248.44656 246.36181 244.20107
 241.99832 239.80858 237.63483 235.48008 233.34634 231.21959 229.25185 227.41510
 225.70435 224.18261 222.81886 221.59712 220.48537 219.45162 218.56188 217.70913
 216.95739 216.14364 215.24789 214.61815 214.07440 214.05309 214.00272 214.58423
 215.15424 215.25403 216.14644 217.75340 219.61336 222.46837 227.44981 232.15892
 236.15523 240.27261 243.84749 246.73506 249.16878 251.72679 254.55566 257.57785
 260.75168 263.86041 266.74817 269.39221 271.76562 273.83304 275.56180 277.14389
 278.67365 280.17413 281.70197 283.06940 284.25497 285.30643 286.27081 287.14960
 287.94809 288.66653 289.29688 290.12982
 366.78100 356.34297 345.78294 334.65690 323.06787 311.26984 299.14781 286.95878
 274.67874 262.58371 250.60068 239.90965 230.03961 221.15158 213.34155 206.35152
 200.19349 195.13945 191.72942 189.77939 188.82436 188.89633 189.73929 191.05526
 192.78823 194.89120 197.16217 199.52913 201.98210 204.47007 206.56604 208.41600
 210.04997 211.20294 211.43991 211.67588 211.62084 211.33381 210.97478 210.61275
 210.23772 209.95568 209.77165 209.64362 209.57959 209.91855 210.31252 210.70949
 211.51046 212.69643 213.95439 215.74536 217.68133 219.73230 221.83527 223.92623
 225.99420 228.08617 230.19114 232.30511 234.44207 236.62204 238.88601 241.26398
 243.89294 246.15191 248.16188 249.93485 251.35982 252.49078 253.32075 253.64472
 253.68969 253.47166 252.83962 251.79559 250.40956 248.57853 246.49550 244.33646
 242.13543 239.94740 237.77537 235.62233 233.49030 231.36527 229.39924 227.56421
 225.85517 224.33514 222.97311 221.75308 220.64305 219.61101 218.72298 217.87195
 217.12192 216.30988 215.41585 214.78782 214.24579 214.17522 214.00847 214.58914
 215.30347 215.37296 216.17976 217.81227 219.66692 222.53294 227.45720 232.17279
 236.15489 240.21614 243.68686 246.47072 248.88249 251.47504 254.37202 257.47522
 260.70578 263.82916 266.70398 269.33997 271.72171 273.81070 275.56702 277.16006
 278.66003 280.10617 281.62848 282.99600 284.18085 285.23218 286.19678 287.07642
 287.87558 288.59427 289.22485 290.05786
 366.78100 356.34432 345.78564 334.66096 323.07328 311.27660 299.15593 286.96825
 274.68957 262.59589 250.61421 239.92453 230.05585 221.16917 213.36049 206.37181
 200.21513 195.16246 191.75378 189.80510 188.85142 188.92474 189.76906 191.08638
 192.82070 194.92502 197.19734 199.56566 202.01998 204.50931 206.60663 208.45795
 210.09327 211.24759 211.48591 211.72323 211.66955 211.38387 211.02619 210.66551
 210.29184 210.01116 209.82848 209.70180 209.63912 209.97944 210.37476 210.77308
 211.57540 212.76272 214.02204 215.81437 217.75169 219.80401 221.90833 224.00065
 226.06997 228.16329 230.26961 232.38493 234.52325 236.70457 238.96989 241.34922
 243.97954 246.23986 248.25118 250.02550 251.45182 252.58414 253.41546 253.74078
 253.78710 253.57042 252.93975 251.89707 250.51239 248.68271 246.60103 244.44335
 242.24367 240.05699 237.88631 235.73463 233.60395 231.48028 229.51560 227.68192
 225.97424 224.45556 223.09488 221.87620 220.76752 219.73684 218.85016 218.00048
 217.25180 216.44113 215.54845 214.92177 214.38109 214.27803 214.03452 214.58559
 215.44046 215.47585 216.22841 217.88470 219.71458 222.60019 227.46968 232.18700
 236.15057 240.15384 243.52408 246.21030 248.60568 251.23079 254.19281 257.37521
 260.65958 263.79379 266.65460 269.28430 271.67651 273.79074 275.57614 277.18439
 278.66083 280.04904 281.55771 282.92218 284.10693 285.15762 286.12048 286.99728
 287.79306 288.50720 289.13629 289.96643
 366.78100 356.34548 345.78795 334.66443 323.07791 311.28238 299.16286 286.97634
 274.69881 262.60629 250.62577 239.93724 230.06972 221.18420 213.37667 206.38915
 200.23363 195.18210 191.77458 189.82706 188.87453 188.94901 189.79449 191.11296
 192.84844 194.95392 197.22740 199.59687 202.05235 204.54283 206.64130 208.49378
 210.13026 211.28573 211.52521 211.76369 211.71116 211.42664 211.07012 210.71059
 210.33807 210.05855 209.87702 209.75150 209.68998 210.03145 210.42793 210.82741
 211.63088 212.81936 214.07984 215.87331 217.81179 219.86527 221.97074 224.06422
 226.13470 228.22917 230.33665 232.45313 234.59260 236.77508 239.04156 241.42203
 244.05351 246.31499 248.32746 250.10294 251.53042 252.66389 253.49637 253.82285
 253.87032 253.65480 253.02528 251.98376 250.60023 248.77171 246.69119 244.53466
 242.33614 240.15062 237.98109 235.83057 233.70105 231.57852 229.61500 227.78248
 226.07595 224.55843 223.19891 221.98138 220.87386 219.84434 218.95881 218.11029
 217.36277 216.55324 215.66172 215.03620 214.49667 214.36951 214.06905 214.58755
 215.55057 215.58482 216.28975 217.95299 219.75114 222.66042 227.48830 232.20320
 236.14470 240.09166 243.36356 245.95323 248.33394 250.98988 254.01501 257.27774
 260.61151 263.75504 266.60370 269.22906 271.63400 273.77307 275.58630 277.20773
 278.66641 280.02213 281.49265 282.85464 284.03915 285.08948 286.05234 286.92978
 287.72485 288.43991 289.06699 289.89883
 366.78100 356.34657 345.79013 334.66770 323.08226 311.28783 299.16939 286.98396
 274.70752 262.61609 250.63665 239.94922 230.08278 221.19835 213.39191 206.40548
 200.25104 195.20061 191.79417 189.84774 188.89630 188.97187 189.81843 191.13800
 192.87456 194.98113 197.25569 199.62626 202.08282 204.57439 206.67395 208.52752
 210.16508 211.32165 211.56221 211.80178 211.75035 211.46691 211.11148 210.75304
 210.38161 210.10317 209.92274 209.79830 209.73787 210.08043 210.47800 210.87856
 211.68313 212.87269 214.13426 215.92882 217.86839 219.92295 222.02952 224.12408
 226.19565 228.29121 230.39978 232.51734 234.65791 236.84147 239.10904 241.49060
 244.12317 246.38573 248.39930 250.17586 251.60443 252.73900 253.57256 253.90013
 253.94869 253.73426 253.10582 252.06539 250.68295 248.85552 246.77608 244.62065
 242.42321 240.23878 238.07034 235.92091 233.79247 231.67104 229.70860 227.87717
 226.17173 224.65530 223.29686 222.08043 220.97399 219.94556 219.06112 218.21369
 217.46725 216.65882 215.76838 215.14395 214.60551 214.45610 214.10309 214.60440
 215.63806 215.70647 216.35081 217.99678 219.77676 222.71527 227.51959 232.22556
 236.14191 240.02954 243.20195 245.69633 248.06596 250.75464 253.84338 257.18478
 260.56488 263.71594 266.55273 269.17465 271.59335 273.75632 275.59576 277.22974
 278.67252 280.01682 281.43689 282.79507 283.98010 285.03195 285.99380 286.87311
 287.66864 288.38293 289.01398 289.84204
 366.78100 356.34751 345.79202 334.67053 323.08604 311.29255 299.17506 286.99057
 274.71508 262.62460 250.64611 239.95962 230.09413 221.21064 213.40515 206.41966
 200.26617 195.21668 191.81119 189.86570 188.91521 188.99172 189.83923 191.15974
 192.89725 195.00476 197.28028 199.65179 202.10930 204.60181 206.70232 208.55683
 210.19534 211.35285 211.59436 211.83487 211.78438 211.50189 211.14740 210.78991
 210.41942 210.14193 209.96244 209.83895 209.77947 210.12298 210.52149 210.92300
 211.72851 212.91902 214.18153 215.97704 217.91755 219.97306 222.08057 224.17608
 226.24859 228.34510 230.45461 232.57312 234.71463 236.89915 239.16766 241.55017
 244.18368 246.44719 248.46170 250.23921 251.66872 252.80423 253.63874 253.96725
 254.01676 253.80327 253.17578 252.13629 250.75480 248.92831 246.84983 244.69534
 242.49885 240.31536 238.14787 235.99938 233.87189 231.75140 229.78991 227.95942
 226.25493 224.73944 223.38195 222.16646 221.06097 220.03348 219.14999 218.30351
 217.55802 216.75053 215.86104 215.23755 214.70006 214.53336 214.13948 214.63329
 215.71317 215.82379 216.40567 218.02335 219.80107 222.76872 227.55991 232.25046
 236.14076 239.96277 243.03560 245.44218 247.80701 250.53175 253.68282 257.09692
 260.51703 263.67181 266.49814 269.11957 271.55264 273.74185 275.61002 277.25977
 278.69214 280.02481 281.38611 282.73914 283.92426 284.97617 285.93787 286.81714
 287.60928 288.32327 288.95395 289.78287
 366.78100 356.34826 345.79352 334.67277 323.08903 311.29629 299.17955 286.99580
 274.72106 262.63132 250.65358 239.96783 230.10309 221.22035 213.41561 206.43086
 200.27812 195.22938 191.82464 189.87990 188.93015 189.00741 189.85567 191.17693
 192.91518 195.02344 197.29970 199.67196 202.13021 204.62347 206.72473 208.57999
 210.21924 211.37750 211.61976 211.86102 211.81128 211.52953 211.17579 210.81905
 210.44931 210.17256 209.99382 209.87108 209.81234 210.15659 210.55585 210.95811
 211.76437 212.95562 214.21888 216.01514 217.95640 220.01266 222.12091 224.21717
 226.29043 228.38769 230.49794 232.61720 234.75946 236.94472 239.21397 241.59723
 244.23149 246.49575 248.51100 250.28926 251.71952 252.85578 253.69104 254.02029
 254.07055 253.85781 253.23107 252.19232 250.81158 248.98584 246.90810 244.75435
 242.55861 240.37587 238.20913 236.06138 233.93464 231.81490 229.85416 228.02442
 226.32067 224.80593 223.44919 222.23445 221.12970 220.10296 219.22022 218.37448
 217.62973 216.82299 215.93425 215.31151 214.77477 214.59850 214.18202 214.67017
 215.77791 215.92035 216.46521 218.05727 219.83583 222.82372 227.60347 232.27370
 236.13631 239.88394 242.86000 245.19000 247.55716 250.32024 253.53049 257.01068
 260.46338 263.61838 266.43771 269.06262 271.51343 273.72690 275.62216 277.28671
 278.70877 280.02695 281.35669 282.70782 283.89447 284.94833 285.91193 286.79163
 287.59323 288.31039 288.94461 289.77087
 366.78100 356.34876 345.79453 334.67429 323.09106 311.29882 299.18259 286.99935
 274.72512 262.63588 250.65865 239.97341 230.10917 221.22694 213.42270 206.43847
 200.28623 195.23800 191.83376 189.88953 188.94029 189.01806 189.86682 191.18858
 192.92735 195.03611 197.31288 199.68564 202.14441 204.63817 206.73994 208.59570
 210.23547 211.39423 211.63699 211.87876 211.82952 211.54829 211.19505 210.83882
 210.46958 210.19335 210.01511 209.89288 209.83464 210.17940 210.57917 210.98193
 211.78870 212.98046 214.24423 216.04099 217.98276 220.03952 222.14829 224.24505
 226.31881 228.41658 230.52734 232.64711 234.78987 236.97564 239.24540 241.62917
 244.26393 246.52870 248.54446 250.32322 251.75399 252.89075 253.72652 254.05628
 254.10705 253.89481 253.26858 252.23034 250.85011 249.02487 246.94763 244.79440
 242.59916 240.41693 238.25069 236.10346 233.97722 231.85799 229.89775 228.06852
 226.36528 224.85104 223.49481 222.28057 221.17634 220.15010 219.26787 218.42263
 217.67840 216.87216 215.98393 215.36169 214.82545 214.64937 214.23334 214.71178
 215.82771 216.00470 216.54182 218.10953 219.88979 222.87958 227.64424 232.28831
 236.11987 239.78740 242.67046 244.93416 247.31094 250.11586 253.38409 256.92508
 260.40436 263.55930 266.37714 269.01114 271.48004 273.71851 275.63995 277.32019
 278.73334 280.03708 281.33572 282.68457 283.87109 284.92380 285.88840 286.76810
 287.56693 288.28690 288.91895 289.74481
 366.78100 356.34900 345.79500 334.67500 323.09200 311.30001 299.18401 287.00101
 274.72701 262.63801 250.66101 239.97601 230.11201 221.23002 213.42602 206.44202
 200.29002 195.24202 191.83802 189.89402 188.94502 189.02303 189.87203 191.19403
 192.93303 195.04203 197.31903 199.69203 202.15103 204.64504 206.74704 208.60304
 210.24304 211.40204 211.64504 211.88704 211.83804 211.55704 211.20405 210.84805
 210.47905 210.20305 210.02505 209.90305 209.84505 210.19005 210.59006 210.99306
 211.80006 212.99206 214.25606 216.05306 217.99506 220.05206 222.16107 224.25807
 226.33207 228.43007 230.54107 232.66107 234.80407 236.99007 239.26008 241.64408
 244.27908 246.54408 248.56008 250.33908 251.77008 252.90708 253.74308 254.07309
 254.12409 253.91209 253.28609 252.24809 250.86809 249.04309 246.96609 244.81310
 242.61810 240.43610 238.27010 236.12310 233.99710 231.87810 229.91810 228.08911
 226.38611 224.87211 223.51611 222.30211 221.19811 220.17211 219.29011 218.44512
 217.70112 216.89512 216.00712 215.38512 214.84912 214.68440 214.29524 214.75455
 215.86867 216.08810 216.64003 218.17223 219.94943 222.93246 227.68193 232.29430
 236.09081 239.67432 242.46600 244.67160 247.06531 249.91805 253.24541 256.84265
 260.34344 263.50043 266.32031 268.96509 271.45181 273.71475 275.66296 277.35956
 278.76413 280.05255 281.32422 282.67007 283.85635 284.90869 285.87280 286.75436
 287.55273 288.27231 288.90350 289.72867
 366.78100 356.34899 345.79497 334.67496 323.09194 311.29993 299.18391 287.00090
 274.72689 262.63787 250.66086 239.97584 230.11183 221.22981 213.42580 206.44178
 200.28977 195.24176 191.83774 189.89373 188.94471 189.02270 189.87168 191.19367
 192.93266 195.04164 197.31863 199.69161 202.15060 204.64458 206.74657 208.60256
 210.24254 211.40153 211.64451 211.88650 211.83748 211.55647 211.20345 210.84744
 210.47843 210.20241 210.02440 209.90238 209.84437 210.18935 210.58934 210.99233
 211.79931 212.99130 214.25528 216.05227 217.99425 220.05124 222.16022 224.25721
 226.33120 228.42918 230.54017 232.66015 234.80314 236.98912 239.25911 241.64310
 244.27808 246.54307 248.55905 250.33804 251.76902 252.90601 253.74200 254.07198
 254.12297 253.91095 253.28494 252.24692 250.86691 249.04189 246.96488 244.81187
 242.61685 240.43484 238.26882 236.12181 233.99579 231.87678 229.91677 228.08775
 226.38474 224.87072 223.51471 222.30069 221.19668 220.17067 219.28865 218.44364
 217.69962 216.89361 216.00559 215.38358 214.84756 214.70447 214.36638 214.79602
 215.90944 216.18343 216.73625 218.23141 220.02191 222.98477 227.71437 232.29050
 236.04628 239.54318 242.24541 244.40492 246.82735 249.73392 253.12088 256.76694
 260.28445 263.44119 266.26456 268.91919 271.42401 273.71252 275.68896 277.40356
 278.80103 280.07520 281.32172 282.66434 283.85211 284.90445 285.86810 286.74713
 287.54657 288.26385 288.89835 289.71970
 366.78100 356.34881 345.79461 334.67442 323.09122 311.29903 299.18284 286.99964
 274.72545 262.63625 250.65906 239.97386 230.10967 221.22748 213.42328 206.43909
 200.28689 195.23870 191.83451 189.89031 188.94112 189.01892 189.86773 191.18954
 192.92834 195.03715 197.31395 199.68676 202.14557 204.63937 206.74118 208.59698
 210.23679 211.39559 211.63840 211.88021 211.83101 211.54982 211.19662 210.84043
 210.47124 210.19504 210.01685 209.89465 209.83646 210.18127 210.58107 210.98388
 211.79068 212.98249 214.24629 216.04310 217.98491 220.04171 222.15052 224.24732
 226.32113 228.41894 230.52974 232.64955 234.79235 236.97816 239.24797 241.63177
 244.26658 246.53138 248.54719 250.32600 251.75680 252.89361 253.72941 254.05922
 254.11002 253.89783 253.27164 252.23344 250.85325 249.02805 246.95086 244.79767
 242.60247 240.42028 238.25408 236.10689 233.98070 231.86150 229.90131 228.07211
 226.36892 224.85472 223.49853 222.28434 221.18014 220.15395 219.27175 218.42656
 217.68237 216.87617 215.98798 215.36578 214.82959 214.71355 214.43936 214.84613
 215.93787 216.28592 216.86240 218.28992 220.07242 223.02348 227.74124 232.28064
 235.99107 239.40285 242.02104 244.14656 246.60725 249.56960 253.01065 256.69693
 260.22330 263.37561 266.20154 268.86801 271.39319 273.70941 275.71805 277.45255
 278.84592 280.10553 281.32690 282.66672 283.85446 284.90533 285.86911 286.74695
 287.54538 288.26385 288.89389 289.71652
 366.78100 356.34845 345.79391 334.67336 323.08982 311.29727 299.18073 286.99718
 274.72264 262.63309 250.65555 239.97000 230.10546 221.22291 213.41837 206.43382
 200.28128 195.23273 191.82819 189.88364 188.93410 189.01155 189.86001 191.18146
 192.91992 195.02837 197.30483 199.67728 202.13574 204.62919 206.73065 208.58610
 210.22556 211.38401 211.62647 211.86792 211.81838 211.53683 211.18329 210.82674
 210.45720 210.18065 210.00211 209.87956 209.82102 210.16547 210.56493 210.96738
 211.77384 212.96529 214.22875 216.02520 217.96666 220.02311 222.13157 224.22802
 226.30148 228.39893 230.50939 232.62884 234.77130 236.95675 239.22621 241.60966
 244.24412 246.50857 248.52403 250.30248 251.73294 252.86939 253.70485 254.03430
 254.08476 253.87221 253.24567 252.20712 250.82658 249.00103 246.92349 244.76994
 242.57440 240.39185 238.22531 236.07776 233.95122 231.83167 229.87113 228.04158
 226.33804 224.82349 223.46695 222.25240 221.14786 220.12131 219.23876 218.39322
 217.64867 216.84213 215.95358 215.33104 214.79449 214.71167 214.51599 214.88675
 215.98770 216.39371 216.95554 218.34818 220.14604 223.07262 227.76990 232.26927
 235.92990 239.25267 241.78687 243.88750 246.39445 249.41499 252.90710 256.62650
 260.15424 263.30005 266.13281 268.81604 271.36597 273.71124 275.75201 277.50854
 278.89957 280.14209 281.33911 282.67554 283.86179 284.91391 285.87769 286.75406
 287.55112 288.26846 288.89795 289.71368
 366.78100 356.34796 345.79292 334.67188 323.08784 311.29480 299.17777 286.99373
 274.71869 262.62865 250.65061 239.96457 230.09953 221.21649 213.41145 206.42641
 200.27337 195.22433 191.81930 189.87426 188.92422 189.00118 189.84914 191.17010
 192.90806 195.01602 197.29198 199.66394 202.12190 204.61487 206.71583 208.57079
 210.20975 211.36771 211.60967 211.85063 211.80059 211.51855 211.16451 210.80747
 210.43743 210.16040 209.98136 209.85832 209.79928 210.14324 210.54220 210.94416
 211.75012 212.94108 214.20404 216.00000 217.94097 219.99693 222.10489 224.20085
 226.27381 228.37077 230.48073 232.59969 234.74165 236.92661 239.19557 241.57853
 244.21250 246.47646 248.49142 250.26938 251.69934 252.83530 253.67026 253.99922
 254.04918 253.83614 253.20910 252.17007 250.78903 248.96299 246.88495 244.73091
 242.53487 240.35183 238.18479 236.03675 233.90971 231.78967 229.82863 227.99860
 226.29456 224.77952 223.42248 222.20744 221.10240 220.07536 219.19232 218.34628
 217.60124 216.79420 215.90516 215.28213 214.74509 214.70032 214.59453 214.93648
 215.98232 216.53403 217.13354 218.40750 220.18907 223.11497 227.79195 232.25072
 235.85562 239.08243 241.53485 243.62228 246.18553 249.26917 252.81049 256.55832
 260.08420 263.22595 266.07022 268.77191 271.34439 273.71741 275.78714 277.56226
 278.94839 280.17661 281.35416 282.68878 283.87421 284.92639 285.88925 286.76422
 287.56113 288.27661 288.90625 289.72470
 366.78100 356.34770 345.79240 334.67110 323.08681 311.29351 299.17621 286.99191
 274.71661 262.62631 250.64802 239.96172 230.09642 221.21312 213.40782 206.42252
 200.26923 195.21993 191.81463 189.86933 188.91903 188.99573 189.84344 191.16414
 192.90184 195.00954 197.28524 199.65694 202.11465 204.60735 206.70805 208.56275
 210.20145 211.35915 211.60086 211.84156 211.79126 211.50896 211.15466 210.79736
 210.42706 210.14977 209.97047 209.84717 209.78787 210.13157 210.53027 210.93198
 211.73768 212.92838 214.19108 215.98678 217.92748 219.98319 222.09089 224.18659
 226.25929 228.35599 230.46569 232.58440 234.72610 236.91080 239.17950 241.56220
 244.19590 246.45961 248.47431 250.25201 251.68171 252.81741 253.65211 253.98082
 254.03052 253.81722 253.18992 252.15062 250.76932 248.94302 246.86473 244.71043
 242.51413 240.33083 238.16353 236.01523 233.88794 231.76764 229.80634 227.97604
 226.27174 224.75644 223.39915 222.18385 221.07855 220.05125 219.16795 218.32165
 217.57636 216.76906 215.87976 215.25646 214.71916 214.69804 214.64813 215.03084
 215.93384 216.62108 217.32123 218.53827 220.24379 223.13983 227.81087 232.23300
 235.77455 238.90221 241.27895 243.36600 245.99184 249.13988 252.72665 256.49686
 260.01834 263.15930 266.01639 268.73279 271.32346 273.72110 275.81693 277.60773
 278.98895 280.20749 281.37021 282.70258 283.88864 284.94058 285.90250 286.77682
 287.57266 288.28766 288.91550 289.72742
 366.78100 356.34766 345.79232 334.67097 323.08663 311.29329 299.17595 286.99160
 274.71626 262.62592 250.64758 239.96123 230.09589 221.21255 213.40721 206.42186
 200.26852 195.21918 191.81384 189.86849 188.91815 188.99481 189.84247 191.16312
 192.90078 195.00844 197.28410 199.65575 202.11341 204.60607 206.70673 208.56138
 210.20004 211.35770 211.59936 211.84001 211.78967 211.50733 211.15299 210.79564
 210.42530 210.14796 209.96862 209.84527 209.78593 210.12959 210.52825 210.92990
 211.73556 212.92622 214.18888 215.98453 217.92519 219.98085 222.08851 224.18416
 226.25682 228.35348 230.46314 232.58179 234.72345 236.90811 239.17677 241.55942
 244.19308 246.45674 248.47140 250.24905 251.67871 252.81437 253.64903 253.97768
 254.02734 253.81400 253.18666 252.14731 250.76597 248.93963 246.86129 244.70694
 242.51060 240.32726 238.15992 236.01157 233.88423 231.76389 229.80255 227.97220
 226.26786 224.75252 223.39518 222.17983 221.07449 220.04715 219.16381 218.31746
 217.57212 216.76478 215.87544 215.25209 214.71475 214.70451 214.68033 215.14600
 215.89778 216.69138 217.48943 218.66679 220.29912 223.16870 227.83235 232.21681
 235.68620 238.71141 241.02046 243.11865 245.81204 249.02406 252.65256 256.44000
 259.95554 263.09494 265.96262 268.69037 271.29993 273.72009 275.84140 277.64838
 279.02582 280.23447 281.38745 282.71762 283.90506 284.95596 285.91605 286.79099
 287.58530 288.29990 288.92810 289.73749
 366.78100 356.34747 345.79193 334.67040 323.08586 311.29233 299.17479 286.99026
 274.71472 262.62419 250.64565 239.95912 230.09358 221.21005 213.40451 206.41898
 200.26544 195.21591 191.81037 189.86484 188.91431 188.99077 189.83824 191.15870
 192.89617 195.00363 197.27910 199.65056 202.10803 204.60049 206.70096 208.55542
 210.19389 211.35135 211.59282 211.83328 211.78275 211.50021 211.14568 210.78815
 210.41761 210.14008 209.96054 209.83701 209.77747 210.12094 210.51940 210.92087
 211.72633 212.91680 214.17926 215.97473 217.91519 219.97066 222.07812 224.17359
 226.24605 228.34252 230.45199 232.57045 234.71192 236.89638 239.16485 241.54731
 244.18078 246.44424 248.45871 250.23617 251.66564 252.80110 253.63557 253.96403
 254.01350 253.79996 253.17243 252.13289 250.75136 248.92483 246.84629 244.69176
 242.49522 240.31169 238.14415 235.99562 233.86808 231.74755 229.78601 227.95548
 226.25094 224.73541 223.37787 222.16234 221.05680 220.02927 219.14573 218.29920
 217.55367 216.74613 215.85660 215.23306 214.69553 214.70250 214.71895 215.24324
 215.89433 216.76387 217.65079 218.78154 220.35724 223.20709 227.85341 232.19542
 235.58458 238.50917 240.76134 242.88057 245.64417 248.91916 252.58464 256.38391
 259.89011 263.02551 265.89957 268.64087 271.26901 273.71399 275.86072 277.68491
 279.06223 280.26419 281.40472 282.73495 283.92004 284.97165 285.93036 286.80484
 287.59818 288.31039 288.93787 289.74710
 366.78100 356.34694 345.79088 334.66882 323.08376 311.28970 299.17164 286.98658
 274.71052 262.61946 250.64041 239.95335 230.08729 221.20323 213.39717 206.41111
 200.25705 195.20699 191.80093 189.85487 188.90381 188.97975 189.82669 191.14663
 192.88357 194.99051 197.26545 199.63639 202.09333 204.58527 206.68522 208.53916
 210.17710 211.33404 211.57498 211.81492 211.76386 211.48080 211.12574 210.76768
 210.39662 210.11856 209.93850 209.81444 209.75438 210.09732 210.49526 210.89620
 211.70114 212.89109 214.15303 215.94797 217.88791 219.94285 222.04979 224.14473
 226.21667 228.31261 230.42155 232.53949 234.68043 236.86437 239.13231 241.51425
 244.14719 246.41013 248.42407 250.20101 251.62995 252.76490 253.59884 253.92678
 253.97572 253.76166 253.13360 252.09354 250.71148 248.88442 246.80536 244.65030
 242.45324 240.26918 238.10112 235.95206 233.82400 231.70294 229.74088 227.90982
 226.20477 224.68871 223.33065 222.11459 221.00853 219.98047 219.09641 218.24935
 217.50329 216.69523 215.80517 215.18111 214.64305 214.68257 214.77594 215.32275
 215.91566 216.83278 217.81200 218.89124 220.41653 223.24973 227.87010 232.16562
 235.47725 238.31039 240.51613 242.66084 245.49321 248.82541 252.52263 256.32843
 259.82071 262.94843 265.82825 268.58411 271.23291 273.69928 275.86819 277.70486
 279.07474 280.26801 281.41714 282.74908 283.93582 284.98792 285.94580 286.81876
 287.61142 288.32440 288.94830 289.75345
 366.78100 356.34624 345.78949 334.66673 323.08098 311.28622 299.16746 286.98171
 274.70495 262.61320 250.63344 239.94568 230.07893 221.19417 213.38742 206.40066
 200.24590 195.19515 191.78839 189.84164 188.88988 188.96512 189.81137 191.13061
 192.86685 194.97310 197.24734 199.61759 202.07383 204.56507 206.66432 208.51756
 210.15481 211.31105 211.55129 211.79054 211.73878 211.45503 211.09927 210.74051
 210.36876 210.09000 209.90925 209.78449 209.72373 210.06598 210.46322 210.86347
 211.66771 212.85695 214.11820 215.91244 217.85169 219.90593 222.01217 224.10642
 226.17766 228.27291 230.38115 232.49839 234.63864 236.82188 239.08912 241.47037
 244.10261 246.36486 248.37810 250.15434 251.58259 252.71683 253.55008 253.87732
 253.92556 253.71081 253.08205 252.04130 250.65854 248.83078 246.75103 244.59527
 242.39752 240.21276 238.04400 235.89425 233.76549 231.64374 229.68098 227.84922
 226.14347 224.62671 223.26796 222.05120 220.94444 219.91569 219.03093 218.18318
 217.43642 216.62766 215.73691 215.11215 214.57339 214.65454 214.84624 215.38913
 215.94002 216.88116 217.94380 218.97226 220.43906 223.25967 227.86153 232.13011
 235.37250 238.11850 240.28090 242.44592 245.35201 248.73824 252.46423 256.28201
 259.76575 262.88538 265.76486 268.52954 271.19666 273.68256 275.86935 277.70581
 279.06732 280.24902 281.40964 282.76703 283.95416 285.00562 285.96793 286.84506
 287.64191 288.36221 289.01080 289.85422
 366.78100 356.34557 345.78815 334.66472 323.07830 311.28287 299.16345 286.97702
 274.69960 262.60717 250.62674 239.93832 230.07089 221.18547 213.37804 206.39062
 200.23519 195.18376 191.77634 189.82891 188.87649 188.95106 189.79664 191.11521
 192.85079 194.95636 197.22993 199.59951 202.05508 204.54566 206.64423 208.49681
 210.13338 211.28895 211.52853 211.76710 211.71468 211.43025 211.07383 210.71440
 210.34198 210.06255 209.88112 209.75570 209.69427 210.03585 210.43242 210.83200
 211.63557 212.82415 214.08472 215.87829 217.81687 219.87044 221.97602 224.06959
 226.14017 228.23474 230.34231 232.45889 234.59846 236.78104 239.04761 241.42819
 244.05976 246.32134 248.33391 250.10948 251.53706 252.67063 253.50321 253.82978
 253.87736 253.66193 253.03251 251.99108 250.60765 248.77923 246.69880 244.54238
 242.34395 240.15853 237.98910 235.83867 233.70925 231.58682 229.62340 227.79097
 226.08455 224.56712 223.20770 221.99027 220.88284 219.85342 218.96799 218.11957
 217.37214 216.56272 215.67129 215.04586 214.50644 214.62778 214.91441 215.44286
 215.95715 216.91103 218.03952 219.02890 220.43912 223.24365 227.83978 232.09833
 235.27466 237.94481 240.07166 242.25970 245.23141 248.66943 252.42136 256.24551
 259.72446 262.84589 265.73880 268.51434 271.18307 273.67133 275.87256 277.68796
 279.06763 280.23456 281.46265 282.78760 283.97849 285.03555 286.00378 286.88705
 287.69119 288.43393 289.10489 289.95993
 366.78100 356.34492 345.78684 334.66276 323.07568 311.27960 299.15952 286.97244
 274.69436 262.60128 250.62020 239.93112 230.06304 221.17696 213.36888 206.38080
 200.22472 195.17264 191.76456 189.81648 188.86340 188.93733 189.78225 191.10017
 192.83509 194.94001 197.21293 199.58185 202.03677 204.52669 206.62461 208.47653
 210.11245 211.26737 211.50629 211.74421 211.69113 211.40605 211.04897 210.68889
 210.31581 210.03573 209.85365 209.72757 209.66549 210.00641 210.40233 210.80125
 211.60417 212.79209 214.05201 215.84493 217.78285 219.83577 221.94069 224.03361
 226.10353 228.19745 230.30437 232.42029 234.55921 236.74114 239.00706 241.38698
 244.01790 246.27882 248.29074 250.06566 251.49258 252.62550 253.45742 253.78334
 253.83026 253.61418 252.98410 251.94202 250.55794 248.72886 246.64778 244.49070
 242.29162 240.10554 237.93546 235.78438 233.65430 231.53122 229.56714 227.73406
 226.02698 224.50890 223.14882 221.93074 220.82266 219.79258 218.90650 218.05742
 217.30934 216.49926 215.60718 214.98110 214.44102 214.59889 214.97258 215.51083
 215.99879 216.95433 218.12413 219.08644 220.45312 223.23636 227.83109 232.05775
 235.18266 237.77992 239.87941 242.09560 245.12997 248.62372 252.39603 256.21057
 259.68298 262.80786 265.71115 268.49677 271.17361 273.67352 275.89401 277.71222
 279.09760 280.23312 281.48093 282.81464 284.00653 285.06689 286.03851 286.92542
 287.73508 288.49753 289.17361 290.03519
 366.78100 356.34454 345.78608 334.66162 323.07415 311.27769 299.15723 286.96977
 274.69131 262.59785 250.61639 239.92692 230.05846 221.17200 213.36354 206.37508
 200.21862 195.16616 191.75770 189.80923 188.85577 188.92931 189.77385 191.09139
 192.82593 194.93047 197.20300 199.57154 202.02608 204.51562 206.61316 208.46470
 210.10024 211.25477 211.49331 211.73085 211.67739 211.39193 211.03447 210.67401
 210.30055 210.02008 209.83762 209.71116 209.64870 209.98924 210.38478 210.78332
 211.58585 212.77339 214.03293 215.82547 217.76301 219.81555 221.92009 224.01262
 226.08216 228.17570 230.28224 232.39778 234.53632 236.71786 238.98339 241.36293
 243.99347 246.25401 248.26555 250.04009 251.46663 252.59917 253.43070 253.75624
 253.80278 253.58632 252.95586 251.91340 250.52894 248.69947 246.61801 244.46055
 242.26109 240.07463 237.90417 235.75271 233.62224 231.49878 229.53432 227.70086
 225.99340 224.47494 223.11448 221.89601 220.78755 219.75709 218.87063 218.02117
 217.27271 216.46225 215.56979 214.94332 214.40286 214.58028 214.99959 215.60924
 216.08652 217.03471 218.21371 219.15800 220.49466 223.24586 227.83752 231.99698
 235.07104 237.59509 239.67822 241.94008 245.02856 248.55919 252.34921 256.16568
 259.62823 262.75073 265.66110 268.46182 271.15555 273.67505 275.91895 277.76434
 279.16382 280.29800 281.49887 282.81339 284.00610 285.06454 286.03455 286.91962
 287.72672 288.48502 289.16522 290.03204
 366.78100 356.34468 345.78636 334.66205 323.07473 311.27841 299.15809 286.97077
 274.69246 262.59914 250.61782 239.92850 230.06018 221.17386 213.36555 206.37723
 200.22091 195.16859 191.76027 189.81196 188.85864 188.93232 189.77700 191.09468
 192.82937 194.93405 197.20673 199.57541 202.03009 204.51978 206.61746 208.46914
 210.10482 211.25950 211.49818 211.73587 211.68255 211.39723 211.03991 210.67959
 210.30628 210.02596 209.84364 209.71732 209.65500 209.99569 210.39137 210.79005
 211.59273 212.78041 214.04010 215.83278 217.77046 219.82314 221.92782 224.02050
 226.09019 228.18387 230.29055 232.40623 234.54491 236.72660 238.99228 241.37196
 244.00264 246.26332 248.27501 250.04969 251.47637 252.60905 253.44073 253.76642
 253.81310 253.59678 252.96646 251.92414 250.53982 248.71051 246.62919 244.47187
 242.27255 240.08623 237.91592 235.76460 233.63428 231.51096 229.54664 227.71333
 226.00601 224.48769 223.12737 221.90905 220.80074 219.77042 218.88410 218.03478
 217.28646 216.47614 215.58383 214.95751 214.41719 214.58678 214.98746 215.72130
 216.20938 217.13991 218.30589 219.22992 220.53677 223.25352 227.83719 231.91936
 234.93965 237.39191 239.46420 241.78044 244.92241 248.49484 252.29613 256.11499
 259.56784 262.68881 265.60675 268.42325 271.13550 273.67432 275.94022 277.81363
 279.22437 280.37234 281.52390 282.80527 283.99478 285.05133 286.01715 286.89645
 287.69839 288.44016 289.12057 289.98770
 366.78100 356.34510 345.78721 334.66331 323.07642 311.28052 299.16062 286.97373
 274.69583 262.60294 250.62204 239.93314 230.06525 221.17935 213.37146 206.38356
 200.22766 195.17577 191.76787 189.81998 188.86708 188.94118 189.78629 191.10439
 192.83950 194.94460 197.21770 199.58681 202.04191 204.53201 206.63012 208.48222
 210.11833 211.27343 211.51253 211.75064 211.69774 211.41285 211.05595 210.69605
 210.32316 210.04326 209.86137 209.73547 209.67357 210.01468 210.41078 210.80989
 211.61299 212.80109 214.06120 215.85430 217.79241 219.84551 221.95061 224.04372
 226.11382 228.20793 230.31503 232.43113 234.57024 236.75234 239.01845 241.39855
 244.02965 246.29076 248.30286 250.07797 251.50507 252.63817 253.47028 253.79638
 253.84349 253.62759 252.99769 251.95580 250.57190 248.74301 246.66211 244.50521
 242.30632 240.12042 237.95053 235.79963 233.66973 231.54684 229.58294 227.75004
 226.04315 224.52525 223.16536 221.94746 220.83956 219.80967 218.92377 218.07488
 217.32698 216.51708 215.62519 214.99929 214.45940 214.60797 214.95903 215.81569
 216.35341 217.26129 218.39981 219.29619 220.56850 223.25581 227.82677 231.83232
 234.79753 237.18069 239.24915 241.62505 244.82314 248.43755 252.25546 256.07111
 259.51797 262.64191 265.56836 268.39975 271.12808 273.68042 275.96674 277.86435
 279.27914 280.41864 281.53625 282.81467 284.00305 285.05884 286.02325 286.90179
 287.70013 288.43066 289.11514 289.98740
 366.78100 356.34561 345.78823 334.66484 323.07845 311.28307 299.16368 286.97729
 274.69991 262.60752 250.62713 239.93874 230.07136 221.18597 213.37858 206.39120
 200.23581 195.18442 191.77704 189.82965 188.87726 188.95188 189.79749 191.11610
 192.85172 194.95733 197.23094 199.60056 202.05617 204.54678 206.64539 208.49801
 210.13462 211.29023 211.52985 211.76846 211.71607 211.43169 211.07530 210.71591
 210.34353 210.06414 209.88275 209.75737 209.69598 210.03759 210.43420 210.83382
 211.63743 212.82604 214.08666 215.88027 217.81888 219.87250 221.97811 224.07172
 226.14234 228.23695 230.34456 232.46118 234.60079 236.78340 239.05002 241.43063
 244.06224 246.32385 248.33647 250.11208 251.53969 252.67331 253.50592 253.83253
 253.88015 253.66476 253.03537 251.99399 250.61060 248.78221 246.70183 244.54544
 242.34705 240.16167 237.99228 235.84189 233.71250 231.59012 229.62673 227.79434
 226.08796 224.57057 223.21118 221.99380 220.88641 219.85702 218.97164 218.12325
 217.37586 216.56648 215.67509 215.04970 214.51031 214.63393 214.92598 215.89598
 216.51633 217.39664 218.49187 219.35973 220.60884 223.26822 227.81030 231.73622
 234.64185 236.96584 239.04071 241.48322 244.73523 248.38951 252.22307 256.02756
 259.47403 262.60376 265.53525 268.37878 271.12238 273.68665 275.99307 277.91779
 279.32825 280.46118 281.53473 282.82462 284.01337 285.06906 286.03513 286.91562
 287.71921 288.44543 289.11197 289.96902
 366.78100 356.34623 345.78946 334.66668 323.08091 311.28614 299.16737 286.98160
 274.70482 262.61305 250.63328 239.94551 230.07874 221.19396 213.38719 206.40042
 200.24565 195.19487 191.78810 189.84133 188.88956 188.96479 189.81101 191.13024
 192.86647 194.97270 197.24693 199.61715 202.07338 204.56461 206.66384 208.51707
 210.15429 211.31052 211.55075 211.78998 211.73821 211.45443 211.09866 210.73989
 210.36812 210.08934 209.90857 209.78380 209.72303 210.06526 210.46248 210.86271
 211.66694 212.85617 214.11740 215.91162 217.85085 219.90508 222.01131 224.10554
 226.17676 228.27199 230.38022 232.49745 234.63768 236.82090 239.08813 241.46936
 244.10159 246.36382 248.37704 250.15327 251.58150 252.71573 253.54895 253.87618
 253.92441 253.70964 253.08087 252.04009 250.65732 248.82955 246.74978 244.59401
 242.39623 240.21146 238.04269 235.89292 233.76415 231.64237 229.67960 227.84783
 226.14206 224.62529 223.26651 222.04974 220.94297 219.91420 219.02943 218.18165
 217.43488 216.62611 215.73534 215.11056 214.57179 214.66484 214.88466 215.97987
 216.69003 217.53401 218.59662 219.42638 220.64008 223.27739 227.78569 231.63234
 234.47331 236.75053 238.83940 241.34975 244.65233 248.34367 252.19034 255.97940
 259.42139 262.55634 265.49545 268.35550 271.11356 273.68976 276.01846 277.97702
 279.38187 280.51282 281.51410 282.83255 284.01907 285.07227 286.03543 286.91254
 287.71039 288.43195 289.08652 289.94989
 366.78100 356.34697 345.79093 334.66890 323.08386 311.28983 299.17180 286.98676
 274.71073 262.61969 250.64066 239.95362 230.08759 221.20356 213.39752 206.41149
 200.25745 195.20742 191.80139 189.85535 188.90432 188.98028 189.82725 191.14721
 192.88418 194.99115 197.26611 199.63708 202.09404 204.58601 206.68598 208.53994
 210.17791 211.33487 211.57584 211.81580 211.76477 211.48174 211.12670 210.76867
 210.39763 210.11960 209.93957 209.81553 209.75550 210.09846 210.49643 210.89739
 211.70236 212.89233 214.15429 215.94926 217.88922 219.94419 222.05116 224.14612
 226.21809 228.31405 230.42302 232.54098 234.68195 236.86592 239.13388 241.51585
 244.14881 246.41178 248.42575 250.20271 251.63168 252.76664 253.60061 253.92857
 253.97754 253.76351 253.13547 252.09544 250.71340 248.88637 246.80734 244.65230
 242.45527 240.27123 238.10320 235.95416 233.82613 231.70510 229.74306 227.91203
 226.20699 224.69096 223.33293 222.11689 221.01086 219.98282 219.09879 218.25175
 217.50572 216.69769 215.80765 215.18362 214.64558 214.70189 214.83495 216.06494
 216.87234 217.66681 218.67220 219.49406 220.69821 223.30620 227.75490 231.52106
 234.29539 236.53424 238.64331 241.22324 244.57397 248.29865 252.15483 255.92610
 259.36047 262.49814 265.44739 268.33020 271.10159 273.68341 276.02921 278.01373
 279.42416 280.56268 281.52722 282.81934 284.00424 285.05719 286.01724 286.89297
 287.68741 288.40738 289.04105 289.86301
 366.78100 356.34745 345.79191 334.67036 323.08581 311.29227 299.17472 286.99018
 274.71463 262.62408 250.64554 239.95899 230.09344 221.20990 213.40435 206.41880
 200.26526 195.21571 191.81017 189.86462 188.91407 188.99053 189.83798 191.15843
 192.89589 195.00334 197.27880 199.65025 202.10770 204.60016 206.70061 208.55506
 210.19352 211.35097 211.59242 211.83288 211.78233 211.49979 211.14524 210.78769
 210.41715 210.13960 209.96005 209.83651 209.77696 210.12041 210.51887 210.92032
 211.72578 212.91623 214.17868 215.97414 217.91459 219.97004 222.07750 224.17295
 226.24541 228.34186 230.45131 232.56977 234.71122 236.89567 239.16413 241.54658
 244.18003 246.44349 248.45794 250.23540 251.66485 252.80030 253.63476 253.96321
 254.01266 253.79912 253.17157 252.13202 250.75048 248.92393 246.84539 244.69084
 242.49429 240.31075 238.14320 235.99465 233.86711 231.74656 229.78502 227.95447
 226.24992 224.73438 223.37683 222.16128 221.05574 220.02819 219.14464 218.29810
 217.55255 216.74501 215.85546 215.23191 214.69437 214.72704 214.80426 216.12024
 217.03397 217.82085 218.77946 219.57668 220.74350 223.29959 227.69756 231.39149
 234.10664 236.31528 238.45657 241.11125 244.51137 248.26485 252.12648 255.88118
 259.30786 262.44571 265.40298 268.30301 271.08536 273.67007 276.02609 278.01974
 279.42529 280.56500 281.55301 282.80585 283.98434 285.03772 285.99808 286.87268
 287.66745 288.38855 289.01529 289.83014
 366.78100 356.34734 345.79169 334.67003 323.08538 311.29172 299.17407 286.98941
 274.71376 262.62310 250.64445 239.95779 230.09214 221.20848 213.40283 206.41717
 200.26352 195.21386 191.80820 189.86255 188.91189 188.98824 189.83558 191.15593
 192.89327 195.00062 197.27596 199.64731 202.10465 204.59700 206.69734 208.55169
 210.19003 211.34738 211.58872 211.82907 211.77841 211.49575 211.14110 210.78344
 210.41279 210.13513 209.95548 209.83182 209.77217 210.11551 210.51386 210.91520
 211.72055 212.91089 214.17324 215.96858 217.90893 219.96427 222.07161 224.16696
 226.23930 228.33565 230.44499 232.56334 234.70468 236.88903 239.15737 241.53972
 244.17306 246.43641 248.45075 250.22810 251.65744 252.79279 253.62713 253.95547
 254.00482 253.79116 253.16351 252.12385 250.74220 248.91554 246.83689 244.68223
 242.48558 240.30192 238.13427 235.98561 233.85796 231.73730 229.77565 227.94499
 226.24034 224.72468 223.36702 222.15137 221.04571 220.01806 219.13440 218.28775
 217.54209 216.73444 215.84478 215.22113 214.68347 214.72244 214.81451 216.13907
 217.16026 217.97803 218.90408 219.65164 220.76262 223.27142 227.62807 231.26109
 233.92993 236.11627 238.29878 241.02695 244.47308 248.24918 252.11226 255.84943
 259.26761 262.40414 265.36313 268.27725 271.06735 273.65247 276.01773 278.01547
 279.40396 280.53894 281.55179 282.78427 283.96115 285.01401 285.97397 286.84973
 287.64575 288.36542 288.99600 289.80719
 366.78100 356.34686 345.79072 334.66858 323.08344 311.28931 299.17117 286.98603
 274.70989 262.61875 250.63961 239.95247 230.08633 221.20219 213.39605 206.40992
 200.25578 195.20564 191.79950 189.85336 188.90222 188.97808 189.82494 191.14480
 192.88166 194.98853 197.26339 199.63425 202.09111 204.58297 206.68283 208.53669
 210.17455 211.33141 211.57227 211.81214 211.76100 211.47786 211.12272 210.76458
 210.39344 210.11530 209.93516 209.81102 209.75088 210.09375 210.49161 210.89247
 211.69733 212.88719 214.14905 215.94391 217.88377 219.93863 222.04549 224.14036
 226.21222 228.30808 230.41694 232.53480 234.67566 236.85952 239.12738 241.50924
 244.14210 246.40497 248.41883 250.19569 251.62455 252.75941 253.59327 253.92113
 253.96999 253.75585 253.12771 252.08758 250.70544 248.87830 246.79916 244.64402
 242.44688 240.26274 238.09460 235.94546 233.81733 231.69619 229.73405 227.90291
 226.19777 224.68163 223.32349 222.10735 221.00121 219.97307 219.08894 218.24180
 217.49566 216.68752 215.79738 215.17324 214.63510 214.69769 214.84554 216.14809
 217.27762 218.13622 219.02299 219.71017 220.77122 223.24286 227.55864 231.13725
 233.76547 235.93733 238.16313 240.96194 244.44798 248.24112 252.10098 255.81657
 259.22311 262.35541 265.31720 268.24561 271.04236 273.62769 276.00128 277.99750
 279.36926 280.50684 281.54391 282.76199 283.93671 284.98987 285.94989 286.82568
 287.62296 288.34232 288.97293 289.78738
 366.78100 356.34669 345.79038 334.66807 323.08276 311.28845 299.17015 286.98484
 274.70853 262.61722 250.63791 239.95060 230.08429 221.19998 213.39367 206.40736
 200.25305 195.20274 191.79644 189.85013 188.89882 188.97451 189.82120 191.14089
 192.87758 194.98427 197.25896 199.62965 202.08634 204.57804 206.67773 208.53142
 210.16911 211.32580 211.56649 211.80618 211.75487 211.47156 211.11625 210.75794
 210.38664 210.10833 209.92802 209.80371 209.74340 210.08609 210.48378 210.88447
 211.68916 212.87885 214.14054 215.93523 217.87493 219.92962 222.03631 224.13100
 226.20269 228.29838 230.40707 232.52476 234.66545 236.84914 239.11683 241.49853
 244.13122 246.39391 248.40760 250.18429 251.61298 252.74767 253.58136 253.90905
 253.95774 253.74343 253.11512 252.07482 250.69251 248.86520 246.78589 244.63058
 242.43327 240.24896 238.08065 235.93134 233.80303 231.68172 229.71942 227.88811
 226.18280 224.66649 223.30818 222.09187 220.98556 219.95725 219.07294 218.22563
 217.47932 216.67102 215.78071 215.15640 214.61809 214.68674 214.84897 216.17270
 217.39960 218.29768 219.13672 219.76118 220.78458 223.22127 227.48892 231.01237
 233.59929 235.75838 238.02895 240.89928 244.42395 248.23201 252.08594 255.77667
 259.16980 262.29797 265.26572 268.20941 271.01248 273.59885 275.97919 277.96817
 279.32840 280.47250 281.53345 282.73734 283.91150 284.96411 285.92480 286.80133
 287.60101 288.31839 288.95413 289.76721
 366.78100 356.34706 345.79112 334.66918 323.08424 311.29030 299.17236 286.98742
 274.71148 262.62054 250.64160 239.95466 230.08872 221.20478 213.39884 206.41290
 200.25896 195.20902 191.80309 189.85715 188.90621 188.98227 189.82933 191.14939
 192.88645 194.99351 197.26857 199.63963 202.09669 204.58875 206.68881 208.54287
 210.18093 211.33799 211.57905 211.81911 211.76817 211.48523 211.13029 210.77235
 210.40141 210.12347 209.94353 209.81959 209.75965 210.10271 210.50077 210.90183
 211.70689 212.89695 214.15901 215.95407 217.89414 219.94920 222.05626 224.15132
 226.22338 228.31944 230.42850 232.54656 234.68762 236.87168 239.13974 241.52180
 244.15486 246.41792 248.43198 250.20904 251.63810 252.77316 253.60722 253.93528
 253.98434 253.77040 253.14246 252.10252 250.72058 248.89364 246.81470 244.65976
 242.46282 240.27888 238.11094 235.96200 233.83406 231.71312 229.75119 227.92025
 226.21531 224.69937 223.34143 222.12549 221.01955 219.99161 219.10767 218.26073
 217.51479 216.70685 215.81691 215.19297 214.65503 214.70111 214.80998 216.21564
 217.52815 218.45778 219.25299 219.81604 220.80974 223.20938 227.41844 230.88162
 233.42401 235.57179 237.89084 240.83638 244.40083 248.22324 252.06999 255.73561
 259.11591 262.24173 265.21686 268.17557 270.98273 273.56866 275.95212 277.93124
 279.28546 280.43372 281.51251 282.71436 283.88867 284.94150 285.90302 286.77975
 287.57837 288.29889 288.93216 289.74756
 366.78100 356.34767 345.79234 334.67102 323.08669 311.29336 299.17603 286.99170
 274.71637 262.62605 250.64772 239.96139 230.09606 221.21273 213.40741 206.42208
 200.26875 195.21942 191.81409 189.86877 188.91844 188.99511 189.84278 191.16345
 192.90112 195.00880 197.28447 199.65614 202.11381 204.60648 206.70716 208.56183
 210.20050 211.35817 211.59984 211.84052 211.79019 211.50786 211.15353 210.79620
 210.42587 210.14855 209.96922 209.84589 209.78656 210.13023 210.52891 210.93058
 211.73625 212.92692 214.18959 215.98527 217.92594 219.98161 222.08928 224.18495
 226.25762 228.35430 230.46397 232.58264 234.72431 236.90898 239.17766 241.56033
 244.19400 246.45767 248.47234 250.25001 251.67969 252.81536 253.65003 253.97870
 254.02837 253.81505 253.18772 252.14839 250.76706 248.94073 246.86241 244.70808
 242.51175 240.32842 238.16109 236.01276 233.88544 231.76511 229.80378 227.97345
 226.26912 224.75380 223.39647 222.18114 221.07581 220.04848 219.16516 218.31883
 217.57350 216.76617 215.87684 215.25351 214.71619 214.72667 214.75143 216.25943
 217.66669 218.61870 219.37332 219.87300 220.84160 223.20166 227.34265 230.74028
 233.23666 235.37737 237.75122 240.77667 244.38303 248.21933 252.05830 255.69902
 259.06705 262.19089 265.17303 268.14246 270.95078 273.53488 275.91635 277.87897
 279.22754 280.38309 281.45020 282.71063 283.88080 284.92590 285.88431 286.75949
 287.55606 288.27921 288.91119 289.72900
 366.78100 356.34824 345.79348 334.67272 323.08896 311.29620 299.17944 286.99568
 274.72092 262.63116 250.65340 239.96764 230.10288 221.22012 213.41536 206.43060
 200.27784 195.22908 191.82432 189.87956 188.92980 189.00704 189.85528 191.17652
 192.91476 195.02300 197.29924 199.67148 202.12972 204.62296 206.72420 208.57944
 210.21868 211.37692 211.61916 211.86040 211.81064 211.52888 211.17512 210.81836
 210.44860 210.17184 209.99308 209.87032 209.81156 210.15580 210.55504 210.95728
 211.76352 212.95476 214.21800 216.01424 217.95548 220.01172 222.11996 224.21620
 226.28944 228.38668 230.49692 232.61616 234.75840 236.94364 239.21288 241.59612
 244.23036 246.49460 248.50984 250.28808 251.71832 252.85456 253.68980 254.01904
 254.06928 253.85652 253.22976 252.19100 250.81024 248.98448 246.90672 244.75296
 242.55720 240.37444 238.20768 236.05992 233.93316 231.81340 229.85264 228.02288
 226.31912 224.80436 223.44760 222.23284 221.12808 220.10132 219.21856 218.37280
 217.62804 216.82128 215.93252 215.30976 214.77299 214.75023 214.69646 216.28764
 217.81322 218.78090 219.50079 219.93326 220.87105 223.19073 227.25990 230.58879
 233.04070 235.18172 237.61836 240.72702 244.37529 248.22411 252.05359 255.66859
 259.02432 262.14514 265.13101 268.10764 270.91217 273.49246 275.86667 277.80521
 279.15091 280.31210 281.38177 282.68741 283.86633 284.91473 285.87198 286.74710
 287.54291 288.26419 288.89792 289.71378
 366.78100 356.34864 345.79428 334.67391 323.09055 311.29819 299.18183 286.99846
 274.72410 262.63474 250.65738 239.97201 230.10765 221.22529 213.42093 206.43656
 200.28420 195.23584 191.83148 189.88711 188.93775 189.01539 189.86403 191.18566
 192.92430 195.03294 197.30958 199.68222 202.14085 204.63449 206.73613 208.59177
 210.23140 211.39004 211.63268 211.87432 211.82495 211.54359 211.19023 210.83387
 210.46450 210.18814 210.00978 209.88742 209.82905 210.17369 210.57333 210.97597
 211.78260 212.97424 214.23788 216.03452 217.97615 220.03279 222.14143 224.23807
 226.31171 228.40934 230.51998 232.63962 234.78226 236.96789 239.23753 241.62117
 244.25581 246.52044 248.53608 250.31472 251.74536 252.88199 253.71763 254.04727
 254.09791 253.88554 253.25918 252.22082 250.84046 249.01509 246.93773 244.78437
 242.58901 240.40665 238.24028 236.09292 233.96656 231.84720 229.88683 228.05747
 226.35411 224.83975 223.48338 222.26902 221.16466 220.13830 219.25593 218.41057
 217.66621 216.85985 215.97148 215.34912 214.81276 214.76584 214.65498 216.29643
 217.96149 218.94867 219.63327 219.99568 220.89635 223.17256 227.16887 230.42813
 232.84032 234.99141 237.49754 240.69070 244.37962 248.23811 252.05559 255.64430
 258.98428 262.09882 265.08774 268.06769 270.86780 273.43961 275.79837 277.70822
 279.05466 280.23145 281.33716 282.66052 283.84280 284.89261 285.85129 286.72699
 287.52399 288.24362 288.87640 289.69244
 366.78100 356.34888 345.79476 334.67464 323.09153 311.29941 299.18329 287.00017
 274.72605 262.63693 250.65981 239.97470 230.11058 221.22846 213.42434 206.44022
 200.28810 195.23998 191.83587 189.89175 188.94263 189.02051 189.86939 191.19127
 192.93015 195.03904 197.31592 199.68880 202.14768 204.64156 206.74344 208.59932
 210.23921 211.39809 211.64097 211.88285 211.83373 211.55261 211.19949 210.84338
 210.47426 210.19814 210.02002 209.89790 209.83978 210.18466 210.58455 210.98743
 211.79431 212.98619 214.25007 216.04695 217.98883 220.04572 222.15460 224.25148
 226.32536 228.42324 230.53412 232.65400 234.79689 236.98277 239.25265 241.63653
 244.27141 246.53629 248.55217 250.33106 251.76194 252.89882 253.73470 254.06458
 254.11546 253.90334 253.27723 252.23911 250.85899 249.03387 246.95675 244.80363
 242.60851 240.42640 238.26028 236.11316 233.98704 231.86792 229.90780 228.07868
 226.37557 224.86145 223.50533 222.29121 221.18709 220.16097 219.27885 218.43374
 217.68962 216.88350 215.99538 215.37326 214.83714 214.77333 214.62260 216.29332
 218.10677 219.12311 219.77495 220.06194 220.91556 223.14233 227.06607 230.25963
 232.64015 234.81143 237.39273 240.66982 244.39764 248.26184 252.06319 255.62221
 258.94312 262.04950 265.04169 268.02133 270.81381 273.37579 275.71088 277.59097
 278.94479 280.14417 281.30002 282.63107 283.81555 284.86789 285.82843 286.70398
 287.50354 288.22281 288.85263 289.67062
 366.78100 356.34901 345.79501 334.67502 323.09203 311.30004 299.18404 287.00105
 274.72706 262.63806 250.66107 239.97608 230.11208 221.23009 213.42610 206.44211
 200.29011 195.24212 191.83813 189.89413 188.94514 189.02315 189.87215 191.19416
 192.93317 195.04218 197.31918 199.69219 202.15120 204.64520 206.74721 208.60322
 210.24322 211.40223 211.64524 211.88725 211.83825 211.55726 211.20427 210.84827
 210.47928 210.20329 210.02529 209.90330 209.84531 210.19032 210.59032 210.99333
 211.80034 212.99234 214.25635 216.05336 217.99536 220.05237 222.16138 224.25839
 226.33239 228.43040 230.54141 232.66141 234.80442 236.99043 239.26043 241.64444
 244.27945 246.54446 248.56046 250.33947 251.77048 252.90748 253.74349 254.07350
 254.12450 253.91251 253.28652 252.24853 250.86853 249.04354 246.96655 244.81355
 242.61856 240.43657 238.27057 236.12358 233.99759 231.87860 229.91860 228.08961
 226.38662 224.87262 223.51663 222.30264 221.19864 220.17265 219.29066 218.44567
 217.70167 216.89568 216.00769 215.38569 214.84970 214.77364 214.59393 216.28365
 218.24852 219.30107 219.92140 220.13072 220.92165 223.09613 226.95540 230.08614
 232.44077 234.64096 237.30214 240.66386 244.42807 248.29347 252.07321 255.59961
 258.89825 261.99588 264.99377 267.96951 270.75058 273.30045 275.60452 277.45505
 278.82437 280.05566 281.26495 282.60162 283.78714 284.84006 285.80280 286.67926
 287.47717 288.19748 288.83200 289.64502
 366.78100 356.34905 345.79510 334.67516 323.09221 311.30026 299.18431 287.00137
 274.72742 262.63847 250.66152 239.97658 230.11263 221.23068 213.42673 206.44278
 200.29084 195.24289 191.83894 189.89499 188.94605 189.02410 189.87315 191.19520
 192.93426 195.04331 197.32036 199.69341 202.15247 204.64652 206.74857 208.60462
 210.24467 211.40373 211.64678 211.88883 211.83988 211.55894 211.20599 210.85004
 210.48109 210.20515 210.02720 209.90525 209.84730 210.19235 210.59241 210.99546
 211.80251 212.99456 214.25862 216.05567 217.99772 220.05477 222.16383 224.26088
 226.33493 228.43298 230.54404 232.66409 234.80714 236.99319 239.26324 241.64730
 244.28235 246.54740 248.56345 250.34251 251.77356 252.91061 253.74666 254.07672
 254.12777 253.91582 253.28987 252.25192 250.87198 249.04703 246.97008 244.81713
 242.62219 240.44024 238.27429 236.12734 234.00140 231.88245 229.92250 228.09355
 226.39060 224.87666 223.52071 222.30676 221.20281 220.17687 219.29492 218.44997
 217.70602 216.90008 216.01213 215.39018 214.85423 214.76936 214.56885 216.27162
 218.38322 219.47940 220.06477 220.19701 220.92986 223.03958 226.82985 229.90536
 232.24484 234.48180 237.22614 240.67160 244.47017 248.33177 252.08440 255.57585
 258.85016 261.94153 264.94540 267.91284 270.68069 273.21280 275.47986 277.30389
 278.69659 279.96799 281.23035 282.57242 283.75812 284.81128 285.77484 286.65213
 287.45172 288.17426 288.80475 289.62085
 366.78100 356.34911 345.79522 334.67533 323.09243 311.30054 299.18465 287.00176
 274.72787 262.63898 250.66208 239.97719 230.11330 221.23141 213.42752 206.44363
 200.29174 195.24384 191.83995 189.89606 188.94717 189.02528 189.87439 191.19650
 192.93560 195.04471 197.32182 199.69493 202.15404 204.64815 206.75025 208.60636
 210.24647 211.40558 211.64869 211.89080 211.84191 211.56101 211.20812 210.85223
 210.48334 210.20745 210.02956 209.90766 209.84977 210.19488 210.59499 210.99810
 211.80521 212.99732 214.26142 216.05853 218.00064 220.05775 222.16686 224.26397
 226.33807 228.43618 230.54729 232.66740 234.81051 236.99662 239.26673 241.65083
 244.28594 246.55105 248.56716 250.34627 251.77738 252.91449 253.75059 254.08070
 254.13181 253.91992 253.29403 252.25614 250.87624 249.05135 246.97446 244.82157
 242.62668 240.44479 238.27890 236.13200 234.00611 231.88722 229.92733 228.09844
 226.39555 224.88165 223.52576 222.31187 221.20798 220.18209 219.30020 218.45531
 217.71141 216.90552 216.01763 215.39574 214.85985 214.76593 214.54402 216.26323
 218.51062 219.64865 220.21387 220.26492 220.90982 222.96205 226.70566 229.73155
 232.05830 234.33598 237.16428 240.69305 244.52284 248.37567 252.09558 255.55019
 258.80035 261.88669 264.89774 267.85132 270.60202 273.11087 275.33514 277.13614
 278.55914 279.88040 281.19431 282.54022 283.72681 284.78137 285.74329 286.62073
 287.42169 288.14276 288.77335 289.58514
 366.78100 356.34907 345.79515 334.67522 323.09229 311.30037 299.18444 287.00151
 274.72759 262.63866 250.66173 239.97681 230.11288 221.23095 213.42703 206.44310
 200.29117 195.24325 191.83932 189.89539 188.94647 189.02454 189.87361 191.19569
 192.93476 195.04383 197.32091 199.69398 202.15305 204.64713 206.74920 208.60527
 210.24535 211.40442 211.64750 211.88957 211.84064 211.55972 211.20679 210.85086
 210.48194 210.20601 210.02808 209.90616 209.84823 210.19330 210.59338 210.99645
 211.80352 212.99560 214.25967 216.05674 217.99882 220.05589 222.16496 224.26204
 226.33611 228.43418 230.54526 232.66533 234.80840 236.99448 239.26455 241.64862
 244.28370 246.54877 248.56484 250.34392 251.77499 252.91206 253.74814 254.07821
 254.12928 253.91736 253.29143 252.25350 250.87358 249.04865 246.97172 244.81880
 242.62387 240.44194 238.27602 236.12909 234.00316 231.88424 229.92431 228.09538
 226.39246 224.87853 223.52260 222.30868 221.20475 220.17882 219.29690 218.45197
 217.70804 216.90212 216.01419 215.39227 214.85634 214.75880 214.52838 216.24896
 218.63387 219.81142 220.32990 220.32578 220.92355 222.90128 226.57690 229.55649
 231.87610 234.19809 237.11191 240.72395 244.58360 248.42345 252.10699 255.52428
 258.75082 261.83481 264.85257 267.78723 270.51605 272.99725 275.17764 276.96252
 278.42340 279.79800 281.15399 282.50528 283.68997 284.74414 285.70758 286.58789
 287.38751 288.10895 288.73950 289.55322
 366.78100 356.34878 345.79456 334.67435 323.09113 311.29891 299.18269 286.99947
 274.72526 262.63604 250.65882 239.97360 230.10938 221.22717 213.42295 206.43873
 200.28651 195.23829 191.83407 189.88986 188.94064 189.01842 189.86720 191.18898
 192.92777 195.03655 197.31333 199.68611 202.14489 204.63868 206.74046 208.59624
 210.23602 211.39480 211.63759 211.87937 211.83015 211.54893 211.19571 210.83950
 210.47028 210.19406 210.01584 209.89362 209.83541 210.18019 210.57997 210.98275
 211.78953 212.98132 214.24510 216.04188 217.98366 220.04044 222.14922 224.24601
 226.31979 228.41757 230.52835 232.64813 234.79092 236.97670 239.24648 241.63026
 244.26504 246.52983 248.54561 250.32439 251.75517 252.89195 253.72774 254.05752
 254.10830 253.89608 253.26986 252.23165 250.85143 249.02621 246.94899 244.79577
 242.60056 240.41834 238.25212 236.10490 233.97868 231.85947 229.89925 228.07003
 226.36681 224.85259 223.49637 222.28216 221.17794 220.15172 219.26950 218.42428
 217.68007 216.87385 215.98563 215.36341 214.82719 214.73940 214.53194 216.23018
 218.72510 219.97820 220.47661 220.39665 220.89444 222.79733 226.43608 229.37796
 231.69719 234.07164 237.07605 240.77266 244.66005 248.48341 252.12831 255.50894
 258.71252 261.79382 264.81433 267.72498 270.42874 272.87640 275.01080 276.78598
 278.29156 279.71750 281.10880 282.46188 283.64838 284.70126 285.66467 286.54419
 287.34555 288.06750 288.69943 289.51291
 366.78100 356.34837 345.79375 334.67312 323.08950 311.29687 299.18025 286.99662
 274.72200 262.63237 250.65475 239.96912 230.10449 221.22187 213.41724 206.43262
 200.27999 195.23137 191.82674 189.88212 188.93249 189.00987 189.85824 191.17961
 192.91799 195.02636 197.30274 199.67511 202.13349 204.62686 206.72824 208.58361
 210.22299 211.38136 211.62373 211.86511 211.81548 211.53386 211.18023 210.82361
 210.45398 210.17736 209.99873 209.87610 209.81748 210.16185 210.56123 210.96360
 211.76998 212.96135 214.22473 216.02110 217.96248 220.01885 222.12722 224.22360
 226.29697 228.39435 230.50472 232.62410 234.76647 236.95185 239.22122 241.60460
 244.23897 246.50334 248.51872 250.29709 251.72747 252.86384 253.69922 254.02859
 254.07897 253.86634 253.23972 252.20109 250.82046 248.99484 246.91721 244.76359
 242.56796 240.38534 238.21871 236.07109 233.94446 231.82484 229.86421 228.03458
 226.33096 224.81633 223.45971 222.24508 221.14046 220.11383 219.23121 218.38558
 217.64096 216.83433 215.94570 215.32308 214.78645 214.71585 214.54903 216.21649
 218.77844 220.11819 220.63806 220.40642 220.79041 222.68387 226.31451 229.23274
 231.55145 233.97714 237.06932 240.84630 244.75945 248.56407 252.16774 255.51137
 258.68945 261.76468 264.78256 267.66351 270.33484 272.74417 274.83685 276.61026
 278.16150 279.63507 281.05463 282.40970 283.59448 284.64801 285.61115 286.49072
 287.29135 288.01468 288.64627 289.45731
 366.78100 356.34770 345.79240 334.67110 323.08680 311.29350 299.17620 286.99190
 274.71660 262.62630 250.64800 239.96170 230.09640 221.21310 213.40779 206.42249
 200.26919 195.21989 191.81459 189.86929 188.91899 188.99569 189.84339 191.16409
 192.90179 195.00949 197.28519 199.65689 202.11459 204.60729 206.70799 208.56269
 210.20139 211.35909 211.60079 211.84149 211.79119 211.50889 211.15459 210.79729
 210.42699 210.14969 209.97038 209.84708 209.78778 210.13148 210.53018 210.93188
 211.73758 212.92828 214.19098 215.98668 217.92738 219.98308 222.09078 224.18648
 226.25918 228.35588 230.46558 232.58428 234.72598 236.91068 239.17938 241.56208
 244.19578 246.45948 248.47418 250.25188 251.68158 252.81727 253.65197 253.98067
 254.03037 253.81707 253.18977 252.15047 250.76917 248.94287 246.86457 244.71027
 242.51397 240.33067 238.16337 236.01507 233.88777 231.76747 229.80617 227.97587
 226.27157 224.75627 223.39897 222.18367 221.07837 220.05107 219.16777 218.32147
 217.57617 216.76886 215.87956 215.25626 214.71896 214.67842 214.58266 216.22617
 218.80356 220.19624 220.74771 220.40593 220.69545 222.58875 226.21382 229.11383
 231.43388 233.91010 237.08546 240.93922 244.87428 248.65446 252.21397 255.51869
 258.66962 261.73822 264.75018 267.59741 270.23105 272.59702 274.64658 276.42432
 278.02698 279.54279 280.98752 282.34180 283.52686 284.57895 285.54343 286.42206
 287.22314 287.94635 288.57724 289.39243
 366.78100 356.34644 345.78988 334.66732 323.08176 311.28720 299.16864 286.98308
 274.70652 262.61496 250.63540 239.94784 230.08128 221.19672 213.39016 206.40360
 200.24904 195.19848 191.79191 189.84535 188.89379 188.96923 189.81567 191.13511
 192.87155 194.97799 197.25243 199.62287 202.07931 204.57075 206.67019 208.52363
 210.16107 211.31751 211.55795 211.79739 211.74583 211.46227 211.10671 210.74815
 210.37659 210.09803 209.91747 209.79291 209.73235 210.07479 210.47223 210.87267
 211.67711 212.86655 214.12799 215.92243 217.86187 219.91631 222.02274 224.11718
 226.18862 228.28406 230.39250 232.50994 234.65038 236.83382 239.10126 241.48270
 244.11514 246.37758 248.39102 250.16746 251.59590 252.73034 253.56378 253.89122
 253.93966 253.72510 253.09654 252.05598 250.67342 248.84586 246.76630 244.61074
 242.41318 240.22862 238.06006 235.91050 233.78194 231.66038 229.69782 227.86626
 226.16070 224.64413 223.28557 222.06901 220.96245 219.93389 219.04933 218.20177
 217.45521 216.64665 215.75609 215.13153 214.59297 214.60788 214.64310 216.27563
 218.81653 220.22115 220.76828 220.37048 220.60747 222.50197 226.11952 229.00807
 231.33904 233.87360 237.13275 241.05969 245.01440 248.76900 252.28082 255.54202
 258.65781 261.71014 264.70749 267.51407 270.10294 272.41055 274.42032 276.22296
 277.88223 279.44461 280.90939 282.26407 283.44806 284.49905 285.46152 286.34024
 287.13858 287.86057 288.49005 289.30148
 366.78100 356.34518 345.78736 334.66353 323.07671 311.28089 299.16107 286.97425
 274.69643 262.60360 250.62278 239.93396 230.06614 221.18032 213.37250 206.38467
 200.22885 195.17703 191.76921 189.82139 188.86857 188.94274 189.78792 191.10610
 192.84128 194.94646 197.21964 199.58881 202.04399 204.53417 206.63235 208.48453
 210.12070 211.27588 211.51506 211.75324 211.70042 211.41560 211.05877 210.69895
 210.32613 210.04631 209.86449 209.73867 209.67684 210.01802 210.41420 210.81338
 211.61656 212.80474 214.06491 215.85809 217.79627 219.84945 221.95463 224.04781
 226.11798 228.21216 230.31934 232.43552 234.57470 236.75687 239.02305 241.40323
 244.03441 246.29559 248.30777 250.08294 251.51012 252.64330 253.47548 253.80166
 253.84884 253.63301 253.00319 251.96137 250.57755 248.74873 246.66791 244.51108
 242.31226 240.12644 237.95662 235.80580 233.67598 231.55315 229.58933 227.75651
 226.04969 224.53187 223.17204 221.95422 220.84640 219.81658 218.93076 218.08194
 217.33411 216.52429 215.63247 215.00665 214.46683 214.53397 214.69258 216.36281
 218.85966 220.23698 220.73567 220.28487 220.48947 222.38814 226.00049 228.88190
 231.23935 233.85074 237.20651 241.21053 245.19179 248.92365 252.38922 255.60843
 258.68353 261.71240 264.68292 267.42645 269.93890 272.17679 274.15335 275.97827
 277.70337 279.30170 280.77625 282.12341 283.30267 284.35202 285.31027 286.18716
 286.98294 287.70096 288.32684 289.14050
 366.78100 356.34488 345.78675 334.66263 323.07551 311.27939 299.15926 286.97214
 274.69402 262.60089 250.61977 239.93065 230.06253 221.17640 213.36828 206.38016
 200.22404 195.17191 191.76379 189.81567 188.86254 188.93642 189.78130 191.09918
 192.83405 194.93893 197.21181 199.58068 202.03556 204.52544 206.62332 208.47519
 210.11107 211.26595 211.50483 211.74270 211.68958 211.40446 211.04733 210.68721
 210.31409 210.03397 209.85184 209.72572 209.66360 210.00447 210.40035 210.79923
 211.60211 212.78998 214.04986 215.84274 217.78062 219.83349 221.93837 224.03125
 226.10112 228.19500 230.30188 232.41776 234.55663 236.73851 239.00439 241.38426
 244.01514 246.27602 248.28790 250.06277 251.48965 252.62253 253.45441 253.78028
 253.82716 253.61104 252.98091 251.93879 250.55467 248.72555 246.64442 244.48730
 242.28818 240.10205 237.93193 235.78081 233.65069 231.52756 229.56344 227.73032
 226.02320 224.50507 223.14495 221.92683 220.81870 219.78858 218.90246 218.05334
 217.30521 216.49509 215.60297 214.97684 214.43672 214.50633 214.67078 216.46240
 218.98293 220.30197 220.71965 220.18512 220.33971 222.23187 225.83281 228.69568
 231.08629 233.79378 237.26457 241.35706 245.36797 249.08813 252.52049 255.70436
 258.74637 261.75140 264.69690 267.38574 269.83728 272.00494 273.92935 275.81958
 277.54797 279.12067 280.55429 281.87131 283.04434 284.09045 285.04797 285.91898
 286.71310 287.42661 288.05359 288.87018
 366.78100 356.34558 345.78815 334.66473 323.07830 311.28288 299.16346 286.97703
 274.69961 262.60718 250.62676 239.93834 230.07091 221.18549 213.37806 206.39064
 200.23521 195.18379 191.77637 189.82894 188.87652 188.95109 189.79667 191.11525
 192.85082 194.95640 197.22997 199.59955 202.05513 204.54570 206.64428 208.49685
 210.13343 211.28901 211.52858 211.76716 211.71473 211.43031 211.07388 210.71446
 210.34204 210.06261 209.88119 209.75576 209.69434 210.03592 210.43249 210.83207
 211.63564 212.82422 214.08480 215.87837 217.81695 219.87052 221.97610 224.06968
 226.14025 228.23483 230.34240 232.45898 234.59856 236.78113 239.04771 241.42828
 244.05986 246.32143 248.33401 250.10959 251.53716 252.67074 253.50331 253.82989
 253.87747 253.66204 253.03262 251.99119 250.60777 248.77935 246.69892 244.54250
 242.34407 240.15865 237.98923 235.83880 233.70938 231.58695 229.62353 227.79110
 226.08468 224.56726 223.20783 221.99041 220.88298 219.85356 218.96814 218.11971
 217.37229 216.56286 215.67144 215.04602 214.50659 214.53474 214.60124 216.51195
 219.16696 220.44576 220.76297 220.11531 220.19034 222.05621 225.63162 228.45912
 230.87988 233.68567 237.27995 241.46727 245.51077 249.21419 252.61115 255.76913
 258.79214 261.79300 264.74350 267.41864 269.86191 272.01566 273.82471 275.80765
 277.46356 278.92859 280.25009 281.47629 282.61325 283.64795 284.59857 285.46973
 286.26248 286.97882 287.60809 288.43277
 366.78100 356.34609 345.78919 334.66628 323.08038 311.28547 299.16656 286.98066
 274.70375 262.61184 250.63194 239.94403 230.07713 221.19222 213.38531 206.39841
 200.24350 195.19259 191.78569 189.83878 188.88688 188.96197 189.80806 191.12716
 192.86325 194.96935 197.24344 199.61353 202.06963 204.56072 206.65981 208.51291
 210.15000 211.30610 211.54619 211.78528 211.73338 211.44947 211.09356 210.73466
 210.36275 210.08385 209.90294 209.77803 209.71713 210.05922 210.45631 210.85641
 211.66050 212.84960 214.11069 215.90478 217.84388 219.89797 222.00407 224.09816
 226.16925 228.26435 230.37244 232.48953 234.62963 236.81272 239.07982 241.46091
 244.09300 246.35510 248.36819 250.14428 251.57238 252.70647 253.53957 253.86666
 253.91475 253.69985 253.07094 252.03004 250.64713 248.81922 246.73932 244.58341
 242.38550 240.20060 238.03169 235.88179 233.75288 231.63097 229.66807 227.83616
 226.13025 224.61335 223.25444 222.03754 220.93063 219.90172 219.01682 218.16891
 217.42200 216.61310 215.72219 215.09729 214.55838 214.55905 214.56061 216.49843
 219.30011 220.62779 220.88879 220.12117 220.08261 221.89948 225.43376 228.21904
 230.66356 233.55867 237.26599 241.54398 245.60692 249.28329 252.64745 255.78819
 258.80197 261.81674 264.78705 267.44901 269.87869 272.01752 273.74664 275.87503
 277.47855 278.86249 280.08398 281.18222 282.21832 283.23172 284.18155 285.05081
 285.84573 286.56570 287.20355 288.03690
 366.78100 356.34540 345.78780 334.66419 323.07759 311.28199 299.16239 286.97579
 274.69819 262.60558 250.62498 239.93638 230.06878 221.18318 213.37557 206.38797
 200.23237 195.18077 191.77317 189.82556 188.87296 188.94736 189.79276 191.11116
 192.84656 194.95195 197.22535 199.59475 202.05015 204.54055 206.63894 208.49134
 210.12774 211.28314 211.52254 211.76094 211.70833 211.42373 211.06713 210.70753
 210.33493 210.05532 209.87372 209.74812 209.68652 210.02792 210.42432 210.82371
 211.62711 212.81551 214.07591 215.86931 217.80770 219.86110 221.96650 224.05990
 226.13030 228.22469 230.33209 232.44849 234.58789 236.77029 239.03669 241.41708
 244.04848 246.30988 248.32228 250.09768 251.52507 252.65847 253.49087 253.81727
 253.86467 253.64907 253.01946 251.97786 250.59426 248.76566 246.68506 244.52845
 242.32985 240.14425 237.97465 235.82405 233.69444 231.57184 229.60824 227.77564
 226.06904 224.55144 223.19183 221.97423 220.86663 219.83703 218.95143 218.10282
 217.35522 216.54562 215.65402 215.02842 214.48882 214.52463 214.60925 216.48515
 219.26840 220.71989 221.02615 220.20715 220.05545 221.80634 225.28453 228.02933
 230.49072 233.45619 237.25659 241.59940 245.68410 249.32259 252.63983 255.75748
 258.77975 261.80945 264.78815 267.43875 269.85214 271.97842 273.76895 275.92426
 277.50504 278.82495 279.99823 281.02240 281.98599 283.00195 283.95636 284.82849
 285.62973 286.35446 286.98880 287.81274
 366.78100 356.34407 345.78514 334.66021 323.07228 311.27535 299.15442 286.96649
 274.68757 262.59364 250.61171 239.92178 230.05285 221.16592 213.35699 206.36806
 200.21113 195.15820 191.74927 189.80034 188.84641 188.91948 189.76355 191.08062
 192.81470 194.91877 197.19084 199.55891 202.01298 204.50205 206.59912 208.45019
 210.08526 211.23933 211.47740 211.71447 211.66054 211.37461 211.01668 210.65575
 210.28183 210.00090 209.81797 209.69104 209.62811 209.96818 210.36325 210.76132
 211.56339 212.75046 214.00953 215.80160 217.73867 219.79074 221.89481 223.98689
 226.05596 228.14903 230.25510 232.37017 234.50824 236.68931 238.95438 241.33345
 243.96352 246.22359 248.23466 250.00873 251.43480 252.56687 253.39794 253.72302
 253.76909 253.55216 252.92123 251.87830 250.49337 248.66344 246.58151 244.42358
 242.22365 240.03672 237.86579 235.71386 233.58293 231.45900 229.49407 227.66015
 225.95222 224.43329 223.07236 221.85343 220.74450 219.71357 218.82664 217.97671
 217.22778 216.41685 215.52392 214.89699 214.35606 214.46284 214.71512 216.51085
 219.14763 220.69086 221.06685 220.24683 220.01945 221.73749 225.17935 227.90527
 230.38867 233.41626 237.28204 241.69350 245.77179 249.36661 252.65639 255.77397
 258.79395 261.82669 264.82513 267.47586 269.88901 271.97064 273.87097 275.93317
 277.48270 278.77927 279.93591 280.95294 281.88748 282.82422 283.76398 284.63635
 285.44751 286.18451 286.80264 287.63477
 366.78100 356.34346 345.78393 334.65839 323.06985 311.27232 299.15078 286.96224
 274.68271 262.58817 250.60563 239.91510 230.04556 221.15803 213.34849 206.35895
 200.20142 195.14788 191.73834 189.78881 188.83427 188.90673 189.75020 191.06666
 192.80012 194.90359 197.17505 199.54251 201.99598 204.48444 206.58090 208.43137
 210.06583 211.21930 211.45676 211.69322 211.63869 211.35215 210.99361 210.63208
 210.25754 209.97600 209.79247 209.66493 209.60139 209.94086 210.33532 210.73278
 211.53425 212.72071 213.97917 215.77064 217.70710 219.75857 221.86203 223.95349
 226.02196 228.11442 230.21988 232.33435 234.47181 236.65227 238.91674 241.29520
 243.92466 246.18413 248.19459 249.96805 251.39352 252.52498 253.35544 253.67991
 253.72537 253.50783 252.87630 251.83276 250.44723 248.61669 246.53415 244.37562
 242.17508 239.98754 237.81601 235.66347 233.53193 231.40740 229.44186 227.60732
 225.89879 224.37925 223.01771 221.79818 220.68864 219.65710 218.76957 217.91903
 217.16950 216.35796 215.46442 214.83689 214.29535 214.43997 214.78163 216.54124
 219.08701 220.67953 221.08575 220.24693 219.94035 221.61896 225.01515 227.70609
 230.22751 233.33766 237.29280 241.75278 245.90416 249.50522 252.79558 255.91461
 258.93011 261.95898 264.90067 267.49973 269.86032 271.94659 273.92673 275.86121
 277.36633 278.56097 279.70517 280.71088 281.62222 282.62680 283.59055 284.47165
 285.26596 285.96350 286.58109 287.39984
 366.78100 356.34288 345.78275 334.65663 323.06751 311.26939 299.14726 286.95814
 274.67802 262.58290 250.59977 239.90865 230.03853 221.15040 213.34028 206.35016
 200.19204 195.13791 191.72779 189.77767 188.82254 188.89442 189.73730 191.05318
 192.78605 194.88893 197.15981 199.52669 201.97956 204.46744 206.56332 208.41319
 210.04707 211.19995 211.43683 211.67270 211.61758 211.33046 210.97134 210.60921
 210.23409 209.95197 209.76784 209.63972 209.57560 209.91448 210.30835 210.70523
 211.50611 212.69199 213.94986 215.74074 217.67662 219.72749 221.83037 223.92125
 225.98913 228.08100 230.18588 232.29976 234.43663 236.61651 238.88039 241.25827
 243.88714 246.14602 248.15590 249.92878 251.35365 252.48453 253.31441 253.63828
 253.68316 253.46504 252.83292 251.78879 250.40267 248.57155 246.48843 244.32930
 242.12818 239.94006 237.76793 235.61481 233.48269 231.35757 229.39144 227.55632
 225.84720 224.32708 222.96495 221.74483 220.63471 219.60258 218.71446 217.86334
 217.11322 216.30109 215.40697 214.77885 214.23672 214.42039 214.85432 216.56744
 219.01125 220.69154 221.15285 220.29689 219.89899 221.53792 224.87653 227.51387
 230.04350 233.23045 237.26138 241.78096 245.99525 249.61632 252.89175 255.99901
 259.00684 262.01483 264.88763 267.45465 269.77283 271.88818 273.90259 275.72064
 277.19022 278.35254 279.51382 280.52756 281.46634 282.48035 283.44501 284.32391
 285.09781 285.79022 286.40643 287.22684
 366.78100 356.34283 345.78266 334.65650 323.06733 311.26916 299.14699 286.95783
 274.67766 262.58249 250.59932 239.90815 230.03799 221.14982 213.33965 206.34948
 200.19132 195.13715 191.72698 189.77681 188.82164 188.89348 189.73631 191.05214
 192.78497 194.88781 197.15864 199.52547 201.97830 204.46613 206.56197 208.41180
 210.04563 211.19846 211.43530 211.67113 211.61596 211.32879 210.96962 210.60746
 210.23229 209.95012 209.76595 209.63779 209.57362 209.91245 210.30628 210.70312
 211.50395 212.68978 213.94761 215.73844 217.67428 219.72511 221.82794 223.91877
 225.98661 228.07844 230.18327 232.29710 234.43393 236.61377 238.87760 241.25543
 243.88426 246.14310 248.15293 249.92576 251.35059 252.48142 253.31126 253.63509
 253.67992 253.46175 252.82959 251.78542 250.39925 248.56808 246.48491 244.32575
 242.12458 239.93641 237.76424 235.61108 233.47891 231.35374 229.38757 227.55240
 225.84324 224.32307 222.96090 221.74073 220.63057 219.59840 218.71023 217.85906
 217.10889 216.29673 215.40256 214.77439 214.23222 214.42912 214.89435 216.64322
 218.97394 220.65381 221.19385 220.36586 219.90254 221.47833 224.74023 227.33665
 229.90178 233.16554 237.26611 241.82561 246.03975 249.65833 252.94095 256.04959
 259.06357 262.06644 264.91013 267.44858 269.74646 271.87076 273.84753 275.63077
 277.05099 278.17432 279.34259 280.36780 281.28735 282.30032 283.26407 284.08936
 284.80762 285.49976 286.12952 286.96716
 366.78100 356.34571 345.78842 334.66513 323.07884 311.28355 299.16426 286.97797
 274.70068 262.60839 250.62810 239.93981 230.07252 221.18722 213.37993 206.39264
 200.23735 195.18606 191.77877 189.83148 188.87919 188.95390 189.79961 191.11832
 192.85403 194.95974 197.23345 199.60316 202.05887 204.54958 206.64829 208.50100
 210.13771 211.29342 211.53313 211.77184 211.71955 211.43525 211.07896 210.71967
 210.34738 210.06809 209.88680 209.76151 209.70022 210.04193 210.43864 210.83835
 211.64206 212.83077 214.09148 215.88519 217.82390 219.87761 221.98332 224.07703
 226.14774 228.24245 230.35016 232.46687 234.60658 236.78928 239.05599 241.43670
 244.06841 246.33012 248.34283 250.11854 251.54625 252.67996 253.51267 253.83938
 253.88709 253.67180 253.04251 252.00122 250.61793 248.78964 246.70935 244.55306
 242.35477 240.16948 238.00019 235.84990 233.72061 231.59831 229.63502 227.80273
 226.09644 224.57915 223.21986 222.00257 220.89528 219.86599 218.98070 218.13241
 217.38512 216.57583 215.68454 215.05925 214.51996 214.60497 214.80582 216.59119
 219.18550 220.87457 221.29283 220.31528 219.72820 221.33093 224.56215 227.08144
 229.66785 232.99669 237.19658 241.82430 246.10188 249.68170 252.90955 256.02322
 259.02832 262.07687 264.90851 267.44080 269.75327 271.89481 273.84485 275.61572
 277.08057 278.23083 279.37100 280.40155 281.27267 282.11813 283.00482 283.75000
 284.42212 285.11923 285.79581 286.68719
 366.78100 356.34857 345.79413 334.67370 323.09026 311.29783 299.18140 286.99796
 274.72353 262.63410 250.65666 239.97123 230.10679 221.22436 213.41993 206.43549
 200.28306 195.23463 191.83019 189.88576 188.93632 189.01389 189.86246 191.18402
 192.92259 195.03115 197.30772 199.68029 202.13885 204.63242 206.73399 208.58955
 210.22912 211.38768 211.63025 211.87182 211.82238 211.54095 211.18751 210.83108
 210.46165 210.18521 210.00678 209.88435 209.82591 210.17048 210.57004 210.97261
 211.77918 212.97074 214.23431 216.03088 217.97244 220.02901 222.13757 224.23414
 226.30771 228.40527 230.51584 232.63540 234.77797 236.96354 239.23310 241.61667
 244.25124 246.51580 248.53137 250.30993 251.74050 252.87707 253.71263 254.04220
 254.09277 253.88033 253.25390 252.21546 250.83503 249.00960 246.93216 244.77873
 242.58329 240.40086 238.23443 236.08699 233.96056 231.84113 229.88069 228.05126
 226.34782 224.83339 223.47696 222.26252 221.15809 220.13166 219.24922 218.40379
 217.65935 216.85292 215.96449 215.34205 214.80562 214.80577 214.86371 216.45932
 219.09346 220.72905 221.24315 220.26328 219.52888 221.10739 224.27945 227.07620
 229.56779 232.99448 237.25510 241.80153 245.96770 249.59430 252.89723 256.03485
 259.11649 262.12790 264.93781 267.49390 269.83279 271.96307 273.92923 275.66364
 277.10776 278.39774 279.52084 280.51025 281.41483 282.25363 283.15134 284.02704
 284.81464 285.51599 286.12869 286.90952
 366.78100 356.34556 345.78811 334.66467 323.07822 311.28278 299.16334 286.97689
 274.69945 262.60700 250.62656 239.93812 230.07067 221.18523 213.37778 206.39034
 200.23489 195.18345 191.77601 189.82856 188.87612 188.95067 189.79623 191.11479
 192.85034 194.95590 197.22945 199.59901 202.05457 204.54512 206.64368 208.49623
 210.13279 211.28835 211.52790 211.76646 211.71401 211.42957 211.07313 210.71368
 210.34124 210.06179 209.88035 209.75490 209.69346 210.03502 210.43157 210.83113
 211.63468 212.82324 214.08380 215.87735 217.81591 219.86946 221.97502 224.06858
 226.13913 228.23369 230.34124 232.45780 234.59736 236.77991 239.04647 241.42702
 244.05858 246.32014 248.33269 250.10825 251.53580 252.66936 253.50192 253.82847
 253.87603 253.66058 253.03114 251.98969 250.60625 248.77781 246.69736 244.54092
 242.34247 240.15703 237.98759 235.83714 233.70770 231.58525 229.62181 227.78937
 226.08292 224.56548 223.20603 221.98859 220.88115 219.85170 218.96626 218.11781
 217.37037 216.56093 215.66948 215.04404 214.50459 214.70303 215.22939 216.41275
 218.67085 220.50856 221.25491 220.54437 220.04413 221.33902 224.32587 227.18961
 229.68008 233.13136 237.37361 241.87006 245.88289 249.49910 252.89964 256.11035
 259.20853 262.21478 265.01709 267.59702 269.94708 272.10556 274.09088 275.82825
 277.32205 278.57443 279.60629 280.67749 281.92242 283.05106 284.08075 285.01358
 285.85257 286.59970 287.25238 288.08414
 366.78100 356.34113 345.77925 334.65138 323.06051 311.26064 299.13676 286.94589
 274.66402 262.56714 250.58227 239.88940 230.01753 221.12765 213.31578 206.32391
 200.16404 195.10816 191.69629 189.74442 188.78754 188.85767 189.69880 191.01293
 192.74405 194.84518 197.11431 199.47943 201.93056 204.41669 206.51082 208.35894
 209.99107 211.14220 211.37733 211.61145 211.55458 211.26571 210.90483 210.54096
 210.16409 209.88022 209.69434 209.56447 209.49860 209.83572 210.22785 210.62298
 211.42211 212.60623 213.86236 215.65149 217.58562 219.63474 221.73587 223.82500
 225.89112 227.98125 230.08438 232.19651 234.33163 236.50976 238.77189 241.14801
 243.77514 246.03227 248.04040 249.81152 251.23465 252.36378 253.19191 253.51403
 253.55716 253.33729 252.70341 251.65754 250.26967 248.43680 246.35192 244.19105
 241.98818 239.79830 237.62443 235.46956 233.33569 231.20881 229.24094 227.40407
 225.69320 224.17132 222.80745 221.58558 220.47370 219.43983 218.54996 217.69709
 216.94521 216.13134 215.23547 214.60559 214.06172 214.50208 215.54604 216.47263
 218.18443 220.16008 221.25978 220.71242 220.21320 221.46446 224.42746 227.27180
 229.74257 233.18933 237.44351 241.90775 245.83621 249.43481 252.85208 256.05887
 259.26242 262.24307 265.01675 267.57864 269.93170 272.10141 274.08804 275.88611
 277.43991 278.74918 279.89194 281.08130 282.24857 283.29071 284.24149 285.10281
 285.87750 286.56735 287.16998 287.93799
 366.78100 356.34012 345.77723 334.64835 323.05646 311.25558 299.13070 286.93881
 274.65593 262.55804 250.57216 239.87827 230.00539 221.11451 213.30162 206.30874
 200.14785 195.09097 191.67809 189.72520 188.76732 188.83643 189.67655 190.98966
 192.71978 194.81990 197.08801 199.45213 201.90224 204.38736 206.48048 208.32759
 209.95871 211.10882 211.34294 211.57606 211.51817 211.22829 210.86640 210.50152
 210.12363 209.83875 209.65187 209.52098 209.45410 209.79021 210.18133 210.57545
 211.37356 212.55668 213.81179 215.59991 217.53303 219.58114 221.68126 223.76937
 225.83449 227.92360 230.02572 232.13684 234.27095 236.44807 238.70918 241.08430
 243.71042 245.96653 247.97365 249.74376 251.16588 252.29399 253.12111 253.44223
 253.48434 253.26346 252.62857 251.58169 250.19281 248.35892 246.27304 244.11115
 241.90727 239.71639 237.54150 235.38562 233.25073 231.12285 229.15396 227.31608
 225.60420 224.08131 222.71643 221.49354 220.38066 219.34578 218.45489 217.60101
 216.84812 216.03324 215.13635 214.50547 213.96059 214.47134 215.67252 216.56693
 218.01465 219.97505 221.28914 220.81967 220.18945 221.37117 224.29858 227.11830
 229.62656 233.14417 237.45564 241.88234 245.74835 249.32373 252.88013 256.22586
 259.40396 262.33246 265.06473 267.51013 269.73499 271.81277 273.78680 275.58386
 277.15707 278.49170 279.72452 280.91943 281.99933 282.94769 283.81293 284.59677
 285.30176 285.92957 286.47800 287.17691
 366.78100 356.34014 345.77728 334.64842 323.05656 311.25570 299.13084 286.93898
 274.65612 262.55827 250.57241 239.87855 230.00569 221.11483 213.30197 206.30911
 200.14825 195.09139 191.67853 189.72567 188.76781 188.83695 189.67709 190.99023
 192.72037 194.82051 197.08866 199.45280 201.90294 204.38808 206.48122 208.32836
 209.95950 211.10964 211.34378 211.57692 211.51906 211.22920 210.86734 210.50248
 210.12462 209.83976 209.65290 209.52205 209.45519 209.79133 210.18247 210.57661
 211.37475 212.55789 213.81303 215.60117 217.53431 219.58245 221.68259 223.77073
 225.83587 227.92501 230.02715 232.13829 234.27244 236.44958 238.71072 241.08586
 243.71200 245.96814 247.97528 249.74542 251.16756 252.29570 253.12284 253.44398
 253.48612 253.26526 252.63040 251.58354 250.19468 248.36083 246.27497 244.11311
 241.90925 239.71839 237.54353 235.38767 233.25281 231.12495 229.15609 227.31823
 225.60637 224.08351 222.71865 221.49579 220.38293 219.34807 218.45721 217.60336
 216.85050 216.03564 215.13878 214.50792 213.96306 214.50645 215.77283 216.60521
 217.87617 219.86438 221.40741 221.04851 220.33784 221.32668 224.14197 226.90463
 229.47778 233.10150 237.49870 241.91234 245.73381 249.26663 252.83252 256.37283
 259.51624 262.42279 265.12906 267.52835 269.63812 271.64606 273.60910 275.36493
 276.93408 278.28970 279.48386 280.68005 281.83475 282.85632 283.78836 284.63275
 285.39215 286.06842 286.65918 287.41208
 366.78100 356.34138 345.77977 334.65215 323.06154 311.26192 299.13831 286.94769
 274.66608 262.56946 250.58484 239.89223 230.02061 221.13100 213.31938 206.32777
 200.16815 195.11254 191.70092 189.74931 188.79269 188.86307 189.70446 191.01884
 192.75023 194.85161 197.12100 199.48638 201.93777 204.42415 206.51853 208.36692
 209.99930 211.15069 211.38607 211.62046 211.56384 211.27523 210.91461 210.55099
 210.17438 209.89076 209.70515 209.57553 209.50992 209.84730 210.23969 210.63507
 211.43446 212.61884 213.87522 215.66461 217.59899 219.64838 221.74976 223.83915
 225.90553 227.99592 230.09930 232.21168 234.34707 236.52545 238.78784 241.16422
 243.79161 246.04899 248.05738 249.82876 251.25214 252.38153 253.20991 253.53230
 253.57568 253.35607 252.72245 251.67684 250.28922 248.45661 246.37199 244.21137
 242.00876 239.81914 237.64553 235.49091 233.35730 231.23068 229.26307 227.42645
 225.71583 224.19422 222.83060 221.60899 220.49737 219.46376 218.57414 217.72153
 216.96991 216.15629 215.26068 214.63106 214.08745 214.60629 215.82388 216.67223
 217.74873 219.65376 221.33018 221.13771 220.44948 221.34541 224.09142 226.80786
 229.43063 233.13344 237.58888 241.98418 245.79227 249.29077 252.89059 256.43967
 259.55435 262.46393 265.17813 267.59189 269.68982 271.70853 273.64301 275.40140
 276.93320 278.21558 279.40948 280.77390 281.98502 283.05655 284.03415 284.91977
 285.71631 286.42563 287.04529 287.83496
 366.78100 356.34274 345.78248 334.65623 323.06697 311.26871 299.14645 286.95719
 274.67694 262.58168 250.59842 239.90716 230.03690 221.14864 213.33839 206.34813
 200.18987 195.13561 191.72535 189.77510 188.81984 188.89158 189.73432 191.05006
 192.78281 194.88555 197.15629 199.52303 201.97577 204.46352 206.55926 208.40900
 210.04274 211.19548 211.43222 211.66797 211.61271 211.32545 210.96619 210.60393
 210.22868 209.94642 209.76216 209.63390 209.56964 209.90839 210.30213 210.69887
 211.49961 212.68535 213.94310 215.73384 217.66958 219.72032 221.82306 223.91380
 225.98155 228.07329 230.17803 232.29177 234.42851 236.60826 238.87200 241.24974
 243.87848 246.13722 248.14697 249.91971 251.34445 252.47519 253.30493 253.62868
 253.67342 253.45516 252.82290 251.77864 250.39238 248.56113 246.47787 244.31861
 242.11735 239.92909 237.75684 235.60358 233.47132 231.34606 229.37980 227.54455
 225.83529 224.31503 222.95277 221.73251 220.62226 219.59000 218.70174 217.85048
 217.10022 216.28796 215.39371 214.76545 214.22319 214.71381 215.86850 216.70036
 217.73248 219.55714 221.16736 221.00951 220.40810 221.32085 224.06386 226.74632
 229.42445 233.18640 237.68164 242.05365 245.83302 249.33713 252.94490 256.41425
 259.51773 262.50613 265.24448 267.67297 269.77292 271.72366 273.58026 275.27936
 276.85596 278.13663 279.53549 280.96982 282.21112 283.30939 284.31134 285.21909
 286.03546 286.76248 287.39755 288.20691
 366.78100 356.34186 345.78072 334.65358 323.06344 311.26430 299.14117 286.95103
 274.66989 262.57375 250.58961 239.89747 230.02633 221.13719 213.32605 206.33491
 200.17577 195.12063 191.70950 189.75836 188.80222 188.87308 189.71494 191.02980
 192.76166 194.86352 197.13338 199.49924 201.95110 204.43796 206.53283 208.38169
 210.01455 211.16641 211.40227 211.63713 211.58099 211.29285 210.93271 210.56957
 210.19343 209.91030 209.72516 209.59602 209.53088 209.86874 210.26160 210.65746
 211.45732 212.64218 213.89904 215.68890 217.62376 219.67363 221.77549 223.86535
 225.93221 228.02307 230.12693 232.23979 234.37565 236.55451 238.81737 241.19423
 243.82210 246.07996 248.08882 249.86068 251.28454 252.41440 253.24326 253.56612
 253.60998 253.39084 252.75770 251.71256 250.32543 248.49329 246.40915 244.24901
 242.04687 239.85773 237.68459 235.53045 233.39731 231.27117 229.30403 227.46789
 225.75776 224.23662 222.87348 221.65234 220.54120 219.50806 218.61892 217.76678
 217.01564 216.20250 215.30736 214.67823 214.13509 214.71674 216.02798 216.66290
 217.63170 219.65173 221.27271 220.93701 220.24834 221.21068 224.03279 226.62851
 229.36519 233.19855 237.70616 242.00087 245.79794 249.38318 253.01352 256.52069
 259.56787 262.47803 265.21167 267.68915 269.77316 271.75418 273.56973 275.13269
 276.65216 278.38943 280.02994 281.47046 282.71710 283.82004 284.82632 285.73795
 286.55783 287.28796 287.92578 288.73862
 366.78100 356.34153 345.78006 334.65258 323.06211 311.26264 299.13917 286.94870
 274.66723 262.57075 250.58628 239.89381 230.02234 221.13287 213.32140 206.32992
 200.17045 195.11498 191.70351 189.75204 188.79556 188.86609 189.70762 191.02215
 192.75368 194.85521 197.12473 199.49026 201.94179 204.42832 206.52285 208.37137
 210.00390 211.15543 211.39096 211.62549 211.56902 211.28054 210.92007 210.55660
 210.18013 209.89666 209.71119 209.58171 209.51624 209.85377 210.24630 210.64183
 211.44135 212.62588 213.88241 215.67194 217.60647 219.65600 221.75752 223.84705
 225.91358 228.00411 230.10764 232.22016 234.35569 236.53422 238.79675 241.17328
 243.80081 246.05833 248.06686 249.83839 251.26192 252.39145 253.21998 253.54250
 253.58603 253.36656 252.73309 251.68762 250.30014 248.46767 246.38320 244.22273
 242.02026 239.83079 237.65731 235.50284 233.36937 231.24290 229.27543 227.43896
 225.72848 224.20701 222.84354 221.62207 220.51060 219.47712 218.58765 217.73518
 216.98371 216.17024 215.27477 214.64529 214.10182 214.74094 216.15419 216.67445
 217.40460 219.53650 221.39549 220.98329 220.10016 221.07977 224.03755 226.62383
 229.41565 233.28273 237.75621 242.01616 245.84145 249.49252 253.14717 256.60614
 259.62656 262.47388 265.17819 267.63541 269.72552 271.78699 273.60275 275.27774
 277.13144 279.06641 280.74078 282.21103 283.48337 284.60907 285.63614 286.56656
 287.40338 288.14856 288.79953 289.62915
 366.78100 356.34226 345.78153 334.65479 323.06505 311.26632 299.14358 286.95384
 274.67311 262.57737 250.59363 239.90190 230.03116 221.14242 213.33169 206.34095
 200.18221 195.12748 191.71674 189.76600 188.81027 188.88153 189.72379 191.03906
 192.77132 194.87358 197.14385 199.51011 201.96237 204.44964 206.54490 208.39417
 210.02743 211.17969 211.41596 211.65122 211.59548 211.30775 210.94801 210.58527
 210.20954 209.92680 209.74206 209.61333 209.54859 209.88685 210.28012 210.67638
 211.47664 212.66191 213.91917 215.70943 217.64470 219.69496 221.79722 223.88749
 225.95475 228.04601 230.15028 232.26354 234.39980 236.57907 238.84233 241.21959
 243.84786 246.10612 248.11538 249.88765 251.31191 252.44217 253.27144 253.59470
 253.63896 253.42023 252.78749 251.74275 250.35602 248.52428 246.44054 244.28081
 242.07907 239.89033 237.71760 235.56386 233.43112 231.30539 229.33865 227.50291
 225.79318 224.27244 222.90970 221.68897 220.57823 219.54550 218.65676 217.80502
 217.05429 216.24155 215.34681 214.71808 214.17534 214.80795 216.21696 216.73178
 217.27266 219.27258 221.26140 220.95570 220.06943 221.10788 224.03433 226.60181
 229.40839 233.33331 237.82330 242.06123 245.92041 249.61876 253.26604 256.68204
 259.70132 262.53510 265.25696 267.73578 269.84592 271.82800 273.67358 275.33496
 277.49213 279.45111 281.14627 282.63477 283.92291 285.06262 286.10242 287.04440
 287.89160 288.64606 289.30511 290.14502
 366.78100 356.34198 345.78096 334.65394 323.06393 311.26491 299.14189 286.95187
 274.67085 262.57483 250.59081 239.89880 230.02778 221.13876 213.32774 206.33672
 200.17770 195.12268 191.71167 189.76065 188.80463 188.87561 189.71759 191.03257
 192.76455 194.86654 197.13652 199.50250 201.95448 204.44146 206.53644 208.38542
 210.01840 211.17039 211.40637 211.64135 211.58533 211.29731 210.93729 210.57427
 210.19826 209.91524 209.73022 209.60120 209.53618 209.87416 210.26714 210.66313
 211.46311 212.64809 213.90507 215.69505 217.63003 219.68001 221.78200 223.87198
 225.93896 228.02994 230.13392 232.24690 234.38288 236.56187 238.82485 241.20183
 243.82981 246.08779 248.09677 249.86875 251.29274 252.42272 253.25170 253.57468
 253.61866 253.39964 252.76662 251.72161 250.33459 248.50257 246.41855 244.25853
 242.05651 239.86749 237.69448 235.54046 233.40744 231.28142 229.31440 227.47838
 225.76836 224.24735 222.88433 221.66331 220.55229 219.51927 218.63025 217.77823
 217.02721 216.21420 215.31918 214.69016 214.14714 214.82587 216.31020 216.73851
 217.16197 219.15424 221.21190 220.90849 219.92258 221.01958 223.92924 226.50194
 229.35028 233.36188 237.88707 242.09567 245.95938 249.69595 253.33936 256.72443
 259.74820 262.57059 265.27487 267.76752 269.89410 271.86020 273.70633 275.34198
 277.60211 279.61169 281.35068 282.87759 284.19904 285.36816 286.43481 287.40115
 288.27023 289.04416 289.72028 290.58188
 366.78100 356.34220 345.78140 334.65460 323.06480 311.26599 299.14319 286.95339
 274.67259 262.57679 250.59299 239.90119 230.03039 221.14159 213.33079 206.33998
 200.18118 195.12638 191.71558 189.76478 188.80898 188.88018 189.72238 191.03758
 192.76978 194.87197 197.14217 199.50837 201.96057 204.44777 206.54297 208.39217
 210.02537 211.17757 211.41377 211.64896 211.59316 211.30536 210.94556 210.58276
 210.20696 209.92416 209.73936 209.61056 209.54576 209.88395 210.27715 210.67335
 211.47355 212.65875 213.91595 215.70615 217.64135 219.69155 221.79375 223.88394
 225.95114 228.04234 230.14654 232.25974 234.39594 236.57514 238.83834 241.21554
 243.84374 246.10193 248.11113 249.88333 251.30753 252.43773 253.26693 253.59013
 253.63433 253.41553 252.78273 251.73792 250.35112 248.51932 246.43552 244.27572
 242.07392 239.88512 237.71232 235.55852 233.42572 231.29991 229.33311 227.49731
 225.78751 224.26671 222.90391 221.68311 220.57231 219.53951 218.65071 217.79890
 217.04810 216.23530 215.34050 214.71170 214.16890 214.86411 216.37927 216.77353
 216.99280 218.91187 221.09291 220.78281 219.88167 220.88573 223.83160 226.48373
 229.40089 233.47552 238.00768 242.21977 246.09801 249.86458 253.50639 256.88809
 259.93707 262.75125 265.41269 267.85745 269.97400 271.89594 273.66187 275.52200
 277.89459 279.92825 281.68805 283.23331 284.57059 285.75372 286.83316 287.81107
 288.69058 289.47379 290.15796 291.02991
 366.78100 356.34168 345.78036 334.65304 323.06272 311.26340 299.14008 286.94976
 274.66844 262.57212 250.58780 239.89548 230.02416 221.13484 213.32352 206.33220
 200.17288 195.11756 191.70624 189.75492 188.79860 188.86928 189.71096 191.02564
 192.75732 194.85900 197.12868 199.49436 201.94604 204.43272 206.52740 208.37608
 210.00876 211.16044 211.39612 211.63080 211.57448 211.28616 210.92584 210.56252
 210.18620 209.90288 209.71756 209.58824 209.52292 209.86060 210.25328 210.64895
 211.44863 212.63331 213.88999 215.67967 217.61435 219.66403 221.76571 223.85539
 225.92207 228.01275 230.11643 232.22911 234.36479 236.54347 238.80615 241.18283
 243.81051 246.06819 248.07687 249.84855 251.27223 252.40191 253.23059 253.55327
 253.59695 253.37763 252.74431 251.69899 250.31167 248.47935 246.39503 244.23471
 242.03239 239.84307 237.66975 235.51543 233.38211 231.25579 229.28847 227.45215
 225.74183 224.22051 222.85719 221.63587 220.52455 219.49123 218.60191 217.74959
 216.99827 216.18495 215.28963 214.66031 214.11699 214.86287 216.45735 216.81367
 216.98994 218.67386 220.63486 220.45781 219.73888 220.89180 223.84056 226.58232
 229.52139 233.60742 238.16473 242.37608 246.25021 250.01816 253.66603 257.05319
 260.12741 262.96048 265.61270 268.06177 270.21936 272.05753 273.62222 275.76907
 278.39432 280.64453 282.59171 284.30148 285.78116 287.09027 288.28467 289.36667
 290.33984 291.20645 291.96350 292.92825
 366.78100 356.34040 345.77780 334.64920 323.05761 311.25701 299.13241 286.94081
 274.65821 262.56061 250.57502 239.88142 230.00882 221.11822 213.30562 206.31302
 200.15242 195.09583 191.68323 189.73063 188.77303 188.84243 189.68283 190.99623
 192.72664 194.82704 197.09544 199.45984 201.91024 204.39564 206.48905 208.33645
 209.96785 211.11825 211.35265 211.58605 211.52845 211.23886 210.87726 210.51266
 210.13506 209.85046 209.66386 209.53326 209.46667 209.80307 210.19447 210.58887
 211.38727 212.57067 213.82608 215.61448 217.54788 219.59628 221.69668 223.78508
 225.85048 227.93989 230.04229 232.15369 234.28809 236.46549 238.72689 241.10230
 243.72870 245.98510 247.99250 249.76290 251.18530 252.31370 253.14111 253.46251
 253.50491 253.28431 252.64971 251.60311 250.21451 248.38092 246.29532 244.13372
 241.93012 239.73952 237.56492 235.40933 233.27473 231.14713 229.17853 227.34093
 225.62933 224.10673 222.74214 221.51954 220.40694 219.37234 218.48174 217.62814
 216.87554 216.06095 215.16435 214.53375 213.98915 214.81865 216.56076 216.80121
 216.98747 218.64491 220.46939 220.23599 219.51215 220.94069 223.74884 226.58472
 229.56992 233.65089 238.19153 242.38615 246.26926 250.04785 253.69223 257.04919
 260.10181 262.93414 265.59448 268.05258 270.25458 272.19702 273.66278 275.77863
 278.12131 280.19958 281.99799 283.57712 284.94370 286.15280 287.25592 288.25525
 289.15405 289.95444 290.65363 291.54468
 366.78100 356.34239 345.78179 334.65518 323.06557 311.26696 299.14436 286.95475
 274.67414 262.57853 250.59493 239.90332 230.03271 221.14410 213.33350 206.34289
 200.18428 195.12967 191.71907 189.76846 188.81285 188.88425 189.72664 191.04203
 192.77442 194.87682 197.14721 199.51360 201.96599 204.45339 206.54878 208.39817
 210.03156 211.18396 211.42035 211.65574 211.60013 211.31253 210.95292 210.59031
 210.21471 209.93210 209.74749 209.61888 209.55428 209.89267 210.28606 210.68245
 211.48285 212.66824 213.92563 215.71602 217.65142 219.70181 221.80420 223.89459
 225.96199 228.05338 230.15777 232.27117 234.40756 236.58695 238.85034 241.22774
 243.85613 246.11452 248.12391 249.89631 251.32070 252.45109 253.28048 253.60388
 253.64827 253.42966 252.79705 251.75245 250.36584 248.53423 246.45063 244.29102
 242.08941 239.90080 237.72820 235.57459 233.44198 231.31637 229.34977 227.51416
 225.80455 224.28394 222.92134 221.70073 220.59012 219.55751 218.66891 217.81730
 217.06669 216.25409 215.35948 214.73087 214.18826 214.92253 216.53352 216.88234
 216.84444 218.43254 220.41641 220.32828 219.56529 220.91837 223.64453 226.50412
 229.52341 233.67090 238.22516 242.39276 246.28642 250.09944 253.77226 257.11578
 260.13220 262.92633 265.55652 267.99338 270.20273 272.18973 273.77048 275.95648
 278.24310 280.27365 282.03073 283.57358 284.90878 286.09009 287.16785 288.14423
 289.02240 289.80438 290.48752 291.35809
 366.78100 356.34564 345.78829 334.66493 323.07857 311.28322 299.16386 286.97750
 274.70015 262.60779 250.62743 239.93908 230.07172 221.18636 213.37901 206.39165
 200.23629 195.18494 191.77758 189.83022 188.87787 188.95251 189.79815 191.11680
 192.85244 194.95808 197.23173 199.60137 202.05701 204.54766 206.64630 208.49894
 210.13559 211.29123 211.53087 211.76952 211.71716 211.43280 211.07645 210.71709
 210.34473 210.06538 209.88402 209.75866 209.69731 210.03895 210.43559 210.83524
 211.63888 212.82752 214.08817 215.88181 217.82045 219.87410 221.97974 224.07338
 226.14403 228.23867 230.34631 232.46296 234.60260 236.78525 239.05189 241.43253
 244.06418 246.32582 248.33846 250.11411 251.54175 252.67539 253.50804 253.83468
 253.88232 253.66697 253.03761 251.99625 250.61290 248.78454 246.70418 244.54783
 242.34947 240.16411 237.99476 235.84440 233.71504 231.59269 229.62933 227.79697
 226.09062 224.57326 223.21390 221.99655 220.88919 219.85983 218.97448 218.12612
 217.37876 216.56941 215.67805 215.05269 214.51334 215.08315 216.43262 217.02650
 216.83621 218.07753 219.89862 220.06245 219.64178 221.02750 223.65575 226.57590
 229.59752 233.75757 238.35066 242.54379 246.44788 250.27759 253.98341 257.33664
 260.36215 263.12668 265.70337 268.09851 270.29276 272.28891 273.99484 275.98279
 278.09024 280.01981 281.68951 283.15564 284.42447 285.54703 286.57120 287.49905
 288.33353 289.07663 289.72580 290.55310
 366.78100 356.34478 345.78657 334.66235 323.07514 311.27892 299.15870 286.97149
 274.69327 262.60005 250.61884 239.92962 230.06141 221.17519 213.36697 206.37876
 200.22254 195.17033 191.76211 189.81389 188.86068 188.93446 189.77924 191.09703
 192.83181 194.93660 197.20938 199.57816 202.03295 204.52273 206.62052 208.47230
 210.10808 211.26287 211.50165 211.73943 211.68622 211.40100 211.04379 210.68357
 210.31035 210.03014 209.84792 209.72170 209.65949 210.00027 210.39606 210.79484
 211.59762 212.78541 214.04519 215.83798 217.77576 219.82854 221.93333 224.02611
 226.09589 228.18968 230.29646 232.41225 234.55103 236.73281 238.99860 241.37838
 244.00917 246.26995 248.28173 250.05652 251.48330 252.61608 253.44787 253.77365
 253.82044 253.60422 252.97400 251.93179 250.54757 248.71836 246.63714 244.47992
 242.28071 240.09449 237.92427 235.77306 233.64284 231.51963 229.55541 227.72219
 226.01498 224.49676 223.13655 221.91833 220.81011 219.77990 218.89368 218.04446
 217.29625 216.48603 215.59382 214.96760 214.42738 215.05559 216.48613 217.01988
 216.94946 217.96596 219.40730 219.56357 219.51784 220.99794 223.54401 226.61980
 229.66716 233.85097 238.48457 242.70131 246.60588 250.44078 254.16528 257.55331
 260.57846 263.33749 265.88882 268.23859 270.41635 272.41568 274.23291 276.07236
 278.04041 279.97186 281.67044 283.16190 284.45264 285.59464 286.63651 287.58038
 288.42929 289.18524 289.84561 290.68719
 366.78100 356.34225 345.78150 334.65475 323.06500 311.26625 299.14350 286.95375
 274.67299 262.57724 250.59349 239.90174 230.03099 221.14224 213.33149 206.34074
 200.18199 195.12724 191.71649 189.76574 188.80999 188.88124 189.72349 191.03874
 192.77098 194.87323 197.14348 199.50973 201.96198 204.44923 206.54448 208.39373
 210.02698 211.17923 211.41548 211.65073 211.59498 211.30723 210.94748 210.58472
 210.20897 209.92622 209.74147 209.61272 209.54797 209.88622 210.27947 210.67572
 211.47597 212.66122 213.91847 215.70872 217.64397 219.69422 221.79646 223.88671
 225.95396 228.04521 230.14946 232.26271 234.39896 236.57821 238.84146 241.21871
 243.84696 246.10521 248.11446 249.88671 251.31096 252.44121 253.27045 253.59370
 253.63795 253.41920 252.78645 251.74170 250.35495 248.52320 246.43945 244.27970
 242.07795 239.88920 237.71645 235.56270 233.42995 231.30419 229.33744 227.50169
 225.79194 224.27119 222.90844 221.68769 220.57694 219.54419 218.65544 217.80369
 217.05294 216.24019 215.34544 214.71669 214.17393 214.94205 216.61513 216.93547
 216.99739 217.96907 219.19792 219.28847 219.41472 220.93118 223.48540 226.62360
 229.69258 233.91151 238.56990 242.77542 246.66666 250.49397 254.19768 257.57428
 260.60645 263.36520 265.91479 268.27664 270.47769 272.54565 274.46591 276.26059
 278.06448 279.87607 281.57919 283.07468 284.36890 285.51395 286.55862 287.50504
 288.35620 289.11420 289.77637 290.62021
 366.78100 356.34196 345.78092 334.65389 323.06385 311.26481 299.14177 286.95174
 274.67070 262.57466 250.59062 239.89858 230.02755 221.13851 213.32747 206.33643
 200.17739 195.12236 191.71132 189.76028 188.80424 188.87521 189.71717 191.03213
 192.76409 194.86605 197.13602 199.50198 201.95394 204.44090 206.53587 208.38483
 210.01779 211.16975 211.40571 211.64068 211.58464 211.29660 210.93656 210.57352
 210.19749 209.91445 209.72941 209.60037 209.53534 209.87330 210.26626 210.66222
 211.46218 212.64715 213.90411 215.69407 217.62903 219.67900 221.78096 223.87092
 225.93788 228.02884 230.13281 232.24577 234.38173 236.56069 238.82366 241.20062
 243.82858 246.08654 248.09550 249.86747 251.29143 252.42139 253.25035 253.57331
 253.61728 253.39824 252.76520 251.72016 250.33313 248.50109 246.41705 244.25701
 242.05497 239.86594 237.69290 235.53886 233.40582 231.27979 229.31275 227.47671
 225.76667 224.24563 222.88260 221.66156 220.55052 219.51748 218.62844 217.77641
 217.02537 216.21233 215.31729 214.68826 214.14522 214.93124 216.64171 216.92851
 216.98882 217.95645 219.15822 219.19601 219.29631 220.82471 223.43742 226.60283
 229.69006 233.96584 238.63391 242.82089 246.70676 250.54131 254.24075 257.57809
 260.56546 263.29126 265.85736 268.21594 270.44351 272.58282 274.57684 276.39621
 278.08377 279.86292 281.60059 283.13174 284.45682 285.62915 286.69876 287.66772
 288.53922 289.31528 289.99323 290.85721
 366.78100 356.34401 345.78501 334.66002 323.07202 311.27503 299.15403 286.96604
 274.68704 262.59305 250.61105 239.92106 230.05206 221.16507 213.35607 206.36708
 200.21008 195.15709 191.74809 189.79910 188.84510 188.91811 189.76211 191.07912
 192.81312 194.91713 197.18913 199.55714 202.01114 204.50015 206.59715 208.44816
 210.08316 211.23717 211.47517 211.71218 211.65818 211.37219 211.01419 210.65320
 210.27920 209.99821 209.81521 209.68822 209.62522 209.96523 210.36023 210.75824
 211.56024 212.74725 214.00625 215.79826 217.73526 219.78727 221.89127 223.98328
 226.05228 228.14529 230.25129 232.36630 234.50430 236.68531 238.95031 241.32932
 243.95932 246.21933 248.23033 250.00434 251.43034 252.56235 253.39335 253.71836
 253.76436 253.54737 252.91637 251.87338 250.48838 248.65839 246.57639 244.41840
 242.21840 240.03141 237.86041 235.70842 233.57742 231.45343 229.48843 227.65444
 225.94644 224.42745 223.06645 221.84746 220.73846 219.70747 218.82047 217.97048
 217.22148 216.41049 215.51749 214.89050 214.34950 215.03313 216.55199 216.98640
 216.97050 217.91029 219.17044 219.15625 219.12221 220.64246 223.33911 226.56622
 229.74736 234.03984 238.67198 242.88300 246.81331 250.69075 254.42294 257.75922
 260.70731 263.40179 265.92007 268.24637 270.47589 272.63004 274.63950 276.44116
 278.29968 280.28021 282.04486 283.59436 284.93530 286.12170 287.20413 288.18469
 289.06665 289.85199 290.53809 291.41241
 366.78100 356.34641 345.78981 334.66722 323.08162 311.28703 299.16844 286.98284
 274.70625 262.61465 250.63506 239.94746 230.08087 221.19628 213.38968 206.40309
 200.24849 195.19790 191.79131 189.84471 188.89312 188.96852 189.81493 191.13433
 192.87074 194.97715 197.25155 199.62196 202.07836 204.56977 206.66918 208.52258
 210.15999 211.31639 211.55680 211.79620 211.74461 211.46102 211.10542 210.74683
 210.37523 210.09664 209.91605 209.79145 209.73086 210.07326 210.47067 210.87107
 211.67548 212.86489 214.12629 215.92070 217.86010 219.91451 222.02092 224.11532
 226.18673 228.28213 230.39054 232.50794 234.64835 236.83176 239.09916 241.48057
 244.11297 246.37538 248.38879 250.16519 251.59360 252.72800 253.56141 253.88881
 253.93722 253.72263 253.09403 252.05344 250.67084 248.84325 246.76366 244.60806
 242.41047 240.22587 238.05728 235.90769 233.77909 231.65750 229.69490 227.86331
 226.15771 224.64112 223.28253 222.06593 220.95934 219.93074 219.04615 218.19856
 217.45196 216.64337 215.75277 215.12818 214.58958 215.14381 216.44000 217.07233
 217.01529 217.75685 218.95773 218.99417 219.00198 220.58614 223.33125 226.59004
 229.79416 234.12750 238.77927 243.00137 246.94972 250.83780 254.57675 257.91144
 260.86255 263.56668 266.09683 268.40530 270.62198 272.79507 274.85690 276.60962
 278.52621 280.50772 282.28021 283.83655 285.18344 286.37509 287.46231 288.44724
 289.33307 290.12192 290.81104 291.68924
 366.78100 356.34723 345.79147 334.66970 323.08494 311.29117 299.17340 286.98864
 274.71287 262.62211 250.64334 239.95657 230.09081 221.20704 213.40128 206.41551
 200.26174 195.21198 191.80621 189.86044 188.90968 188.98591 189.83315 191.15338
 192.89061 194.99785 197.27308 199.64432 202.10155 204.59378 206.69402 208.54825
 210.18649 211.34372 211.58495 211.82519 211.77442 211.49166 211.13689 210.77912
 210.40836 210.13059 209.95083 209.82706 209.76729 210.11053 210.50876 210.91000
 211.71523 212.90546 214.16770 215.96293 217.90316 219.95840 222.06563 224.16087
 226.23310 228.32933 230.43857 232.55680 234.69804 236.88227 239.15050 241.53274
 244.16597 246.42921 248.44344 250.22067 251.64991 252.78514 253.61938 253.94761
 253.99684 253.78308 253.15531 252.11555 250.73378 248.90701 246.82825 244.67348
 242.47672 240.29295 238.12518 235.97642 233.84865 231.72788 229.76612 227.93535
 226.23059 224.71482 223.35705 222.14129 221.03552 220.00776 219.12399 218.27722
 217.53146 216.72369 215.83393 215.21016 214.67239 215.17987 216.38341 217.11731
 217.18492 217.68433 218.63814 218.68590 218.82539 220.50131 223.27846 226.58656
 229.80287 234.19688 238.88913 243.11600 247.07120 250.94861 254.66057 257.97412
 260.93069 263.64685 266.19705 268.52051 270.73520 272.96146 275.03931 276.85107
 278.62729 280.44708 282.16388 283.67136 284.97595 286.13019 287.18326 288.13724
 288.99527 289.75934 290.42682 291.27744
 366.78100 356.34670 345.79041 334.66811 323.08282 311.28852 299.17023 286.98493
 274.70864 262.61734 250.63805 239.95075 230.08446 221.20016 213.39386 206.40757
 200.25327 195.20298 191.79668 189.85039 188.89909 188.97480 189.82150 191.14121
 192.87791 194.98462 197.25932 199.63002 202.08673 204.57843 206.67814 208.53184
 210.16955 211.32625 211.56696 211.80666 211.75537 211.47207 211.11678 210.75848
 210.38718 210.10889 209.92859 209.80430 209.74400 210.08671 210.48441 210.88512
 211.68982 212.87953 214.14123 215.93594 217.87564 219.93034 222.03705 224.13175
 226.20346 228.29916 230.40787 232.52557 234.66628 236.84998 239.11769 241.49939
 244.13210 246.39480 248.40850 250.18521 251.61391 252.74862 253.58232 253.91003
 253.95873 253.74444 253.11614 252.07585 250.69355 248.86626 246.78696 244.63166
 242.43437 240.25007 238.08178 235.93248 233.80419 231.68289 229.72060 227.88930
 226.18401 224.66771 223.30941 222.09312 220.98682 219.95853 219.07423 218.22694
 217.48064 216.67235 215.78205 215.15776 214.61946 215.15599 216.39148 217.04898
 217.35368 217.76259 218.46617 218.37657 218.53644 220.29831 223.14546 226.52095
 229.78435 234.27487 239.00171 243.24434 247.22803 251.12137 254.84204 258.15845
 261.09836 263.79910 266.32663 268.63477 270.84042 273.10834 275.21225 276.99893
 278.50549 280.20667 281.78748 283.19592 284.41479 285.49319 286.47708 287.36841
 288.17007 288.88394 289.50757 290.30231
 366.78100 356.34530 345.78760 334.66390 323.07720 311.28149 299.16179 286.97509
 274.69739 262.60469 250.62399 239.93529 230.06759 221.18189 213.37419 206.38648
 200.23078 195.17908 191.77138 189.82368 188.87098 188.94528 189.79058 191.10888
 192.84418 194.94947 197.22277 199.59207 202.04737 204.53767 206.63597 208.48827
 210.12457 211.27987 211.51917 211.75746 211.70476 211.42006 211.06336 210.70366
 210.33096 210.05126 209.86956 209.74386 209.68215 210.02345 210.41975 210.81905
 211.62235 212.81065 214.07095 215.86425 217.80255 219.85585 221.96114 224.05444
 226.12474 228.21904 230.32634 232.44264 234.58194 236.76424 239.03054 241.41084
 244.04213 246.30343 248.31573 250.09103 251.51833 252.65163 253.48393 253.81023
 253.85753 253.64182 253.01212 251.97042 250.58672 248.75802 246.67732 244.52062
 242.32192 240.13622 237.96652 235.81581 233.68611 231.56341 229.59971 227.76701
 226.06031 224.54261 223.18291 221.96521 220.85751 219.82780 218.94210 218.09340
 217.34570 216.53600 215.64430 215.01860 214.47890 215.09203 216.45090 216.91264
 217.44899 217.96332 218.48010 218.17834 218.23537 220.02814 222.94629 226.40413
 229.77528 234.33113 239.07478 243.33650 247.34587 251.25336 255.01373 258.36484
 261.30872 263.99112 266.50113 268.80084 271.01163 273.27533 275.43329 277.23438
 278.66779 280.12509 281.69827 283.13266 284.37399 285.47226 286.47424 287.38199
 288.19843 288.92542 289.56055 290.36990
 366.78100 356.34422 345.78544 334.66065 323.07287 311.27609 299.15531 286.96753
 274.68874 262.59496 250.61318 239.92340 230.05462 221.16783 213.35905 206.37027
 200.21349 195.16071 191.75192 189.80314 188.84936 188.92258 189.76680 191.08401
 192.81823 194.92245 197.19467 199.56289 202.01711 204.50632 206.60354 208.45476
 210.08998 211.24420 211.48241 211.71963 211.66585 211.38007 211.02229 210.66150
 210.28772 210.00694 209.82416 209.69738 209.63459 209.97481 210.37003 210.76825
 211.57047 212.75768 214.01690 215.80912 217.74634 219.79856 221.90277 223.99499
 226.06421 228.15743 230.26365 232.37886 234.51708 236.69830 238.96352 241.34274
 243.97295 246.23317 248.24439 250.01861 251.44483 252.57704 253.40826 253.73348
 253.77970 253.56292 252.93213 251.88935 250.50457 248.67479 246.59301 244.43523
 242.23544 240.04866 237.87788 235.72610 233.59532 231.47153 229.50675 227.67297
 225.96519 224.44641 223.08562 221.86684 220.75806 219.72728 218.84050 217.99071
 217.24193 216.43115 215.53837 214.91159 214.37080 215.03625 216.50154 216.80400
 217.39838 218.17284 218.63657 218.14461 218.04738 219.78705 222.75935 226.26830
 229.81442 234.38446 239.10042 243.35974 247.35994 251.26978 255.02177 258.35550
 261.32077 264.04849 266.58594 268.89203 271.17538 273.54510 275.76581 277.63361
 279.22482 280.50616 281.77975 283.02606 284.10959 285.06821 285.94281 286.73514
 287.44775 288.08234 288.63669 289.34314
 366.78100 356.34505 345.78710 334.66314 323.07619 311.28024 299.16029 286.97333
 274.69538 262.60243 250.62148 239.93252 230.06457 221.17862 213.37067 206.38271
 200.22676 195.17481 191.76686 189.81891 188.86595 188.94000 189.78505 191.10310
 192.83814 194.94319 197.21624 199.58529 202.04033 204.53038 206.62843 208.48048
 210.11653 211.27157 211.51062 211.74867 211.69572 211.41076 211.05381 210.69386
 210.32091 210.04095 209.85900 209.73305 209.67110 210.01214 210.40819 210.80724
 211.61029 212.79834 214.05838 215.85143 217.78948 219.84253 221.94757 224.04062
 226.11067 228.20472 230.31176 232.42781 234.56686 236.74891 239.01495 241.39500
 244.02605 246.28710 248.29915 250.07419 251.50124 252.63429 253.46634 253.79238
 253.83943 253.62348 252.99353 251.95157 250.56762 248.73867 246.65772 244.50077
 242.30181 240.11586 237.94591 235.79496 233.66500 231.54205 229.57810 227.74515
 226.03819 224.52024 223.16029 221.94234 220.83438 219.80443 218.91848 218.06953
 217.32158 216.51162 215.61967 214.99372 214.45377 215.05844 216.44611 216.87360
 217.23906 218.05843 218.56454 218.08365 217.89310 219.58253 222.82758 226.18059
 229.93533 234.42174 239.11429 243.42007 247.42661 251.29594 254.94360 258.20801
 261.17270 263.93802 266.51801 268.92880 271.31506 273.73544 275.99826 277.96265
 279.64639 280.98047 281.91806 282.57294 283.25739 284.01840 284.72269 285.36069
 285.93454 286.44556 286.89194 287.46085
 366.78100 356.34758 345.79217 334.67075 323.08634 311.29292 299.17551 286.99109
 274.71568 262.62526 250.64685 239.96043 230.09502 221.21160 213.40619 206.42077
 200.26736 195.21794 191.81253 189.86711 188.91669 188.99328 189.84086 191.16145
 192.89903 195.00662 197.28220 199.65379 202.11137 204.60396 206.70454 208.55913
 210.19771 211.35530 211.59688 211.83747 211.78705 211.50464 211.15022 210.79280
 210.42239 210.14497 209.96556 209.84214 209.78273 210.12631 210.52490 210.92648
 211.73207 212.92265 214.18524 215.98082 217.92141 219.97699 222.08458 224.18016
 226.25275 228.34933 230.45891 232.57750 234.71908 236.90367 239.17225 241.55484
 244.18842 246.45201 248.46659 250.24418 251.67376 252.80935 253.64393 253.97252
 254.02210 253.80869 253.18127 252.14186 250.76044 248.93402 246.85561 244.70119
 242.50478 240.32136 238.15395 236.00553 233.87812 231.75770 229.79629 227.96587
 226.26146 224.74604 223.38863 222.17321 221.06780 220.04038 219.15697 218.31055
 217.56513 216.75772 215.86830 215.24489 214.70747 215.16531 216.24922 217.10443
 217.32449 217.93242 218.41875 217.77591 217.52332 219.39870 222.85066 225.90862
 229.96027 234.46356 239.20424 243.53787 247.55840 251.43213 255.05762 258.28387
 261.18927 263.92740 266.51306 268.95331 271.37534 273.82773 276.09634 278.03934
 279.66965 280.95166 281.84735 282.35373 282.68719 283.07523 283.67130 284.46271
 285.21091 285.87720 286.45926 287.20102
 366.78100 356.34801 345.79303 334.67204 323.08806 311.29507 299.17809 286.99410
 274.71912 262.62913 250.65114 239.96516 230.10017 221.21719 213.41220 206.42722
 200.27423 195.22525 191.82026 189.87527 188.92529 189.00230 189.85032 191.17133
 192.90935 195.01736 197.29338 199.66539 202.12340 204.61642 206.71743 208.57245
 210.21146 211.36948 211.61149 211.85250 211.80252 211.52053 211.16655 210.80956
 210.43958 210.16259 209.98361 209.86062 209.80163 210.14565 210.54466 210.94668
 211.75269 212.94371 214.20672 216.00274 217.94375 219.99976 222.10778 224.20379
 226.27681 228.37382 230.48384 232.60285 234.74487 236.92988 239.19889 241.58191
 244.21592 246.47994 248.49495 250.27297 251.70298 252.83900 253.67401 254.00302
 254.05304 253.84005 253.21307 252.17408 250.79310 248.96711 246.88913 244.73514
 242.53915 240.35617 238.18918 236.04120 233.91421 231.79423 229.83324 228.00325
 226.29927 224.78428 223.42730 222.21231 221.10733 220.08034 219.19736 218.35137
 217.60638 216.79940 215.91041 215.28743 214.75044 215.18391 216.20978 217.06366
 217.54201 218.07680 218.45026 217.55934 217.16435 219.16548 222.66167 225.72527
 229.95195 234.52652 239.28886 243.63339 247.67860 251.57211 255.22070 258.46088
 261.35345 264.04739 266.59058 269.00531 271.44803 273.95340 276.24271 278.16263
 279.78146 281.02112 281.83078 282.23373 282.41928 282.66171 283.05280 283.77881
 284.56113 285.25775 285.86633 286.64191
 366.78100 356.34574 345.78848 334.66522 323.07896 311.28370 299.16444 286.97818
 274.70092 262.60866 250.62840 239.94014 230.07288 221.18762 213.38036 206.39310
 200.23784 195.18658 191.77932 189.83206 188.87980 188.95454 189.80028 191.11902
 192.85476 194.96049 197.23423 199.60397 202.05971 204.55045 206.64919 208.50193
 210.13867 211.29441 211.53415 211.77289 211.72063 211.43637 211.08011 210.72085
 210.34859 210.06933 209.88807 209.76281 209.70155 210.04329 210.44003 210.83977
 211.64351 212.83225 214.09299 215.88673 217.82547 219.87921 221.98495 224.07869
 226.14943 228.24417 230.35191 232.46865 234.60839 236.79113 239.05787 241.43861
 244.07035 246.33209 248.34483 250.12057 251.54831 252.68205 253.51479 253.84153
 253.88927 253.67401 253.04475 252.00348 250.62022 248.79196 246.71170 244.55544
 242.35718 240.17192 238.00266 235.85240 233.72314 231.60088 229.63762 227.80536
 226.09910 224.58184 223.22258 222.00532 220.89806 219.86880 218.98354 218.13528
 217.38802 216.57876 215.68750 215.06224 214.52298 215.07773 216.37431 216.87373
 217.52600 218.14264 218.41856 217.51915 217.10701 219.00777 222.41643 225.78699
 229.94412 234.59134 239.33183 243.69704 247.77179 251.67297 255.31555 258.55841
 261.45749 264.13269 266.64352 269.03754 271.51920 274.09561 276.41385 278.34900
 279.95792 281.17532 281.89438 282.20691 282.40240 282.60400 283.14975 283.97171
 284.71097 285.36926 285.94437 286.67725
 366.78100 356.34478 345.78655 334.66233 323.07510 311.27888 299.15866 286.97143
 274.69321 262.59999 250.61876 239.92954 230.06131 221.17509 213.36687 206.37864
 200.22242 195.17020 191.76197 189.81375 188.86052 188.93430 189.77908 191.09685
 192.83163 194.93641 197.20918 199.57796 202.03273 204.52251 206.62029 208.47206
 210.10784 211.26261 211.50139 211.73917 211.68594 211.40072 211.04350 210.68327
 210.31005 210.02982 209.84760 209.72138 209.65915 209.99993 210.39571 210.79448
 211.59726 212.78503 214.04481 215.83759 217.77536 219.82814 221.93292 224.02569
 226.09547 228.18924 230.29602 232.41180 234.55057 236.73235 238.99812 241.37790
 244.00868 246.26945 248.28123 250.05601 251.48278 252.61556 253.44733 253.77311
 253.81989 253.60366 252.97344 251.93122 250.54699 248.71777 246.63654 244.47932
 242.28010 240.09387 237.92365 235.77243 233.64220 231.51898 229.55475 227.72153
 226.01431 224.49608 223.13586 221.91763 220.80941 219.77919 218.89296 218.04374
 217.29552 216.48529 215.59307 214.96684 214.42662 215.03192 216.43692 216.87445
 217.42560 218.02864 218.36639 217.57039 217.12924 218.91917 222.23753 225.82420
 229.96251 234.65617 239.38921 243.75961 247.83951 251.73325 255.35881 258.59671
 261.50464 264.17389 266.66245 269.03439 271.55011 274.19839 276.58746 278.54498
 280.20203 281.43588 282.17682 282.36258 282.36542 282.67038 283.47919 284.24664
 284.93689 285.55154 286.08850 286.77277
 366.78100 356.34570 345.78841 334.66511 323.07881 311.28351 299.16422 286.97792
 274.70062 262.60833 250.62803 239.93973 230.07243 221.18714 213.37984 206.39254
 200.23725 195.18595 191.77865 189.83135 188.87906 188.95376 189.79946 191.11817
 192.85387 194.95957 197.23327 199.60298 202.05868 204.54938 206.64809 208.50079
 210.13749 211.29319 211.53290 211.77160 211.71930 211.43501 211.07871 210.71941
 210.34711 210.06782 209.88652 209.76122 209.69993 210.04163 210.43833 210.83803
 211.64174 212.83044 214.09114 215.88485 217.82355 219.87725 221.98296 224.07666
 226.14736 228.24206 230.34977 232.46647 234.60617 236.78888 239.05558 241.43628
 244.06798 246.32969 248.34239 250.11809 251.54580 252.67950 253.51220 253.83890
 253.88661 253.67131 253.04201 252.00072 250.61742 248.78912 246.70882 244.55253
 242.35423 240.16893 237.99964 235.84934 233.72004 231.59774 229.63445 227.80215
 226.09585 224.57856 223.21926 222.00196 220.89466 219.86537 218.98007 218.13177
 217.38448 216.57518 215.68388 215.05858 214.51929 215.06963 216.36320 217.00015
 217.51874 217.99255 218.26987 217.48697 217.00827 218.78534 222.15335 225.74133
 229.98683 234.71638 239.46443 243.83228 247.91391 251.79051 255.40361 258.64011
 261.55795 264.22894 266.69965 269.08136 271.61325 274.29993 276.74203 278.70706
 280.30698 281.43066 282.00763 282.12424 282.14969 282.38535 283.08426 283.86816
 284.58536 285.22400 285.78192 286.49292
 366.78100 356.34693 345.79086 334.66879 323.08372 311.28966 299.17159 286.98652
 274.71045 262.61938 250.64031 239.95324 230.08717 221.20310 213.39703 206.41097
 200.25690 195.20683 191.80076 189.85469 188.90362 188.97955 189.82648 191.14641
 192.88335 194.99028 197.26521 199.63614 202.09307 204.58500 206.68493 208.53886
 210.17679 211.33372 211.57466 211.81459 211.76352 211.48045 211.12538 210.76731
 210.39624 210.11817 209.93810 209.81404 209.75397 210.09690 210.49483 210.89576
 211.70069 212.89062 214.15255 215.94748 217.88741 219.94235 222.04928 224.14421
 226.21614 228.31207 230.42100 232.53893 234.67986 236.86379 239.13173 241.51366
 244.14659 246.40952 248.42345 250.20038 251.62931 252.76424 253.59817 253.92610
 253.97504 253.76097 253.13290 252.09283 250.71076 248.88369 246.80462 244.64955
 242.45248 240.26842 238.10035 235.95128 233.82321 231.70214 229.74007 227.90900
 226.20393 224.68786 223.32979 222.11373 221.00766 219.97959 219.09552 218.24845
 217.50238 216.69431 215.80424 215.18017 214.64211 215.12173 216.25494 217.13400
 217.70642 218.05345 218.13467 217.31879 216.89142 218.57904 221.97688 225.60738
 230.02133 234.77910 239.54047 243.90865 248.00426 251.88347 255.50360 258.74979
 261.67889 264.34702 266.79041 269.14154 271.65430 274.35474 276.82336 278.80594
 280.34991 281.38950 281.86523 281.92920 281.90625 282.01041 282.41385 282.99203
 283.63730 284.30719 284.89236 285.63809
 366.78100 356.34731 345.79162 334.66993 323.08524 311.29155 299.17386 286.98917
 274.71348 262.62279 250.64410 239.95741 230.09172 221.20803 213.40234 206.41665
 200.26296 195.21327 191.80758 189.86189 188.91120 188.98751 189.83483 191.15514
 192.89245 194.99976 197.27507 199.64638 202.10369 204.59600 206.69631 208.55062
 210.18893 211.34624 211.58755 211.82786 211.77717 211.49448 211.13979 210.78210
 210.41141 210.13372 209.95403 209.83034 209.77065 210.11396 210.51227 210.91358
 211.71889 212.90920 214.17151 215.96682 217.90713 219.96244 222.06975 224.16506
 226.23737 228.33368 230.44299 232.56130 234.70261 236.88692 239.15523 241.53754
 244.17085 246.43417 248.44848 250.22579 251.65510 252.79041 253.62472 253.95303
 254.00234 253.78865 253.16096 252.12127 250.73958 248.91289 246.83420 244.67951
 242.48282 240.29913 238.13144 235.98275 233.85506 231.73437 229.77268 227.94199
 226.23730 224.72161 223.36392 222.14823 221.04254 220.01485 219.13116 218.28447
 217.53878 216.73109 215.84140 215.21771 214.68002 215.13832 216.22110 217.19072
 217.80060 218.12653 218.03452 217.14243 216.73466 218.39398 221.84236 225.62004
 230.04034 234.82582 239.59679 243.98352 248.10402 252.00298 255.63808 258.89435
 261.82980 264.49103 266.90970 269.18210 271.59717 274.32599 276.91211 278.92508
 280.47086 281.49109 281.89221 281.83292 281.69803 281.70560 281.98874 282.60535
 283.24606 283.89792 284.48819 285.24042
 354.97500 345.04800 334.58700 324.11500 313.32600 302.53700 291.65000 280.76700
 269.93100 259.19300 248.62200 238.61700 229.08700 220.35500 212.54000 205.53500
 199.46400 194.49300 191.14300 189.19000 188.08900 188.01400 188.72400 189.90600
 191.46900 193.38200 195.40300 197.55600 199.80700 202.06000 204.28800 206.47900
 208.55200 210.37800 212.02500 213.65900 214.99800 216.11800 217.17200 218.25900
 219.49400 220.64500 221.67900 222.61400 223.54500 224.98200 226.57100 228.19000
 229.79700 231.81100 233.86500 235.97200 238.24200 240.55300 242.89900 245.25300
 247.48800 249.53500 251.36600 252.84800 254.09800 255.16700 256.02700 256.25300
 256.09500 255.54300 253.93500 252.56600 251.38400 250.24500 249.05200 247.70100
 246.01600 243.99600 241.78400 239.39300 236.81300 234.22300 231.65800 229.14400
 226.74000 224.47300 222.33500 220.32500 218.44000 216.67700 214.96200 213.47200
 212.20000 211.10800 210.26000 209.63900 209.24400 209.03100 209.05800 209.33300
 209.78400 210.62600 211.33100 212.39100 213.62500 214.84668 217.72949 219.47640
 220.32566 220.86828 220.88710 220.27371 219.43733 218.84250 219.04934 220.86203
 222.60583 225.72206 229.03064 232.61777 236.12270 239.51333 242.70767 245.68587
 248.41061 250.90679 253.19353 254.91714 256.48655 257.94920 259.39966 260.69384
 261.81714 262.77997 263.71679 264.54570 265.26305 265.89772 266.47676 267.00133
 267.47312 267.89325 268.26027 268.72800
