|-------------------------------------------------------------------------|
|   File Name : in_temp.dat
|   Subject   : temperature profiles used for initial guess atmosphere
|   File Type : input of gmtr
|   Data Type : atmospherical data
|   Author/s  : WRF-Chem
|   Date      : Fri Jul 26 15:39:24 2024
|-------------------------------------------------------------------------|

 WRF-Chem temperature
#
 values of T (K)    (8f10.5)
#
 354.97500 345.04800 334.58700 324.11500 313.32600 302.53700 291.65000 280.76700
 269.93100 259.19300 248.62200 238.61700 229.08700 220.35500 212.54000 205.53500
 199.46400 194.49300 191.14300 189.19000 188.08900 188.01400 188.72400 189.90600
 191.46900 193.38200 195.40300 197.55600 199.80700 202.06000 204.28800 206.47900
 208.55200 210.37800 212.02500 213.65900 214.99800 216.11800 217.17200 218.25900
 219.49400 220.64500 221.67900 222.61400 223.54500 224.98200 226.57100 228.19000
 229.79700 231.81100 233.86500 235.97200 238.24200 240.55300 242.89900 245.25300
 247.48800 249.53500 251.36600 252.84800 254.09800 255.16700 256.02700 256.25300
 256.09500 255.54300 253.93500 252.56600 251.38400 250.24500 249.05200 247.70100
 246.01600 243.99600 241.78400 239.39300 236.81300 234.22300 231.65800 229.14400
 226.74000 224.47300 222.33500 220.32500 218.44000 216.67700 214.96200 213.47200
 212.20000 211.10800 210.26000 209.63900 209.24400 209.03100 209.05800 209.33300
 209.78400 210.62600 211.33100 212.39100 213.62500 214.84668 217.72949 219.47640
 220.32566 220.86828 220.88710 220.27371 219.43733 218.84250 219.04934 220.86203
 222.60583 225.72206 229.03064 232.61777 236.12270 239.51333 242.70767 245.68587
 248.41061 250.90679 253.19353 254.91714 256.48655 257.94920 259.39966 260.69384
 261.81714 262.77997 263.71679 264.54570 265.26305 265.89772 266.47676 267.00133
 267.47312 267.89325 268.26027 268.72800
 366.78100 356.33500 345.76700 334.63300 323.03600 311.23000 299.10000 286.90300
 274.61500 262.51200 250.52100 239.82200 229.94400 221.04800 213.23000 206.23200
 200.06600 195.00400 191.58600 189.62800 188.66500 188.72900 189.56400 190.87200
 192.59700 194.69200 196.95500 199.31400 201.75900 204.23900 206.32700 208.16900
 209.79500 210.94000 211.16900 211.39700 211.33400 211.03900 210.67200 210.30200
 209.91900 209.62900 209.43700 209.30100 209.22900 209.56000 209.94600 210.33500
 211.12800 212.30600 213.55600 215.33900 217.26700 219.31000 221.40500 223.48800
 225.54800 227.63200 229.72900 231.83500 233.96400 236.13600 238.39200 240.76200
 243.38300 245.63400 247.63600 249.40100 250.81800 251.94100 252.76300 253.07900
 253.11600 252.89000 252.25000 251.19800 249.80400 247.96500 245.87400 243.70700
 241.49800 239.30200 237.12200 234.96100 232.82100 230.68800 228.71400 226.87100
 225.15400 223.62600 222.25600 221.02800 219.91000 218.87000 217.97400 217.11500
 216.35700 215.53700 214.63500 213.99900 213.44900 212.85855 212.01316 212.61654
 214.26826 216.08686 218.14273 220.53346 223.40855 226.78828 231.49734 235.90155
 239.42278 243.28576 247.23140 251.11907 254.80144 258.23331 261.38913 264.27520
 266.89312 269.26852 271.44504 273.08845 274.58484 275.98591 277.39845 278.65879
 279.75272 280.69038 281.56708 282.34086 283.01050 283.60295 284.14348 284.63317
 285.07358 285.46577 285.80838 286.24500
 381.81900 372.39900 361.20600 349.77600 337.62200 324.85300 311.81000 298.35300
 284.86000 271.32400 258.56100 246.30400 236.08700 226.79600 218.44800 211.29000
 205.52200 200.89400 197.38100 194.84800 193.01500 192.31500 192.25000 192.43100
 192.91200 193.53700 194.13600 194.71200 195.26200 195.83100 196.39300 196.97600
 197.60400 198.14900 198.58400 199.05700 199.69500 200.37800 201.05400 201.70800
 202.31300 202.85700 203.35500 203.86200 204.56900 205.29700 206.02600 206.98700
 208.19300 209.44100 210.96900 212.57600 214.46200 216.51300 218.63000 220.85300
 223.34100 225.96200 228.73900 231.69700 234.70600 237.70600 240.69200 243.65700
 246.73700 249.69900 252.52100 255.06300 257.29000 259.23300 260.63300 261.68000
 262.46100 262.79800 262.69100 262.22400 261.06900 259.52500 257.70700 255.50700
 253.00100 250.30200 247.39800 244.45200 241.65400 239.05400 236.73300 234.59000
 232.59500 230.72500 228.83400 226.82600 224.66600 222.38700 220.10400 217.71500
 215.45900 213.06600 210.54600 208.09300 205.35400 202.08130 196.05959 200.71215
 209.01611 216.90438 223.84126 229.78593 235.00632 240.20838 245.98943 250.68668
 254.32982 257.93487 261.55666 264.96801 268.15192 271.06452 273.76717 276.25691
 278.57680 280.74479 282.77456 284.60533 286.27232 287.81705 289.31715 290.65561
 291.81734 292.81312 293.70701 294.49387 295.17482 295.77730 296.32696 296.82492
 297.27278 297.67160 298.02000 298.46400
 399.33000 389.90700 379.81300 368.66800 357.52200 345.30100 333.07400 320.22700
 307.21600 293.84800 280.37600 267.29600 254.61000 242.98700 232.15100 221.97700
 212.67200 204.28600 197.66900 192.82100 189.48600 187.45200 186.81400 187.08900
 187.78100 189.05400 190.64800 192.54200 194.63000 196.75200 198.67100 200.15800
 201.53500 202.48700 202.97500 203.34000 203.53900 203.49700 203.38500 203.24700
 203.00500 202.78600 202.60300 202.43700 202.42600 202.88800 203.42000 203.95100
 204.89500 205.99200 207.30100 208.95800 210.73800 213.10000 215.56400 218.18000
 220.96600 223.91800 226.96100 230.09200 233.29300 236.55700 239.95500 243.53700
 246.84500 249.39000 251.54200 253.47400 255.19500 256.48400 257.43100 258.05900
 258.21200 258.04000 257.58200 256.64300 255.23900 253.50700 251.40800 249.05600
 246.57600 243.99400 241.38900 238.83000 236.34400 233.98600 231.96900 230.11800
 228.42300 226.89900 225.54800 224.29700 223.10500 221.96500 220.95800 220.11300
 219.49000 218.92000 218.32500 217.88100 217.42300 216.96366 216.35568 216.80261
 217.73415 218.28582 218.64258 219.10077 220.44626 222.53987 226.38451 230.35736
 233.59734 237.39164 241.29814 245.22796 248.98002 252.51130 255.78595 258.80109
 261.54781 264.05210 266.34239 268.04198 269.58951 271.01303 272.35754 273.55718
 274.59842 275.49092 276.28989 276.99307 277.60161 278.14001 278.63122 279.07623
 279.47646 279.83287 280.14422 280.54100
 399.73800 389.78500 379.66200 368.15100 356.64100 344.35000 331.79200 318.88800
 305.72600 292.49300 279.20900 266.73800 254.69600 244.21100 234.45700 225.43300
 217.56900 210.45100 204.30000 199.30600 195.45800 192.57600 191.02700 190.38600
 190.23900 190.53400 191.16600 191.92500 192.79500 193.76600 194.73200 195.31200
 195.80000 196.05200 196.11500 196.11500 196.03900 195.72300 195.34000 194.98900
 194.75100 194.79200 195.13300 195.59800 196.50600 198.13600 199.85800 201.56600
 204.17900 206.82300 209.89300 213.28400 216.82800 220.60500 224.38700 228.20900
 232.03200 235.82500 239.56000 243.25800 246.84500 250.20100 253.70900 257.46800
 261.53000 264.22100 266.60100 268.68100 270.32900 271.74100 272.83600 273.47400
 273.89800 274.00200 273.75700 273.28800 272.37100 271.10000 269.58900 267.77900
 265.81600 263.72100 261.39300 258.91600 256.29800 253.42300 250.33100 247.11400
 243.83700 240.52900 237.24900 233.99900 230.72800 227.51500 224.25400 220.95200
 217.62700 213.65600 210.12100 206.78900 204.01000 201.99491 199.07309 198.76551
 199.40006 200.48994 201.46112 202.31912 203.45100 204.96110 207.47502 210.85391
 213.70530 217.29629 220.99574 224.72316 228.28753 231.64854 234.68024 237.40893
 239.70644 241.60899 243.46854 245.67368 247.68154 249.52395 251.24767 252.78566
 254.12057 255.26479 256.23740 257.09036 257.82852 258.48160 259.07744 259.61723
 260.10271 260.53504 260.91270 261.39400
 399.73800 389.78500 379.66200 368.15100 356.64100 344.35000 331.79200 318.88800
 305.72600 292.49300 279.20900 266.73800 254.69600 244.21100 234.45700 225.43300
 217.56900 210.45100 204.30000 199.30600 195.45800 192.57600 191.02700 190.38600
 190.23900 190.53400 191.16600 191.92500 192.79500 193.76600 194.73200 195.31200
 195.80000 196.05200 196.11500 196.11500 196.03900 195.72300 195.34000 194.98900
 194.75100 194.79200 195.13300 195.59800 196.50600 198.13600 199.85800 201.56600
 204.17900 206.82300 209.89300 213.28400 216.82800 220.60500 224.38700 228.20900
 232.03200 235.82500 239.56000 243.25800 246.84500 250.20100 253.70900 257.46800
 261.53000 264.22100 266.60100 268.68100 270.32900 271.74100 272.83600 273.47400
 273.89800 274.00200 273.75700 273.28800 272.37100 271.10000 269.58900 267.77900
 265.81600 263.72100 261.39300 258.91600 256.29800 253.42300 250.33100 247.11400
 243.83700 240.52900 237.24900 233.99900 230.72800 227.51500 224.25400 220.95200
 217.62700 213.65600 210.12100 206.78900 204.01000 201.99491 199.07309 198.76551
 199.40006 200.48994 201.46112 202.31912 203.45100 204.96110 207.47502 210.85391
 213.70530 217.29629 220.99574 224.72316 228.28753 231.64854 234.68024 237.40893
 239.70644 241.60899 243.46854 245.67368 247.68154 249.52395 251.24767 252.78566
 254.12057 255.26479 256.23740 257.09036 257.82852 258.48160 259.07744 259.61723
 260.10271 260.53504 260.91270 261.39400
 399.33000 389.90700 379.81300 368.66800 357.52200 345.30100 333.07400 320.22700
 307.21600 293.84800 280.37600 267.29600 254.61000 242.98700 232.15100 221.97700
 212.67200 204.28600 197.66900 192.82100 189.48600 187.45200 186.81400 187.08900
 187.78100 189.05400 190.64800 192.54200 194.63000 196.75200 198.67100 200.15800
 201.53500 202.48700 202.97500 203.34000 203.53900 203.49700 203.38500 203.24700
 203.00500 202.78600 202.60300 202.43700 202.42600 202.88800 203.42000 203.95100
 204.89500 205.99200 207.30100 208.95800 210.73800 213.10000 215.56400 218.18000
 220.96600 223.91800 226.96100 230.09200 233.29300 236.55700 239.95500 243.53700
 246.84500 249.39000 251.54200 253.47400 255.19500 256.48400 257.43100 258.05900
 258.21200 258.04000 257.58200 256.64300 255.23900 253.50700 251.40800 249.05600
 246.57600 243.99400 241.38900 238.83000 236.34400 233.98600 231.96900 230.11800
 228.42300 226.89900 225.54800 224.29700 223.10500 221.96500 220.95800 220.11300
 219.49000 218.92000 218.32500 217.88100 217.42300 216.96366 216.35568 216.80261
 217.73415 218.28582 218.64258 219.10077 220.44626 222.53987 226.38451 230.35736
 233.59734 237.39164 241.29814 245.22796 248.98002 252.51130 255.78595 258.80109
 261.54781 264.05210 266.34239 268.04198 269.58951 271.01303 272.35754 273.55718
 274.59842 275.49092 276.28989 276.99307 277.60161 278.14001 278.63122 279.07623
 279.47646 279.83287 280.14422 280.54100
 381.81900 372.39900 361.20600 349.77600 337.62200 324.85300 311.81000 298.35300
 284.86000 271.32400 258.56100 246.30400 236.08700 226.79600 218.44800 211.29000
 205.52200 200.89400 197.38100 194.84800 193.01500 192.31500 192.25000 192.43100
 192.91200 193.53700 194.13600 194.71200 195.26200 195.83100 196.39300 196.97600
 197.60400 198.14900 198.58400 199.05700 199.69500 200.37800 201.05400 201.70800
 202.31300 202.85700 203.35500 203.86200 204.56900 205.29700 206.02600 206.98700
 208.19300 209.44100 210.96900 212.57600 214.46200 216.51300 218.63000 220.85300
 223.34100 225.96200 228.73900 231.69700 234.70600 237.70600 240.69200 243.65700
 246.73700 249.69900 252.52100 255.06300 257.29000 259.23300 260.63300 261.68000
 262.46100 262.79800 262.69100 262.22400 261.06900 259.52500 257.70700 255.50700
 253.00100 250.30200 247.39800 244.45200 241.65400 239.05400 236.73300 234.59000
 232.59500 230.72500 228.83400 226.82600 224.66600 222.38700 220.10400 217.71500
 215.45900 213.06600 210.54600 208.09300 205.35400 202.08130 196.05959 200.71215
 209.01611 216.90438 223.84126 229.78593 235.00632 240.20838 245.98943 250.68668
 254.32982 257.93487 261.55666 264.96801 268.15192 271.06452 273.76717 276.25691
 278.57680 280.74479 282.77456 284.60533 286.27232 287.81705 289.31715 290.65561
 291.81734 292.81312 293.70701 294.49387 295.17482 295.77730 296.32696 296.82492
 297.27278 297.67160 298.02000 298.46400
 366.78100 356.34498 345.78696 334.66294 323.07592 311.27989 299.15987 286.97285
 274.69483 262.60181 250.62079 239.93177 230.06375 221.17772 213.36970 206.38168
 200.22566 195.17364 191.76562 189.81760 188.86458 188.93856 189.78353 191.10151
 192.83649 194.94147 197.21445 199.58343 202.03841 204.52839 206.62637 208.47834
 210.11432 211.26930 211.50828 211.74626 211.69324 211.40822 211.05120 210.69117
 210.31815 210.03813 209.85611 209.73009 209.66807 210.00905 210.40503 210.80401
 211.60698 212.79496 214.05494 215.84792 217.78590 219.83888 221.94386 224.03684
 226.10682 228.20079 230.30777 232.42375 234.56273 236.74471 239.01069 241.39067
 244.02165 246.28262 248.29460 250.06958 251.49656 252.62954 253.46152 253.78750
 253.83448 253.61846 252.98843 251.94641 250.56239 248.73337 246.65235 244.49533
 242.29631 240.11029 237.94027 235.78924 233.65922 231.53620 229.57218 227.73916
 226.03214 224.51412 223.15410 221.93607 220.82805 219.79803 218.91201 218.06299
 217.31497 216.50495 215.61293 214.98691 214.44688 213.54587 211.41980 210.69174
 211.67142 213.51340 215.56473 216.98216 219.16051 223.19507 229.04893 234.13689
 237.97661 241.69875 245.39343 249.22968 253.27219 256.59116 259.21033 261.55933
 264.42764 267.18253 269.53299 271.53293 273.32138 275.02112 276.65140 278.32999
 280.06628 281.69952 283.18719 284.54019 285.72070 286.76657 287.72482 288.59741
 289.38696 290.09702 290.72330 291.55368
 366.78100 356.34368 345.78436 334.65905 323.07073 311.27341 299.15209 286.96377
 274.68445 262.59014 250.60782 239.91750 230.04818 221.16086 213.35154 206.36223
 200.20491 195.15159 191.74227 189.79295 188.83863 188.91132 189.75500 191.07168
 192.80536 194.90904 197.18072 199.54841 202.00209 204.49077 206.58745 208.43813
 210.07281 211.22650 211.46418 211.70086 211.64654 211.36022 211.00190 210.64059
 210.26627 209.98495 209.80163 209.67431 209.61099 209.95068 210.34536 210.74304
 211.54472 212.73140 213.99008 215.78177 217.71845 219.77013 221.87381 223.96549
 226.03417 228.12686 230.23254 232.34722 234.48490 236.66558 238.93026 241.30895
 243.93863 246.19831 248.20899 249.98267 251.40836 252.54004 253.37072 253.69540
 253.74108 253.52376 252.89245 251.84913 250.46381 248.63349 246.55117 244.39285
 242.19254 240.00522 237.83390 235.68158 233.55026 231.42594 229.46063 227.62631
 225.91799 224.39867 223.03735 221.81803 220.70872 219.67740 218.79008 217.93976
 217.19044 216.37912 215.48581 214.85849 214.31717 213.48605 211.52472 210.88155
 211.72148 213.60641 215.69307 217.01031 219.06142 223.09908 228.97827 234.04312
 237.87093 241.59572 245.31166 249.17644 253.24832 256.51352 259.07419 261.44214
 264.31116 267.08356 269.45938 271.45117 273.20517 274.87469 276.51935 278.21777
 279.95779 281.59290 283.08383 284.43777 285.61850 286.66544 287.62534 288.49780
 289.28897 289.99881 290.62509 291.45721
 366.78100 356.34193 345.78085 334.65378 323.06370 311.26463 299.14156 286.95148
 274.67041 262.57434 250.59026 239.89819 230.02711 221.13804 213.32697 206.33589
 200.17682 195.12174 191.71067 189.75960 188.80352 188.87445 189.71638 191.03130
 192.76323 194.86515 197.13508 199.50101 201.95293 204.43986 206.53479 208.38371
 210.01664 211.16856 211.40449 211.63942 211.58334 211.29527 210.93519 210.57212
 210.19605 209.91297 209.72790 209.59883 209.53375 209.87168 210.26460 210.66053
 211.46046 212.64538 213.90231 215.69223 217.62716 219.67709 221.77901 223.86894
 225.93587 228.02679 230.13072 232.24364 234.37957 236.55850 238.82142 241.19835
 243.82627 246.08420 248.09313 249.86505 251.28898 252.41891 253.24783 253.57076
 253.61468 253.39561 252.76254 251.71746 250.33039 248.49831 246.41424 244.25417
 242.05209 239.86302 237.68995 235.53587 233.40280 231.27672 229.30965 227.47358
 225.76350 224.24243 222.87936 221.65828 220.54721 219.51413 218.62506 217.77299
 217.02191 216.20884 215.31376 214.68469 214.14162 213.40199 211.65617 211.04021
 211.78412 213.70235 215.77451 217.07828 218.99368 223.01772 228.91656 233.95564
 237.76862 241.49258 245.22670 249.11945 253.21249 256.42307 258.92963 261.32004
 264.18915 266.97958 269.38492 271.37140 273.09363 274.73502 276.39304 278.10956
 279.85327 281.48862 282.98615 284.34100 285.52148 286.56897 287.52850 288.40073
 289.19363 289.90408 290.53159 291.36420
 366.78100 356.34009 345.77718 334.64828 323.05637 311.25546 299.13055 286.93864
 274.65573 262.55783 250.57192 239.87801 230.00510 221.11419 213.30128 206.30838
 200.14747 195.09056 191.67765 189.72474 188.76684 188.83593 189.67602 190.98911
 192.71920 194.81929 197.08739 199.45148 201.90157 204.38666 206.47975 208.32684
 209.95794 211.10803 211.34212 211.57521 211.51730 211.22739 210.86549 210.50058
 210.12267 209.83776 209.65085 209.51995 209.45304 209.78913 210.18022 210.57431
 211.37240 212.55550 213.81059 215.59868 217.53177 219.57986 221.67995 223.76805
 225.83314 227.92223 230.02432 232.13541 234.26951 236.44660 238.70769 241.08278
 243.70887 245.96496 247.97206 249.74215 251.16424 252.29233 253.11942 253.44051
 253.48261 253.26170 252.62679 251.57988 250.19097 248.35707 246.27116 244.10925
 241.90534 239.71443 237.53952 235.38362 233.24871 231.12080 229.15189 227.31398
 225.60207 224.07917 222.71426 221.49135 220.37844 219.34353 218.45263 217.59872
 216.84581 216.03090 215.13399 214.50308 213.95818 213.31364 211.79184 211.17409
 211.86780 213.80965 215.83667 217.14494 218.94714 222.94502 228.86273 233.87018
 237.66571 241.38689 245.14188 249.06383 253.16743 256.32648 258.78342 261.19650
 264.06219 266.86719 269.30267 271.28665 272.98309 274.60159 276.27292 278.00748
 279.75397 281.39090 282.89105 284.24753 285.42810 286.47632 287.43542 288.31046
 289.10205 289.81378 290.44064 291.27652
 366.78100 356.33854 345.77407 334.64361 323.05014 311.24768 299.12121 286.92775
 274.64328 262.54382 250.55635 239.86089 229.98642 221.09396 213.27949 206.28503
 200.12256 195.06410 191.64963 189.69517 188.73570 188.80324 189.64177 190.95331
 192.68184 194.78038 197.04691 199.40945 201.85798 204.34152 206.43305 208.27859
 209.90812 211.05666 211.28919 211.52073 211.46126 211.16980 210.80633 210.43987
 210.06040 209.77394 209.58547 209.45301 209.38454 209.71908 210.10861 210.50115
 211.29768 212.47922 213.73275 215.51929 217.45082 219.49736 221.59589 223.68243
 225.74596 227.83350 229.93403 232.04357 234.17610 236.35164 238.61117 240.98471
 243.60924 245.86378 247.86931 249.63785 251.05838 252.18492 253.01045 253.32999
 253.37052 253.14806 252.51159 251.46313 250.07266 248.23720 246.14973 243.98627
 241.78080 239.58834 237.41187 235.25441 233.11794 230.98848 229.01801 227.17855
 225.46508 223.94062 222.57415 221.34969 220.23523 219.19876 218.30630 217.45083
 216.69637 215.87990 214.98144 214.34897 213.80251 213.23872 211.90732 211.30318
 211.96622 213.92082 215.89925 217.19922 218.91467 222.88196 228.81238 233.78409
 237.56369 241.28477 245.06387 249.01103 253.11511 256.22595 258.63928 261.07245
 263.92972 266.74506 269.20724 271.19119 272.87137 274.47607 276.16275 277.91458
 279.66083 281.29855 282.80197 284.15927 285.34045 286.38934 287.34891 288.22412
 289.01785 289.72772 290.35461 291.19598
 366.78100 356.33730 345.77160 334.63990 323.04520 311.24150 299.11380 286.91910
 274.63340 262.53270 250.54400 239.84730 229.97160 221.07790 213.26220 206.26650
 200.10280 195.04310 191.62740 189.67170 188.71100 188.77730 189.61460 190.92490
 192.65220 194.74950 197.01480 199.37610 201.82340 204.30570 206.39600 208.24030
 209.86861 211.01591 211.24721 211.47751 211.41681 211.12411 210.75941 210.39171
 210.01101 209.72331 209.53361 209.39991 209.33021 209.66351 210.05181 210.44311
 211.23841 212.41871 213.67101 215.45631 217.38661 219.43191 221.52921 223.61451
 225.67681 227.76311 229.86241 231.97071 234.10201 236.27631 238.53461 240.90691
 243.53021 245.78351 247.78781 249.55511 250.97441 252.09971 252.92401 253.24231
 253.28161 253.05791 252.42021 251.37051 249.97881 248.14211 246.05341 243.88871
 241.68201 239.48831 237.31061 235.15191 233.01421 230.88351 228.91181 227.07111
 225.35641 223.83071 222.46301 221.23731 220.12161 219.08391 218.19022 217.33352
 216.57782 215.76012 214.86042 214.22672 213.67902 213.17979 212.00072 211.43344
 212.07637 214.02713 215.96657 217.25005 218.89067 222.83182 228.76295 233.69643
 237.46262 241.18988 244.99355 248.96014 253.05507 256.12045 258.49707 260.94754
 263.79041 266.61026 269.09476 271.08279 272.75812 274.36053 276.06088 277.82709
 279.57162 281.20987 282.71777 284.07587 285.25751 286.30637 287.26685 288.14114
 288.93625 289.64700 290.27536 291.11224
 366.78100 356.33635 345.76970 334.63705 323.04139 311.23674 299.10809 286.91244
 274.62579 262.52414 250.53448 239.83683 229.96018 221.06553 213.24888 206.25223
 200.08758 195.02692 191.61027 189.65362 188.69197 188.75732 189.59367 190.90301
 192.62936 194.72571 196.99006 199.35041 201.79676 204.27811 206.36745 208.21080
 209.83815 210.98450 211.21485 211.44420 211.38254 211.08889 210.72324 210.35459
 209.97294 209.68429 209.49364 209.35898 209.28833 209.62068 210.00803 210.39838
 211.19273 212.37208 213.62342 215.40777 217.33712 219.38147 221.47782 223.56217
 225.62351 227.70886 229.80721 231.91456 234.04491 236.21826 238.47561 240.84695
 243.46930 245.72165 247.72500 249.49135 250.90970 252.03404 252.85739 253.17474
 253.21309 252.98844 252.34979 251.29914 249.90648 248.06883 245.97918 243.81353
 241.60588 239.41123 237.23257 235.07292 232.93427 230.80262 228.82997 226.98832
 225.27267 223.74601 222.37736 221.15071 220.03406 218.99541 218.10076 217.24310
 216.48645 215.66780 214.76715 214.13250 213.58385 213.13510 212.07512 211.56505
 212.19398 214.12840 216.04128 217.29601 218.88029 222.79314 228.71094 233.61075
 237.36606 241.10284 244.93098 248.91074 252.98592 256.01001 258.35880 260.82474
 263.64688 266.46265 268.96353 270.95752 272.64206 274.25580 275.97150 277.74731
 279.48865 281.12708 282.63739 283.99689 285.17883 286.22775 287.18994 288.06461
 288.85837 289.57040 290.19983 291.03873
 366.78100 356.33557 345.76813 334.63470 323.03826 311.23283 299.10340 286.90696
 274.61953 262.51710 250.52666 239.82823 229.95079 221.05536 213.23793 206.24049
 200.07506 195.01362 191.59619 189.63876 188.67632 188.74089 189.57646 190.88502
 192.61059 194.70615 196.96972 199.32929 201.77485 204.25542 206.34398 208.18655
 209.81312 210.95868 211.18825 211.41682 211.35438 211.05995 210.69351 210.32408
 209.94165 209.65221 209.46078 209.32534 209.25391 209.58548 209.97204 210.36161
 211.15518 212.33374 213.58431 215.36787 217.29644 219.34001 221.43557 223.51914
 225.57970 227.66427 229.76184 231.86840 233.99797 236.17054 238.42710 240.79767
 243.41923 245.67080 247.67337 249.43893 250.85650 251.98006 252.80263 253.11920
 253.15676 252.93133 252.29190 251.24046 249.84703 248.00859 245.91816 243.75173
 241.54329 239.34786 237.16842 235.00799 232.86856 230.73612 228.76269 226.92026
 225.20382 223.67639 222.30695 221.07952 219.96209 218.92265 218.02722 217.16878
 216.41135 215.59192 214.69048 214.05505 213.50562 213.09946 212.14001 211.69011
 212.31799 214.22798 216.12297 217.34116 218.87518 222.76720 228.66003 233.52750
 237.27107 241.01952 244.87225 248.86264 252.90742 255.89598 258.22653 260.70651
 263.50040 266.30280 268.81342 270.81577 272.52145 274.16068 275.89377 277.67374
 279.41269 281.04797 282.56375 283.92300 285.10663 286.15549 287.11670 287.99323
 288.78796 289.50031 290.12820 290.97186
 366.78100 356.33494 345.76688 334.63282 323.03576 311.22970 299.09965 286.90259
 274.61453 262.51147 250.52041 239.82135 229.94329 221.04723 213.22917 206.23111
 200.06506 195.00300 191.58494 189.62688 188.66382 188.72776 189.56270 190.87064
 192.59558 194.69052 196.95347 199.31241 201.75735 204.23729 206.32523 208.16717
 209.79311 210.93805 211.16699 211.39493 211.33188 211.03682 210.66976 210.29970
 209.91664 209.62658 209.43452 209.29846 209.22640 209.55734 209.94329 210.33223
 211.12517 212.30311 213.55305 215.33599 217.26393 219.30687 221.40181 223.48475
 225.54470 227.62864 229.72558 231.83152 233.96046 236.13240 238.38834 240.75828
 243.37922 245.63016 247.63211 249.39705 250.81399 251.93693 252.75887 253.07481
 253.11175 252.88569 252.24563 251.19357 249.79952 247.96046 245.86940 243.70234
 241.49328 239.29722 237.11716 234.95610 232.81604 230.68298 228.70893 226.86587
 225.14881 223.62075 222.25069 221.02263 219.90457 218.86451 217.96845 217.10939
 216.35134 215.53128 214.62922 213.99316 213.44310 213.07286 212.19812 211.80583
 212.43811 214.34206 216.20819 217.37439 218.89795 222.74773 228.60243 233.44376
 237.17966 240.94109 244.81931 248.81592 252.81818 255.77464 258.09653 260.59085
 263.35107 266.13226 268.64670 270.66147 272.40005 274.07654 275.82550 277.60672
 279.34161 280.97351 282.49475 283.85565 285.03845 286.08875 287.05054 287.92731
 288.72217 289.43597 290.06406 290.90979
 366.78100 356.33463 345.76626 334.63189 323.03452 311.22815 299.09778 286.90041
 274.61204 262.50867 250.51730 239.81794 229.93957 221.04320 213.22483 206.22646
 200.06009 194.99772 191.57935 189.62098 188.65761 188.72124 189.55587 190.86350
 192.58813 194.68276 196.94539 199.30402 201.74865 204.22828 206.31591 208.15754
 209.78318 210.92781 211.15644 211.38407 211.32070 211.02533 210.65796 210.28759
 209.90422 209.61385 209.42148 209.28511 209.21274 209.54337 209.92900 210.31763
 211.11026 212.28789 213.53752 215.32015 217.24779 219.29042 221.38505 223.46768
 225.52731 227.61094 229.70757 231.81320 233.94183 236.11346 238.36909 240.73872
 243.35935 245.60998 247.61161 249.37624 250.79287 251.91550 252.73713 253.05276
 253.08939 252.86303 252.22266 251.17029 249.77592 247.93655 245.84518 243.67781
 241.46844 239.27207 237.09170 234.93033 232.78996 230.65659 228.68222 226.83885
 225.12148 223.59311 222.22274 220.99437 219.87600 218.83563 217.93927 217.07990
 216.32153 215.50116 214.59879 213.96242 213.41205 213.06409 212.24199 211.91331
 212.56003 214.44945 216.31351 217.42130 218.91130 222.74362 228.55481 233.36644
 237.09149 240.86414 244.76807 248.76820 252.71597 255.64275 257.96725 260.47726
 263.19913 265.95154 268.46573 270.49661 272.27908 274.00085 275.76620 277.54465
 279.27631 280.90399 282.42941 283.79199 284.97522 286.02573 286.98859 287.86594
 288.66272 289.37601 290.00449 290.85275
 366.78100 356.33447 345.76593 334.63140 323.03386 311.22733 299.09679 286.89926
 274.61072 262.50719 250.51566 239.81612 229.93759 221.04105 213.22252 206.22398
 200.05745 194.99491 191.57638 189.61785 188.65431 188.71778 189.55224 190.85971
 192.58417 194.67864 196.94110 199.29957 201.74404 204.22350 206.31097 208.15243
 209.77790 210.92236 211.15083 211.37829 211.31476 211.01922 210.65169 210.28116
 209.89762 209.60709 209.41455 209.27802 209.20548 209.53595 209.92141 210.30988
 211.10235 212.27981 213.52928 215.31174 217.23921 219.28167 221.37614 223.45860
 225.51807 227.60154 229.69800 231.80347 233.93193 236.10340 238.35886 240.72833
 243.34879 245.59926 247.60073 249.36519 250.78166 251.90412 252.72559 253.04105
 253.07752 252.85098 252.21045 251.15792 249.76338 247.92385 245.83231 243.66478
 241.45524 239.25871 237.07817 234.91664 232.77611 230.64257 228.66804 226.82450
 225.10697 223.57843 222.20790 220.97936 219.86083 218.82029 217.92376 217.06423
 216.30569 215.48516 214.58262 213.94609 213.39555 213.06593 212.28716 211.98616
 212.68387 214.59991 216.40187 217.47189 218.98431 222.74075 228.49440 233.27481
 236.99355 240.78424 244.71957 248.72258 252.60579 255.50575 257.84152 260.36636
 263.04605 265.76306 268.27176 270.32297 272.15894 273.93381 275.71207 277.48264
 279.21252 280.83734 282.36945 283.73291 284.91757 285.96826 286.93124 287.81094
 288.60571 289.32108 289.95084 290.79980
 366.78100 356.33522 345.76744 334.63366 323.03688 311.23110 299.10131 286.90453
 274.61675 262.51397 250.52319 239.82441 229.94663 221.05085 213.23307 206.23529
 200.06950 195.00772 191.58994 189.63216 188.66938 188.73360 189.56882 190.87704
 192.60226 194.69748 196.96069 199.31991 201.76513 204.24535 206.33357 208.17579
 209.80201 210.94723 211.17645 211.40467 211.34188 211.04710 210.68032 210.31054
 209.92776 209.63798 209.44620 209.31042 209.23864 209.56986 209.95607 210.34529
 211.13851 212.31673 213.56695 215.35017 217.27839 219.32161 221.41683 223.50005
 225.56026 227.64448 229.74170 231.84792 233.97714 236.14936 238.40558 240.77580
 243.39702 245.64824 247.65045 249.41567 250.83289 251.95611 252.77833 253.09455
 253.13177 252.90599 252.26621 251.21443 249.82065 247.98186 245.89108 243.72430
 241.51552 239.31974 237.13996 234.97918 232.83940 230.70662 228.73284 226.89005
 225.17327 223.64549 222.27571 221.04793 219.93015 218.89037 217.99459 217.13581
 216.37803 215.55824 214.65646 214.02068 213.47090 213.11900 212.28763 212.03851
 212.84613 214.76697 216.53993 217.48782 218.97308 222.74982 228.44827 233.19124
 236.90544 240.71564 244.68184 248.68291 252.48920 255.36082 257.71539 260.25644
 262.89368 265.57031 268.07013 270.14615 272.04245 273.87698 275.66724 277.42612
 279.14880 280.77692 282.31161 283.67621 284.85941 285.91180 286.87503 287.75433
 288.54984 289.26773 289.89694 290.74957
 366.78100 356.33298 345.76297 334.62695 323.02793 311.21991 299.08790 286.88888
 274.59886 262.49385 250.50083 239.79981 229.91979 221.02178 213.20176 206.20174
 200.03373 194.96971 191.54969 189.58967 188.62466 188.68664 189.51962 190.82561
 192.54859 194.64157 196.90255 199.25954 201.70252 204.18050 206.26649 208.10647
 209.73045 210.87343 211.10042 211.32640 211.26138 210.96437 210.59535 210.22333
 209.83831 209.54630 209.35228 209.21426 209.14024 209.46923 209.85321 210.24019
 211.03118 212.20716 213.45514 215.23612 217.16211 219.20309 221.29607 223.37706
 225.43504 227.51702 229.61200 231.71599 233.84297 236.01295 238.26694 240.63492
 243.25390 245.50288 247.50287 249.26585 250.68083 251.80182 252.62180 252.93578
 252.97076 252.74275 252.10073 251.04671 249.65070 247.80968 245.71666 243.54764
 241.33663 239.13861 236.95659 234.79358 232.65156 230.51654 228.54052 226.69551
 224.97649 223.44647 222.07446 220.84444 219.72442 218.68240 217.78439 216.92337
 216.16335 215.34134 214.43732 213.79930 213.24728 213.02565 212.50204 212.07413
 212.81111 214.88950 216.71590 217.60352 219.03851 222.72729 228.39853 233.10481
 236.80914 240.64119 244.64017 248.63799 252.36047 255.20760 257.59088 260.15213
 262.74792 265.38123 267.86664 269.96686 271.92465 273.82166 275.62338 277.36752
 279.08011 280.72256 282.25952 283.62341 284.80923 285.86215 286.82614 287.70551
 288.50232 289.21698 289.85138 290.70065
 366.78100 356.33199 345.76098 334.62397 323.02397 311.21496 299.08195 286.88194
 274.59093 262.48492 250.49092 239.78891 229.90790 221.00889 213.18788 206.18687
 200.01787 194.95286 191.53185 189.57084 188.60483 188.66582 189.49782 190.80281
 192.52480 194.61679 196.87678 199.23277 201.67477 204.15176 206.23675 208.07574
 209.69873 210.84072 211.06672 211.29171 211.22570 210.92769 210.55768 210.18467
 209.79867 209.50566 209.31065 209.17164 209.09663 209.42462 209.80761 210.19361
 210.98360 212.15859 213.40558 215.18557 217.11056 219.15056 221.24255 223.32254
 225.37953 227.46052 229.55451 231.65751 233.78350 235.95249 238.20548 240.57247
 243.19046 245.43846 247.43745 249.19944 250.61343 251.73342 252.55241 252.86541
 252.89940 252.67039 252.02738 250.97237 249.57536 247.73336 245.63935 243.46934
 241.25733 239.05832 236.87531 234.71131 232.56830 230.43229 228.45528 226.60927
 224.88926 223.35825 221.98525 220.75424 219.63323 218.59022 217.69121 216.82920
 216.06820 215.24519 214.34018 213.70117 213.14816 212.98982 212.61575 212.13252
 212.85370 215.01056 216.87511 217.72292 219.10150 222.70305 228.33954 233.01205
 236.71120 240.56955 244.60335 248.59711 252.23456 255.06017 257.47580 260.05518
 262.60922 265.19247 267.65833 269.78262 271.80487 273.76773 275.58118 277.30884
 279.00995 280.66888 282.20993 283.57446 284.76135 285.81363 286.77939 287.65903
 288.45654 289.17261 289.80255 290.66452
 366.78100 356.33157 345.76013 334.62270 323.02226 311.21283 299.07939 286.87896
 274.58752 262.48109 250.48665 239.78422 229.90278 221.00335 213.18191 206.18048
 200.01104 194.94561 191.52417 189.56274 188.59630 188.65687 189.48843 190.79300
 192.51456 194.60613 196.86569 199.22126 201.66282 204.13939 206.22395 208.06252
 209.68508 210.82665 211.05221 211.27678 211.21035 210.91191 210.54148 210.16804
 209.78161 209.48817 209.29274 209.15330 209.07787 209.40543 209.78800 210.17356
 210.96313 212.13769 213.38426 215.16382 217.08839 219.12795 221.21952 223.29908
 225.35565 227.43621 229.52978 231.63234 233.75791 235.92647 238.17904 240.54560
 243.16317 245.41073 247.40930 249.17086 250.58443 251.70400 252.52256 252.83513
 252.86869 252.63926 251.99582 250.94039 249.54295 247.70052 245.60608 243.43565
 241.22321 239.02378 236.84034 234.67591 232.53247 230.39604 228.41860 226.57217
 224.85173 223.32030 221.94686 220.71543 219.59399 218.55056 217.65112 216.78869
 216.02725 215.20382 214.29838 213.65895 213.10551 212.98500 212.70029 212.18221
 212.93729 215.12476 217.00027 217.82872 219.16820 222.69394 228.28618 232.92616
 236.62413 240.50983 244.57671 248.56386 252.11093 254.91115 257.35669 259.95041
 262.46503 264.99802 267.44278 269.59644 271.68802 273.72034 275.54620 277.25775
 278.94751 280.61636 282.15869 283.52594 284.71112 285.76590 286.73190 287.61328
 288.40848 289.12637 289.75870 290.62082
 366.78100 356.33116 345.75932 334.62147 323.02063 311.21079 299.07695 286.87611
 274.58427 262.47742 250.48258 239.77974 229.89790 220.99806 213.17621 206.17437
 200.00453 194.93869 191.51685 189.55501 188.58816 188.64832 189.47948 190.78364
 192.50480 194.59595 196.85511 199.21027 201.65143 204.12759 206.21175 208.04990
 209.67206 210.81322 211.03838 211.26254 211.19569 210.89685 210.52601 210.15217
 209.76533 209.47149 209.27564 209.13580 209.05996 209.38712 209.76928 210.15444
 210.94359 212.11775 213.36391 215.14307 217.06723 219.10638 221.19754 223.27670
 225.33286 227.41302 229.50618 231.60833 233.73349 235.90165 238.15381 240.51997
 243.13712 245.38428 247.38244 249.14360 250.55676 251.67592 252.49407 252.80623
 252.83939 252.60955 251.96571 250.90986 249.51202 247.66918 245.57434 243.40350
 241.19066 238.99081 236.80697 234.64213 232.49829 230.36145 228.38360 226.53676
 224.81592 223.28408 221.91024 220.67840 219.55655 218.51271 217.61287 216.75003
 215.98819 215.16434 214.25850 213.61866 213.06482 212.98230 212.78732 212.22383
 213.03334 215.23808 217.07912 217.92633 219.26787 222.69830 228.24620 232.85379
 236.54984 240.46165 244.55515 248.52777 251.97572 254.74304 257.21912 259.83072
 262.31436 264.80356 267.23193 269.42108 271.58228 273.68195 275.51932 277.21524
 278.88953 280.56403 282.10754 283.47516 284.66217 285.71725 286.68359 287.56339
 288.36218 289.07812 289.71304 290.57288
 366.78100 356.33091 345.75883 334.62074 323.01966 311.20957 299.07549 286.87440
 274.58232 262.47523 250.48015 239.77706 229.89498 220.99489 213.17281 206.17072
 200.00063 194.93455 191.51246 189.55038 188.58329 188.64321 189.47412 190.77804
 192.49895 194.58987 196.84878 199.20370 201.64461 204.12053 206.20444 208.04235
 209.66427 210.80518 211.03010 211.25401 211.18693 210.88784 210.51676 210.14267
 209.75559 209.46150 209.26542 209.12533 209.04925 209.37616 209.75807 210.14299
 210.93190 212.10582 213.35173 215.13065 217.05456 219.09348 221.18439 223.26331
 225.31922 227.39914 229.49205 231.59397 233.71888 235.88679 238.13871 240.50462
 243.12154 245.36845 247.36637 249.12728 250.54020 251.65911 252.47703 252.78894
 252.82186 252.59177 251.94769 250.89160 249.49351 247.65043 245.55534 243.38426
 241.17117 238.97109 236.78700 234.62192 232.47783 230.34075 228.36266 226.51558
 224.79449 223.26241 221.88832 220.65623 219.53415 218.49006 217.58998 216.72689
 215.96481 215.14072 214.23464 213.59455 213.04047 212.98901 212.86742 212.26115
 213.14226 215.35898 217.12985 218.01859 219.39026 222.70914 228.21275 232.79137
 236.48476 240.41843 244.52914 248.47731 251.81993 254.55142 257.06363 259.70145
 262.16614 264.61975 267.03766 269.26434 271.49033 273.65097 275.49783 277.18063
 278.83704 280.51190 282.05780 283.42505 284.61362 285.66873 286.63602 287.51712
 288.31595 289.03278 289.66812 290.52853
 366.78100 356.33084 345.75867 334.62051 323.01935 311.20919 299.07502 286.87386
 274.58170 262.47453 250.47937 239.77621 229.89405 220.99388 213.17172 206.16956
 199.99939 194.93323 191.51107 189.54891 188.58174 188.64158 189.47242 190.77625
 192.49709 194.58793 196.84677 199.20160 201.64244 204.11828 206.20211 208.03995
 209.66179 210.80263 211.02746 211.25130 211.18414 210.88497 210.51381 210.13965
 209.75249 209.45832 209.26216 209.12200 209.04583 209.37267 209.75451 210.13935
 210.92818 212.10202 213.34786 215.12669 217.05053 219.08937 221.18021 223.25904
 225.31488 227.39472 229.48755 231.58939 233.71423 235.88207 238.13390 240.49974
 243.11658 245.36341 247.36125 249.12209 250.53493 251.65376 252.47160 252.78344
 252.81627 252.58611 251.94195 250.88579 249.48762 247.64446 245.54930 243.37813
 241.16497 238.96481 236.78065 234.61548 232.47132 230.33416 228.35599 226.50883
 224.78767 223.25551 221.88134 220.64918 219.52702 218.48285 217.58269 216.71953
 215.95737 215.13320 214.22704 213.58688 213.03271 213.00499 212.93948 212.29755
 213.25414 215.48373 217.18185 218.11664 219.51562 222.72203 228.18234 232.73605
 236.42302 240.37318 244.49249 248.40781 251.64684 254.34566 256.89850 259.56808
 262.02466 264.45020 266.86118 269.12701 271.41122 273.62595 275.48062 277.15182
 278.79248 280.46268 282.00821 283.37546 284.56354 285.61917 286.58798 287.46799
 288.26804 288.98749 289.61804 290.48453
 366.78100 356.33077 345.75853 334.62030 323.01907 311.20883 299.07460 286.87337
 274.58113 262.47390 250.47867 239.77543 229.89320 220.99297 213.17073 206.16850
 199.99827 194.93203 191.50980 189.54757 188.58033 188.64010 189.47087 190.77463
 192.49540 194.58617 196.84493 199.19970 201.64047 204.11623 206.20000 208.03777
 209.65953 210.80030 211.02507 211.24883 211.18160 210.88237 210.51113 210.13690
 209.74967 209.45543 209.25920 209.11897 209.04273 209.36950 209.75127 210.13603
 210.92480 212.09857 213.34433 215.12310 217.04687 219.08563 221.17640 223.25517
 225.31093 227.39070 229.48347 231.58523 233.71000 235.87777 238.12953 240.49530
 243.11207 245.35883 247.35660 249.11737 250.53013 251.64890 252.46667 252.77843
 252.81120 252.58097 251.93673 250.88050 249.48227 247.63903 245.54380 243.37257
 241.15933 238.95910 236.77487 234.60963 232.46540 230.32817 228.34993 226.50270
 224.78147 223.24923 221.87500 220.64277 219.52053 218.47630 217.57607 216.71283
 215.95060 215.12637 214.22013 213.57990 213.02567 213.02177 213.01257 212.33449
 213.35951 215.60735 217.24547 218.22972 219.64236 222.73518 228.15584 232.68524
 236.36063 240.32178 244.44347 248.32133 251.46191 254.13197 256.72647 259.42923
 261.88565 264.29288 266.70139 269.00797 271.34467 273.60461 275.46313 277.11993
 278.74451 280.41629 281.96210 283.33044 284.51913 285.57562 286.54297 287.42548
 288.22519 288.94205 289.57556 290.44150
 366.78100 356.33061 345.75822 334.61983 323.01844 311.20806 299.07367 286.87228
 274.57989 262.47250 250.47711 239.77372 229.89133 220.99094 213.16855 206.16617
 199.99578 194.92939 191.50700 189.54461 188.57722 188.63683 189.46744 190.77105
 192.49166 194.58228 196.84089 199.19550 201.63611 204.11172 206.19533 208.03294
 209.65455 210.79516 211.01977 211.24339 211.17600 210.87661 210.50522 210.13083
 209.74344 209.44905 209.25266 209.11227 209.03588 209.36250 209.74411 210.12872
 210.91733 212.09094 213.33655 215.11516 217.03877 219.07738 221.16799 223.24661
 225.30222 227.38183 229.47444 231.57605 233.70066 235.86827 238.11988 240.48549
 243.10210 245.34872 247.34633 249.10694 250.51955 251.63816 252.45577 252.76738
 252.79999 252.56960 251.92521 250.86883 249.47044 247.62705 245.53166 243.36027
 241.14688 238.94649 236.76210 234.59671 232.45233 230.31494 228.33655 226.48916
 224.76777 223.23538 221.86099 220.62860 219.50621 218.46182 217.56144 216.69805
 215.93566 215.11127 214.20488 213.56449 213.01010 213.03395 213.09033 212.37502
 213.45468 215.72351 217.31479 218.35626 219.77910 222.75082 228.13519 232.63702
 236.29849 240.26764 244.38457 248.22000 251.26810 253.90982 256.54236 259.27673
 261.74231 264.14322 266.55988 268.90945 271.29263 273.59006 275.45804 277.10678
 278.73538 280.36288 281.90656 283.27405 284.46436 285.52148 286.48972 287.37170
 288.17270 288.88785 289.52353 290.39377
 366.78100 356.33033 345.75766 334.61900 323.01733 311.20666 299.07199 286.87032
 274.57766 262.46999 250.47432 239.77065 229.88798 220.98732 213.16465 206.16198
 199.99131 194.92465 191.50198 189.53931 188.57164 188.63097 189.46131 190.76464
 192.48497 194.57530 196.83363 199.18797 201.62830 204.10363 206.18696 208.02429
 209.64563 210.78596 211.01029 211.23362 211.16595 210.86629 210.49462 210.11995
 209.73228 209.43762 209.24095 209.10028 209.02361 209.34994 209.73128 210.11561
 210.90394 212.07727 213.32260 215.10094 217.02427 219.06260 221.15293 223.23126
 225.28660 227.36593 229.45826 231.55959 233.68392 235.85126 238.10259 240.46792
 243.08425 245.33059 247.32792 249.08825 250.50058 251.61891 252.43625 252.74758
 252.77991 252.54924 251.90457 250.84791 249.44924 247.60557 245.50990 243.33823
 241.12457 238.92390 236.73923 234.57356 232.42889 230.29123 228.31256 226.46489
 224.74322 223.21056 221.83589 220.60322 219.48055 218.43588 217.53522 216.67155
 215.90888 215.08421 214.17754 213.53688 212.98221 213.03918 213.17380 212.42284
 213.54433 215.82620 217.37733 218.48848 219.92996 222.77606 228.12274 232.59335
 236.24283 240.21986 244.32292 248.10681 251.06334 253.67412 256.33945 259.10437
 261.59055 264.00098 266.43680 268.83252 271.25601 273.58008 275.45157 277.09262
 278.72351 280.32172 281.86349 283.23233 284.42169 285.48010 286.44919 287.33014
 288.13040 288.84750 289.48294 290.35022
 366.78100 356.32995 345.75690 334.61784 323.01579 311.20474 299.06969 286.86763
 274.57458 262.46653 250.47048 239.76642 229.88337 220.98232 213.15927 206.15622
 199.98516 194.91811 191.49506 189.53201 188.56395 188.62290 189.45285 190.75580
 192.47575 194.56569 196.82364 199.17759 201.61754 204.09248 206.17543 208.01238
 209.63333 210.77327 210.99722 211.22017 211.15212 210.85207 210.48001 210.10496
 209.71691 209.42186 209.22480 209.08375 209.00670 209.33265 209.71359 210.09754
 210.88549 212.05844 213.30339 215.08133 217.00428 219.04223 221.13218 223.21012
 225.26507 227.34402 229.43597 231.53692 233.66086 235.82781 238.07876 240.44371
 243.05965 245.30560 247.30255 249.06250 250.47444 251.59239 252.40934 252.72029
 252.75224 252.52118 251.87613 250.81908 249.42003 247.57597 245.47992 243.30787
 241.09382 238.89276 236.70771 234.54166 232.39661 230.25856 228.27950 226.43145
 224.70940 223.17635 221.80129 220.56824 219.44519 218.40014 217.49909 216.63503
 215.87198 215.04693 214.13988 213.49882 212.94377 213.03778 213.25987 212.48184
 213.63414 215.91400 217.42110 218.61607 220.09708 222.81371 228.11928 232.55876
 236.19861 240.18253 244.26172 247.98193 250.84720 253.42606 256.11905 258.91245
 261.42978 263.86563 266.33258 268.77600 271.23441 273.57367 275.44000 277.06897
 278.68784 280.29724 281.83966 283.21027 284.40182 285.46057 286.43011 287.31357
 288.11566 288.83414 289.46826 290.33643
 366.78100 356.32945 345.75590 334.61636 323.01381 311.20226 299.06671 286.86416
 274.57062 262.46207 250.46552 239.76097 229.87743 220.97588 213.15233 206.14878
 199.97723 194.90969 191.48614 189.52259 188.55404 188.61249 189.44195 190.74440
 192.46385 194.55330 196.81075 199.16421 201.60366 204.07811 206.16056 207.99702
 209.61747 210.75692 210.98037 211.20282 211.13428 210.83373 210.46118 210.08563
 209.69708 209.40154 209.20399 209.06244 208.98489 209.31034 209.69080 210.07425
 210.86170 212.03415 213.27861 215.05606 216.97851 219.01596 221.10541 223.18287
 225.23732 227.31577 229.40722 231.50767 233.63113 235.79758 238.04803 240.41248
 243.02793 245.27339 247.26984 249.02929 250.44074 251.55820 252.37465 252.68510
 252.71655 252.48500 251.83946 250.78191 249.38236 247.53781 245.44126 243.26872
 241.05417 238.85262 236.66707 234.50052 232.35498 230.21643 228.23688 226.38833
 224.66579 223.13224 221.75669 220.52314 219.39959 218.35405 217.45250 216.58795
 215.82440 214.99885 214.09131 213.44976 212.89421 213.02867 213.34633 212.55464
 213.72525 215.99222 217.44954 218.72591 220.25784 222.86720 228.12096 232.53767
 236.16963 240.15910 244.20247 247.84657 250.62170 253.17035 255.88535 258.70526
 261.26337 263.73959 266.24838 268.74057 271.22534 273.57330 275.43118 277.04916
 278.65591 280.27643 281.82065 283.19009 284.38171 285.44046 286.41074 287.29224
 288.09442 288.81479 289.44803 290.31583
 366.78100 356.32873 345.75447 334.61420 323.01094 311.19867 299.06241 286.85914
 274.56488 262.45561 250.45835 239.75308 229.86882 220.96655 213.14229 206.13802
 199.96576 194.89749 191.47323 189.50896 188.53970 188.59743 189.42617 190.72790
 192.44664 194.53537 196.79210 199.14484 201.58357 204.05731 206.13904 207.97478
 209.59451 210.73325 210.95598 211.17772 211.10845 210.80719 210.43392 210.05766
 209.66839 209.37213 209.17386 209.03160 208.95333 209.27807 209.65780 210.04054
 210.82727 211.99900 213.24274 215.01947 216.94121 218.97794 221.06668 223.14341
 225.19715 227.27488 229.36562 231.46535 233.58809 235.75382 238.00356 240.36729
 242.98203 245.22676 247.22250 248.98123 250.39197 251.50870 252.32444 252.63417
 252.66491 252.43264 251.78637 250.72811 249.32784 247.48258 245.38531 243.21205
 240.99678 238.79452 236.60825 234.44099 232.29472 230.15546 228.17519 226.32593
 224.60266 223.06840 221.69213 220.45787 219.33360 218.28734 217.38507 216.51981
 215.75554 214.92927 214.02101 213.37874 212.82248 213.00606 213.43977 212.63841
 213.83290 216.06122 217.43591 218.81863 220.43134 222.92784 228.12497 232.53423
 236.15405 240.14595 244.14175 247.69745 250.38765 252.90979 255.64317 258.48929
 261.09650 263.62601 266.18393 268.72107 271.22745 273.57703 275.42725 277.03683
 278.64276 280.25464 281.79761 283.16785 284.36096 285.42078 286.39096 287.27686
 288.08340 288.80814 289.44656 290.30713
 366.78100 356.32801 345.75302 334.61203 323.00804 311.19505 299.05806 286.85408
 274.55909 262.44910 250.45111 239.74512 229.86013 220.95714 213.13215 206.12716
 199.95417 194.88518 191.46019 189.49520 188.52522 188.58223 189.41024 190.71125
 192.42926 194.51727 196.77328 199.12529 201.56330 204.03631 206.11732 207.95233
 209.57134 210.70936 210.93137 211.15238 211.08239 210.78040 210.40641 210.02942
 209.63943 209.34244 209.14345 209.00046 208.92147 209.24548 209.62450 210.00651
 210.79252 211.96353 213.20654 214.98255 216.90356 218.93957 221.02758 223.10359
 225.15660 227.23361 229.32362 231.42264 233.54465 235.70966 237.95867 240.32168
 242.93569 245.17970 247.17471 248.93272 250.34273 251.45874 252.27375 252.58276
 252.61277 252.37979 251.73280 250.67381 249.27282 247.42683 245.32884 243.15485
 240.93886 238.73587 236.54888 234.38089 232.23390 230.09391 228.11293 226.26294
 224.53895 223.00396 221.62697 220.39198 219.26699 218.22000 217.31701 216.45102
 215.68603 214.85904 213.95005 213.30707 212.75008 212.97989 213.52284 212.75455
 213.92485 216.14540 217.45773 218.85822 220.52806 222.99191 228.12178 232.53510
 236.14865 240.14232 244.08417 247.54642 250.16183 252.65884 255.40372 258.27145
 260.93201 263.52347 266.13284 268.71262 271.23892 273.58661 275.42807 277.02917
 278.63745 280.23120 281.77435 283.14697 284.33878 285.39944 286.36966 287.25677
 288.06146 288.78802 289.42734 290.28540
 366.78100 356.32818 345.75336 334.61254 323.00873 311.19591 299.05909 286.85527
 274.56045 262.45063 250.45282 239.74700 229.86218 220.95936 213.13454 206.12972
 199.95690 194.88809 191.46327 189.49845 188.52863 188.58581 189.41399 190.71517
 192.43336 194.52154 196.77772 199.12990 201.56808 204.04126 206.12245 207.95763
 209.57681 210.71499 210.93717 211.15835 211.08853 210.78672 210.41290 210.03608
 209.64626 209.34944 209.15062 209.00780 208.92899 209.25317 209.63235 210.01453
 210.80071 211.97189 213.21508 214.99126 216.91244 218.94862 221.03680 223.11298
 225.16616 227.24335 229.33353 231.43271 233.55489 235.72007 237.96925 240.33244
 242.94662 245.19080 247.18598 248.94416 250.35434 251.47052 252.28571 252.59489
 252.62507 252.39225 251.74543 250.68661 249.28579 247.43998 245.34216 243.16834
 240.95252 238.74970 236.56288 234.39507 232.24825 230.10843 228.12761 226.27779
 224.55397 223.01915 221.64234 220.40752 219.28270 218.23588 217.33306 216.46724
 215.70242 214.87561 213.96679 213.32397 212.76715 212.99628 213.53763 212.92436
 214.11304 216.16762 217.31554 218.86708 220.67976 223.04941 228.13979 232.57990
 236.17441 240.16283 244.04431 247.40495 249.94786 252.41090 255.15669 258.04068
 260.75787 263.41849 266.08481 268.70844 271.25079 273.59256 275.41904 277.01114
 278.62311 280.21164 281.75473 283.12772 284.32047 285.38019 286.35001 287.23538
 288.04105 288.76743 289.40509 290.25888
 366.78100 356.33111 345.75921 334.62132 323.02042 311.21053 299.07664 286.87574
 274.58385 262.47695 250.48206 239.77917 229.89727 220.99738 213.17548 206.17359
 200.00370 194.93780 191.51591 189.55401 188.58712 188.64723 189.47833 190.78244
 192.50354 194.59465 196.85376 199.20886 201.64997 204.12607 206.21018 208.04829
 209.67039 210.81150 211.03660 211.26071 211.19382 210.89492 210.52403 210.15013
 209.76324 209.46935 209.27345 209.13356 209.05766 209.38477 209.76688 210.15198
 210.94109 212.11519 213.36130 215.14041 217.06451 219.10362 221.19472 223.27383
 225.32994 227.41004 229.50315 231.60525 233.73036 235.89847 238.15057 240.51668
 243.13378 245.38089 247.37900 249.14010 250.55321 251.67231 252.49042 252.80253
 252.83563 252.60574 251.96184 250.90595 249.50806 247.66516 245.57027 243.39937
 241.18648 238.98659 236.80269 234.63780 232.49390 230.35701 228.37912 226.53222
 224.81133 223.27943 221.90554 220.67365 219.55175 218.50786 217.60796 216.74507
 215.98318 215.15928 214.25339 213.61349 213.05960 213.14668 213.35243 213.30484
 214.35788 215.91177 217.13504 218.91368 220.88094 223.25786 228.18056 232.62753
 236.21255 240.18918 244.00110 247.24524 249.70920 252.13722 254.88634 257.79025
 260.57544 263.31586 266.04498 268.71036 271.26535 273.59335 275.39969 276.98532
 278.60153 280.19186 281.73572 283.10770 284.30151 285.36130 286.32986 287.21609
 288.02216 288.74719 289.38571 290.23608
 366.78100 356.33268 345.76237 334.62605 323.02674 311.21842 299.08611 286.88679
 274.59648 262.49116 250.49785 239.79653 229.91621 221.01790 213.19758 206.19727
 200.02895 194.96464 191.54432 189.58401 188.61869 188.68038 189.51306 190.81874
 192.54143 194.63411 196.89480 199.25148 201.69417 204.17185 206.25754 208.09722
 209.72090 210.86359 211.09027 211.31596 211.25064 210.95333 210.58401 210.21170
 209.82638 209.53407 209.33975 209.20143 209.12712 209.45580 209.83949 210.22617
 211.01686 212.19254 213.44023 215.22091 217.14660 219.18728 221.27996 223.36065
 225.41833 227.50002 229.59470 231.69839 233.82507 235.99476 238.24844 240.61613
 243.23481 245.48349 247.48318 249.24586 250.66055 251.78123 252.60092 252.91460
 252.94929 252.72097 252.07866 251.02434 249.62802 247.78671 245.69339 243.52408
 241.31276 239.11445 236.93213 234.76882 232.62650 230.49119 228.51487 226.66955
 224.95024 223.41992 222.04761 220.81729 219.69698 218.65466 217.75635 216.89503
 216.13471 215.31240 214.40808 213.76977 213.21745 213.23711 213.28352 213.50357
 214.54948 215.78696 217.09651 218.96431 221.02776 223.46429 228.21901 232.65709
 236.24434 240.20784 243.94322 247.06207 249.44724 251.85112 254.61314 257.54541
 260.40533 263.22977 266.01953 268.72168 271.28210 273.59311 275.37888 276.95898
 278.57477 280.17233 281.71695 283.08997 284.28247 285.34100 286.31052 287.19394
 288.00159 288.72504 289.36169 290.21207
 366.78100 356.33372 345.76444 334.62916 323.03088 311.22360 299.09231 286.89403
 274.60475 262.50047 250.50819 239.80791 229.92863 221.03135 213.21207 206.21279
 200.04551 194.98222 191.56294 189.60366 188.63938 188.70210 189.53582 190.84254
 192.56626 194.65998 196.92170 199.27942 201.72313 204.20185 206.28857 208.12929
 209.75401 210.89773 211.12545 211.35217 211.28789 210.99161 210.62332 210.25204
 209.86776 209.57648 209.38320 209.24592 209.17264 209.50236 209.88708 210.27480
 211.06652 212.24323 213.49195 215.27367 217.20039 219.24211 221.33583 223.41755
 225.47627 227.55899 229.65471 231.75943 233.88714 236.05786 238.31258 240.68130
 243.30102 245.55074 247.55146 249.31518 250.73090 251.85262 252.67334 252.98805
 253.02377 252.79649 252.15521 251.10193 249.70665 247.86637 245.77409 243.60581
 241.39553 239.19825 237.01696 234.85468 232.71340 230.57912 228.60384 226.75956
 225.04128 223.51200 222.14072 220.91144 219.79215 218.75087 217.85359 216.99331
 216.23403 215.41275 214.50947 213.87219 213.32091 213.30016 213.25113 213.67648
 214.71472 215.73419 217.09050 218.98624 221.11789 223.63304 228.25334 232.67644
 236.27248 240.22395 243.88132 246.87720 249.19162 251.57892 254.35760 257.32059
 260.25433 263.15741 265.99966 268.72986 271.29288 273.58633 275.35474 276.93100
 278.55072 280.14960 281.69354 283.06555 284.25894 285.31827 286.28790 287.17041
 287.97595 288.70001 289.33746 290.18118
 366.78100 356.33412 345.76524 334.63036 323.03248 311.22560 299.09473 286.89685
 274.60797 262.50409 250.51221 239.81233 229.93345 221.03657 213.21769 206.21881
 200.05194 194.98906 191.57018 189.61130 188.64742 188.71054 189.54466 190.85178
 192.57590 194.67002 196.93215 199.29027 201.73439 204.21351 206.30063 208.14175
 209.76687 210.91099 211.13911 211.36623 211.30236 211.00648 210.63860 210.26772
 209.88384 209.59296 209.40008 209.26320 209.19032 209.52044 209.90557 210.29369
 211.08581 212.26293 213.51205 215.29417 217.22129 219.26341 221.35753 223.43965
 225.49878 227.58190 229.67802 231.78314 233.91126 236.08238 238.33750 240.70662
 243.32674 245.57686 247.57799 249.34211 250.75823 251.88035 252.70147 253.01659
 253.05271 252.82583 252.18495 251.13207 249.73720 247.89732 245.80544 243.63756
 241.42768 239.23080 237.04992 234.88804 232.74716 230.61328 228.63841 226.79453
 225.07665 223.54777 222.17689 220.94801 219.82913 218.78825 217.89137 217.03149
 216.27262 215.45174 214.54886 213.91198 213.36110 213.33116 213.26045 213.85603
 214.83543 215.70578 217.07629 219.00423 221.19041 223.77496 228.28711 232.69286
 236.29993 240.24083 243.82376 246.70410 248.95428 251.32628 254.11945 257.11020
 260.11182 263.08472 265.97141 268.72861 271.29465 273.57153 275.32166 276.90063
 278.52310 280.12088 281.66412 283.03751 284.22934 285.28857 286.25653 287.13934
 287.94293 288.66931 289.30151 290.14874
 366.78100 356.33382 345.76464 334.62946 323.03129 311.22411 299.09293 286.89475
 274.60557 262.50139 250.50921 239.80904 229.92986 221.03268 213.21350 206.21432
 200.04714 194.98396 191.56479 189.60561 188.64143 188.70425 189.53807 190.84489
 192.56872 194.66254 196.92436 199.28218 201.72600 204.20482 206.29164 208.13247
 209.75729 210.90111 211.12893 211.35575 211.29157 210.99539 210.62722 210.25604
 209.87186 209.58068 209.38750 209.25032 209.17714 209.50697 209.89179 210.27961
 211.07143 212.24825 213.49707 215.27889 217.20572 219.24754 221.34136 223.42318
 225.48200 227.56482 229.66064 231.76547 233.89329 236.06411 238.31893 240.68775
 243.30757 245.55740 247.55822 249.32204 250.73786 251.85968 252.68050 252.99532
 253.03115 252.80397 252.16279 251.10961 249.71443 247.87425 245.78207 243.61390
 241.40372 239.20654 237.02536 234.86318 232.72200 230.58782 228.61265 226.76847
 225.05029 223.52111 222.14993 220.92075 219.80157 218.76040 217.86322 217.00304
 216.24386 215.42268 214.51950 213.88232 213.33115 213.32764 213.31937 214.01567
 214.93761 215.70888 217.06236 219.02124 221.24026 223.89085 228.31610 232.70755
 236.32451 240.25613 243.76733 246.53593 248.72401 251.08081 253.88739 256.90445
 259.97025 263.00754 265.93762 268.72366 271.29611 273.55786 275.29230 276.86673
 278.48166 280.09259 281.63614 283.00864 284.20041 285.25928 286.22519 287.10696
 287.91116 288.63370 289.26810 290.10651
 366.78100 356.33339 345.76379 334.62818 323.02958 311.22197 299.09037 286.89176
 274.60216 262.49755 250.50495 239.80434 229.92474 221.02713 213.20753 206.20792
 200.04032 194.97671 191.55711 189.59750 188.63290 188.69529 189.52869 190.83508
 192.55848 194.65187 196.91327 199.27066 201.71406 204.19245 206.27885 208.11924
 209.74364 210.88703 211.11443 211.34082 211.27622 210.97961 210.61101 210.23940
 209.85480 209.56319 209.36959 209.23198 209.15838 209.48777 209.87217 210.25956
 211.05096 212.22735 213.47575 215.25714 217.18354 219.22493 221.31833 223.39972
 225.45812 227.54051 229.63591 231.74030 233.86770 236.03809 238.29249 240.66088
 243.28028 245.52967 247.53007 249.29346 250.70886 251.83025 252.65065 252.96504
 253.00044 252.77283 252.13123 251.07762 249.68202 247.84141 245.74881 243.58020
 241.36960 239.17199 236.99039 234.82778 232.68618 230.55157 228.57597 226.73136
 225.01276 223.48315 222.11155 220.88194 219.76234 218.72073 217.82313 216.96252
 216.20292 215.38131 214.47771 213.84010 213.28850 213.31967 213.39330 214.15483
 215.05424 215.74451 217.05663 219.01912 221.26128 223.99013 228.34369 232.72540
 236.34668 240.26208 243.69684 246.35242 248.48030 250.83046 253.65852 256.70871
 259.83923 262.93896 265.91089 268.72266 271.29907 273.54825 275.27582 276.84674
 278.44989 280.05283 281.59692 282.96793 284.16031 285.21783 286.18414 287.06564
 287.86835 288.59048 289.22366 290.05914
 366.78100 356.33319 345.76339 334.62758 323.02878 311.22097 299.08917 286.89036
 274.60055 262.49575 250.50294 239.80214 229.92233 221.02453 213.20472 206.20491
 200.03711 194.97330 191.55350 189.59369 188.62889 188.69108 189.52428 190.83047
 192.55366 194.64686 196.90805 199.26525 201.70844 204.18664 206.27283 208.11302
 209.73722 210.88041 211.10761 211.33380 211.26900 210.97219 210.60338 210.23158
 209.84677 209.55497 209.36116 209.22336 209.14955 209.47874 209.86294 210.25013
 211.04133 212.21752 213.46572 215.24691 217.17310 219.21430 221.30749 223.38869
 225.44688 227.52908 229.62427 231.72847 233.85566 236.02585 238.28005 240.64824
 243.26744 245.51663 247.51683 249.28002 250.69521 251.81641 252.63660 252.95080
 252.98599 252.75819 252.11638 251.06257 249.66677 247.82596 245.73316 243.56435
 241.35355 239.15574 236.97393 234.81113 232.66932 230.53452 228.55871 226.71391
 224.99510 223.46530 222.09349 220.86368 219.74388 218.70207 217.80427 216.94346
 216.18366 215.36185 214.45804 213.82024 213.26843 213.32581 213.46136 214.28879
 215.18330 215.79454 217.06493 219.01376 221.27534 224.07773 228.37030 232.74138
 236.35918 240.24327 243.59140 246.13634 248.21773 250.58012 253.44617 256.53900
 259.73584 262.89261 265.89664 268.72229 271.29767 273.53238 275.25696 276.82477
 278.42508 280.00549 281.54684 282.91840 284.10901 285.16745 286.13297 287.01376
 287.81503 288.53549 289.17123 290.00269
 366.78100 356.33308 345.76316 334.62724 323.02832 311.22040 299.08848 286.88957
 274.59965 262.49473 250.50181 239.80089 229.92097 221.02305 213.20313 206.20321
 200.03529 194.97137 191.55145 189.59154 188.62662 188.68870 189.52178 190.82786
 192.55094 194.64402 196.90510 199.26218 201.70526 204.18334 206.26942 208.10950
 209.73359 210.87667 211.10375 211.32983 211.26491 210.96799 210.59907 210.22715
 209.84223 209.55031 209.35639 209.21847 209.14456 209.47364 209.85772 210.24480
 211.03588 212.21196 213.46004 215.24112 217.16720 219.20828 221.30136 223.38244
 225.44052 227.52261 229.61769 231.72177 233.84885 236.01893 238.27301 240.64109
 243.26017 245.50925 247.50933 249.27241 250.68749 251.80858 252.62866 252.94274
 252.97782 252.74990 252.10798 251.05406 249.65814 247.81722 245.72430 243.55538
 241.34446 239.14654 236.96463 234.80171 232.65979 230.52487 228.54895 226.70403
 224.98511 223.45519 222.08327 220.85335 219.73343 218.69151 217.79360 216.93268
 216.17276 215.35084 214.44692 213.80900 213.25708 213.33858 213.53114 214.41647
 215.31424 215.84525 217.10040 219.04327 221.29619 224.14024 228.38684 232.74411
 236.35310 240.19118 243.44586 245.88918 247.94525 250.34122 253.25734 256.39987
 259.65768 262.85977 265.88190 268.71924 271.29639 273.52518 275.24417 276.79187
 278.37286 279.94757 281.48724 282.85812 284.05035 285.10715 286.07077 286.95203
 287.75363 288.47311 289.10858 289.93552
 366.78100 356.33310 345.76320 334.62730 323.02839 311.22049 299.08859 286.88969
 274.59979 262.49489 250.50199 239.80109 229.92118 221.02328 213.20338 206.20348
 200.03558 194.97168 191.55178 189.59187 188.62697 188.68907 189.52217 190.82827
 192.55137 194.64447 196.90556 199.26266 201.70576 204.18386 206.26996 208.11006
 209.73416 210.87726 211.10435 211.33045 211.26555 210.96865 210.59975 210.22785
 209.84295 209.55104 209.35714 209.21924 209.14534 209.47444 209.85854 210.24564
 211.03674 212.21283 213.46093 215.24203 217.16813 219.20923 221.30233 223.38343
 225.44152 227.52362 229.61872 231.72282 233.84992 236.02002 238.27412 240.64222
 243.26131 245.51041 247.51051 249.27361 250.68871 251.80981 252.62991 252.94400
 252.97910 252.75120 252.10930 251.05540 249.65950 247.81860 245.72569 243.55679
 241.34589 239.14799 236.96609 234.80319 232.66129 230.52639 228.55048 226.70558
 224.98668 223.45678 222.08488 220.85498 219.73508 218.69317 217.79527 216.93437
 216.17447 215.35257 214.44867 213.81077 213.25887 213.35931 213.59662 214.54062
 215.44833 215.89915 217.15182 219.11201 221.32593 224.17715 228.39175 232.74054
 236.32979 240.10834 243.26538 245.62048 247.66968 250.11314 253.08600 256.28079
 259.59167 262.82428 265.85703 268.70786 271.29788 273.53845 275.26370 276.78339
 278.31509 279.86841 281.40414 282.77588 283.96542 285.02310 285.98740 286.86786
 287.66956 288.38940 289.02527 289.85141
 366.78100 356.33327 345.76353 334.62780 323.02906 311.22133 299.08960 286.89086
 274.60113 262.49640 250.50366 239.80293 229.92319 221.02546 213.20573 206.20599
 200.03826 194.97453 191.55479 189.59506 188.63032 188.69259 189.52586 190.83212
 192.55539 194.64865 196.90992 199.26719 201.71045 204.18872 206.27499 208.11525
 209.73952 210.88278 211.11005 211.33632 211.27158 210.97485 210.60612 210.23438
 209.84965 209.55791 209.36418 209.22645 209.15271 209.48198 209.86624 210.25351
 211.04478 212.22104 213.46931 215.25058 217.17684 219.21811 221.31137 223.39264
 225.45091 227.53317 229.62844 231.73271 233.85997 236.03024 238.28450 240.65277
 243.27204 245.52130 247.52157 249.28484 250.70010 251.82137 252.64163 252.95590
 252.99117 252.76343 252.12170 251.06796 249.67223 247.83150 245.73876 243.57003
 241.35930 239.16156 236.97983 234.81709 232.67536 230.54063 228.56489 226.72016
 225.00143 223.47169 222.09996 220.87022 219.75049 218.70876 217.81102 216.95029
 216.19055 215.36882 214.46509 213.82735 213.27562 213.38924 213.65768 214.65828
 215.58672 215.96686 217.21863 219.18117 221.34698 224.20343 228.40428 232.74249
 236.29951 240.00182 243.06000 245.34145 247.39420 249.88637 252.91833 256.17017
 259.52817 262.78098 265.82394 268.68982 271.29599 273.55560 275.30725 276.82373
 278.31174 279.77148 281.29761 282.66647 283.85596 284.91171 285.87653 286.75699
 287.55893 288.28058 288.91385 289.74542
 366.78100 356.33325 345.76350 334.62775 323.02900 311.22125 299.08950 286.89075
 274.60100 262.49625 250.50350 239.80275 229.92300 221.02525 213.20550 206.20575
 200.03800 194.97425 191.55449 189.59474 188.62999 188.69224 189.52549 190.83174
 192.55499 194.64824 196.90949 199.26674 201.70999 204.18824 206.27449 208.11474
 209.73899 210.88224 211.10949 211.33574 211.27099 210.97424 210.60549 210.23374
 209.84899 209.55724 209.36349 209.22574 209.15199 209.48124 209.86549 210.25274
 211.04399 212.22024 213.46849 215.24974 217.17599 219.21723 221.31048 223.39173
 225.44998 227.53223 229.62748 231.73173 233.85898 236.02923 238.28348 240.65173
 243.27098 245.52023 247.52048 249.28373 250.69898 251.82023 252.64048 252.95473
 252.98998 252.76223 252.12048 251.06673 249.67098 247.83023 245.73748 243.56873
 241.35798 239.16023 236.97848 234.81573 232.67398 230.53923 228.56348 226.71873
 224.99997 223.47022 222.09847 220.86872 219.74897 218.70722 217.80947 216.94872
 216.18897 215.36722 214.46347 213.82572 213.27397 213.41302 213.74156 214.74753
 215.72002 216.05783 217.29500 219.24503 221.38533 224.23872 228.44034 232.75153
 236.25688 239.86810 242.82195 245.03836 247.10426 249.65048 252.75143 256.06979
 259.47339 262.74405 265.79190 268.66705 271.28668 273.56461 275.34207 276.87207
 278.34445 279.73669 281.18631 282.54688 283.73416 284.78873 285.75430 286.63510
 287.43817 288.16122 288.79633 289.62738
 366.78100 356.33424 345.76548 334.63072 323.03296 311.22620 299.09544 286.89767
 274.60891 262.50515 250.51339 239.81363 229.93487 221.03811 213.21935 206.22059
 200.05383 194.99107 191.57231 189.61355 188.64978 188.71302 189.54726 190.85450
 192.57874 194.67298 196.93522 199.29346 201.73770 204.21694 206.30418 208.14542
 209.77066 210.91490 211.14313 211.37037 211.30661 211.01085 210.64309 210.27233
 209.88857 209.59781 209.40505 209.26829 209.19553 209.52577 209.91101 210.29924
 211.09148 212.26872 213.51796 215.30020 217.22744 219.26968 221.36392 223.44616
 225.50540 227.58864 229.68488 231.79012 233.91835 236.08959 238.34483 240.71407
 243.33431 245.58455 247.58579 249.35003 250.76627 251.88851 252.70975 253.02499
 253.06123 252.83447 252.19370 251.14094 249.74618 247.90642 245.81466 243.64690
 241.43714 239.24038 237.05962 234.89786 232.75710 230.62334 228.64858 226.80481
 225.08705 223.55829 222.18753 220.95877 219.84001 218.79925 217.90249 217.04273
 216.28397 215.46321 214.56045 213.92369 213.37292 213.48903 213.76334 214.89857
 215.82932 216.12054 217.40704 219.33353 221.43396 224.26773 228.48505 232.73325
 236.19350 239.71101 242.55342 244.70781 246.79794 249.41518 252.60046 255.99518
 259.44162 262.72311 265.76459 268.64069 271.26917 273.55936 275.35605 276.90247
 278.36633 279.74435 281.08569 282.43701 283.62500 284.68271 285.64795 286.53064
 287.33435 288.05753 288.69730 289.52811
 366.78100 356.33390 345.76479 334.62969 323.03159 311.22448 299.09338 286.89528
 274.60618 262.50207 250.50997 239.80987 229.93076 221.03366 213.21456 206.21545
 200.04835 194.98525 191.56615 189.60704 188.64294 188.70584 189.53973 190.84663
 192.57053 194.66442 196.92632 199.28422 201.72812 204.20701 206.29391 208.13481
 209.75970 210.90360 211.13150 211.35839 211.29429 210.99819 210.63009 210.25898
 209.87488 209.58378 209.39067 209.25357 209.18047 209.51036 209.89526 210.28316
 211.07506 212.25195 213.50085 215.28275 217.20964 219.25154 221.34544 223.42733
 225.48623 227.56913 229.66503 231.76992 233.89782 236.06872 238.32361 240.69251
 243.31241 245.56230 247.56320 249.32710 250.74300 251.86489 252.68579 253.00069
 253.03658 252.80948 252.16838 251.11527 249.72017 247.88007 245.78797 243.61986
 241.40976 239.21266 237.03155 234.86945 232.72835 230.59424 228.61914 226.77504
 225.05694 223.52783 222.15673 220.92763 219.80852 218.76742 217.87032 217.01021
 216.25111 215.43001 214.52691 213.88980 213.33870 213.49661 213.86967 214.99950
 215.96893 216.17772 217.46323 219.44582 221.51978 224.30873 228.52098 232.65587
 236.10762 239.52922 242.26253 244.36032 246.49164 249.20062 252.48135 255.95410
 259.43631 262.71875 265.74643 268.61761 271.25272 273.55319 275.36044 276.90268
 278.33688 279.69882 281.00034 282.34677 283.53629 284.59323 285.56012 286.44308
 287.24765 287.97253 288.61234 289.44373
 366.78100 356.33323 345.76346 334.62768 323.02891 311.22114 299.08937 286.89059
 274.60082 262.49605 250.50328 239.80250 229.92273 221.02496 213.20519 206.20541
 200.03764 194.97387 191.55410 189.59432 188.62955 188.69178 189.52501 190.83123
 192.55446 194.64769 196.90892 199.26614 201.70937 204.18760 206.27383 208.11406
 209.73828 210.88151 211.10874 211.33497 211.27019 210.97342 210.60465 210.23288
 209.84810 209.55633 209.36256 209.22479 209.15101 209.48024 209.86447 210.25170
 211.04292 212.21915 213.46738 215.24861 217.17483 219.21606 221.30929 223.39052
 225.44875 227.53097 229.62620 231.73043 233.85766 236.02788 238.28211 240.65034
 243.26957 245.51879 247.51902 249.28225 250.69748 251.81870 252.63893 252.95316
 252.98839 252.76061 252.11884 251.06507 249.66930 247.82852 245.73575 243.56698
 241.35621 239.15843 236.97666 234.81389 232.67212 230.53735 228.56157 226.71680
 224.99803 223.46826 222.09648 220.86671 219.74694 218.70517 217.80739 216.94662
 216.18685 215.36508 214.46130 213.82353 213.27176 213.48793 213.99864 215.07686
 216.17300 216.25380 217.44894 219.49203 221.56332 224.34988 228.55608 232.56430
 236.00902 239.33353 241.97668 244.03456 246.21519 249.01849 252.38805 255.93204
 259.43991 262.71960 265.73941 268.60947 271.25540 273.57010 275.37958 276.88156
 278.25134 279.54959 280.88312 282.23132 283.42001 284.47763 285.44479 286.32800
 287.13205 287.85602 288.49353 289.32748
 366.78100 356.33290 345.76281 334.62671 323.02761 311.21952 299.08742 286.88832
 274.59822 262.49313 250.50003 239.79893 229.91884 221.02074 213.20064 206.20055
 200.03245 194.96835 191.54825 189.58816 188.62306 188.68496 189.51787 190.82377
 192.54667 194.63958 196.90048 199.25738 201.70029 204.17819 206.26409 208.10399
 209.72790 210.87080 211.09770 211.32361 211.25851 210.96141 210.59232 210.22022
 209.83512 209.54302 209.34893 209.21083 209.13673 209.46564 209.84954 210.23644
 211.02735 212.20325 213.45115 215.23205 217.15796 219.19886 221.29176 223.37267
 225.43057 227.51247 229.60738 231.71128 233.83818 236.00809 238.26199 240.62989
 243.24879 245.49770 247.49760 249.26050 250.67541 251.79631 252.61621 252.93012
 252.96502 252.73692 252.09482 251.04073 249.64463 247.80353 245.71044 243.54134
 241.33024 239.13215 236.95005 234.78695 232.64486 230.50976 228.53366 226.68856
 224.96947 223.43937 222.06727 220.83718 219.71708 218.67498 217.77689 216.91579
 216.15569 215.33359 214.42950 213.79140 213.23930 213.49681 214.10519 215.22023
 216.22005 216.30891 217.55365 219.57141 221.57616 224.38370 228.60141 232.51328
 235.90315 239.13025 241.69945 243.72878 245.95061 248.83902 252.29169 255.90355
 259.43445 262.71887 265.74384 268.61569 271.27271 273.60101 275.41837 276.90118
 278.23508 279.49731 280.71045 282.03818 283.22235 284.27615 285.24088 286.12357
 286.92908 287.65656 288.29605 289.14185
 366.78100 356.33279 345.76258 334.62636 323.02715 311.21894 299.08673 286.88752
 274.59731 262.49209 250.49888 239.79767 229.91746 221.01925 213.19904 206.19882
 200.03061 194.96640 191.54619 189.58598 188.62077 188.68255 189.51534 190.82113
 192.54392 194.63671 196.89750 199.25428 201.69707 204.17486 206.26065 208.10044
 209.72423 210.86701 211.09380 211.31959 211.25438 210.95717 210.58796 210.21574
 209.83053 209.53832 209.34411 209.20590 209.13168 209.46047 209.84426 210.23105
 211.02184 212.19763 213.44541 215.22620 217.15199 219.19278 221.28557 223.36636
 225.42414 227.50593 229.60072 231.70451 233.83130 236.00109 238.25487 240.62266
 243.24145 245.49024 247.49003 249.25282 250.66760 251.78839 252.60818 252.92197
 252.95676 252.72855 252.08633 251.03212 249.63591 247.79470 245.70149 243.53227
 241.32106 239.12285 236.94064 234.77743 232.63522 230.50000 228.52379 226.67858
 224.95937 223.42916 222.05695 220.82673 219.70652 218.66431 217.76610 216.90489
 216.14468 215.32246 214.41825 213.78004 213.22783 213.51578 214.19608 215.40419
 216.21544 216.41930 217.67838 219.58090 221.60117 224.44244 228.65498 232.47900
 235.78503 238.90771 241.39964 243.41217 245.67575 248.64665 252.18639 255.86949
 259.43106 262.72791 265.76111 268.62582 271.27823 273.61444 275.45520 276.96140
 278.28851 279.51453 280.66937 281.82834 282.99399 284.04684 285.01285 285.89713
 286.70441 287.43448 288.07983 288.93378
 366.78100 356.33248 345.76195 334.62543 323.02591 311.21738 299.08486 286.88534
 274.59481 262.48929 250.49577 239.79425 229.91372 221.01520 213.19468 206.19415
 200.02563 194.96111 191.54058 189.58006 188.61454 188.67601 189.50849 190.81397
 192.53644 194.62892 196.88940 199.24588 201.68835 204.16583 206.25131 208.09078
 209.71426 210.85674 211.08321 211.30869 211.24317 210.94564 210.57612 210.20360
 209.81807 209.52555 209.33103 209.19250 209.11798 209.44646 209.82994 210.21641
 211.00689 212.18237 213.42984 215.21032 217.13580 219.17627 221.26875 223.34923
 225.40670 227.48818 229.58266 231.68613 233.81261 235.98209 238.23557 240.60304
 243.22152 245.47000 247.46947 249.23195 250.64643 251.76690 252.58638 252.89986
 252.93433 252.70581 252.06329 251.00876 249.61224 247.77072 245.67719 243.50767
 241.29615 239.09763 236.91510 234.75158 232.60906 230.47353 228.49701 226.65149
 224.93196 223.40144 222.02892 220.79839 219.67787 218.63535 217.73682 216.87530
 216.11478 215.29226 214.38773 213.74921 213.19669 213.52684 214.30685 215.56276
 216.22520 216.58698 217.75478 219.54678 221.66248 224.52687 228.70859 232.43245
 235.65591 238.66208 241.06776 243.07751 245.39697 248.45773 252.09409 255.85468
 259.45193 262.76065 265.78854 268.63315 271.27731 273.62842 275.51538 277.06061
 278.36716 279.52048 280.59494 281.66718 282.82196 283.87778 284.84521 285.73212
 286.54272 287.27512 287.92480 288.78595
 366.78100 356.33111 345.75921 334.62132 323.02043 311.21053 299.07664 286.87575
 274.58385 262.47696 250.48206 239.77917 229.89728 220.99738 213.17549 206.17360
 200.00370 194.93781 191.51592 189.55402 188.58713 188.64724 189.47834 190.78245
 192.50356 194.59466 196.85377 199.20887 201.64998 204.12609 206.21019 208.04830
 209.67041 210.81151 211.03662 211.26073 211.19383 210.89494 210.52405 210.15015
 209.76326 209.46937 209.27347 209.13358 209.05768 209.38479 209.76690 210.15200
 210.94111 212.11522 213.36132 215.14043 217.06454 219.10364 221.19475 223.27386
 225.32996 227.41007 229.50318 231.60528 233.73039 235.89849 238.15060 240.51671
 243.13381 245.38092 247.37903 249.14013 250.55324 251.67235 252.49045 252.80256
 252.83567 252.60577 251.96188 250.90598 249.50809 247.66520 245.57030 243.39941
 241.18652 238.98662 236.80273 234.63784 232.49394 230.35705 228.37916 226.53226
 224.81137 223.27948 221.90558 220.67369 219.55179 218.50790 217.60801 216.74511
 215.98322 215.15933 214.25343 213.61354 213.05965 213.48238 214.48111 215.71010
 216.23672 216.71057 217.80005 219.53117 221.70697 224.58005 228.72942 232.38989
 235.53271 238.41121 240.73195 242.75499 245.15877 248.31935 252.04390 255.87300
 259.49393 262.79901 265.81378 268.64719 271.29788 273.67859 275.61026 277.17163
 278.44382 279.54208 280.55771 281.54010 282.67993 283.73300 284.70233 285.59070
 286.40250 287.13745 287.79184 288.65417
 366.78100 356.32889 345.75479 334.61468 323.01158 311.19947 299.06337 286.86026
 274.56616 262.45705 250.45995 239.75484 229.87074 220.96863 213.14453 206.14042
 199.96832 194.90021 191.47611 189.51200 188.54290 188.60079 189.42969 190.73158
 192.45048 194.53937 196.79627 199.14916 201.58806 204.06195 206.14385 207.97974
 209.59964 210.73853 210.96143 211.18332 211.11421 210.81311 210.44000 210.06390
 209.67479 209.37869 209.18058 209.03848 208.96037 209.28527 209.66516 210.04806
 210.83495 212.00685 213.25074 215.02764 216.94953 218.98643 221.07532 223.15222
 225.20611 227.28401 229.37490 231.47480 233.59769 235.76359 238.01348 240.37738
 242.99227 245.23717 247.23306 248.99196 250.40285 251.51975 252.33564 252.64553
 252.67643 252.44432 251.79822 250.74011 249.34001 247.49490 245.39780 243.22469
 241.00959 238.80748 236.62138 234.45427 232.30817 230.16906 228.18896 226.33985
 224.61675 223.08264 221.70654 220.47243 219.34833 218.30222 217.40012 216.53501
 215.77091 214.94480 214.03670 213.39459 212.83849 213.39247 214.70135 215.83731
 216.27847 216.83214 217.83661 219.48473 221.67618 224.58142 228.73053 232.36588
 235.42200 238.18658 240.42435 242.45036 244.93649 248.19882 252.00731 255.89552
 259.53201 262.83368 265.84772 268.68668 271.35745 273.76837 275.73135 277.30319
 278.55130 279.61337 280.58832 281.48077 282.58472 283.63074 284.59537 285.48331
 286.29407 287.03058 287.67651 288.54251
 366.78100 356.32849 345.75399 334.61348 323.00997 311.19746 299.06096 286.85745
 274.56294 262.45344 250.45593 239.75042 229.86592 220.96341 213.13890 206.13439
 199.96189 194.89338 191.46887 189.50437 188.53486 188.59235 189.42084 190.72234
 192.44083 194.52932 196.78582 199.13831 201.57680 204.05030 206.13179 207.96728
 209.58677 210.72527 210.94776 211.16925 211.09975 210.79824 210.42473 210.04822
 209.65872 209.36221 209.16370 209.02120 208.94269 209.26718 209.64668 210.02917
 210.81566 211.98715 213.23065 215.00714 216.92863 218.96513 221.05362 223.13011
 225.18360 227.26110 229.35159 231.45108 233.57358 235.73907 237.98856 240.35206
 242.96655 245.21104 247.20653 248.96503 250.37552 251.49201 252.30751 252.61700
 252.64749 252.41498 251.76848 250.70997 249.30946 247.46396 245.36645 243.19294
 240.97744 238.77493 236.58842 234.42091 232.27441 230.13490 228.15439 226.30489
 224.58138 223.04687 221.67036 220.43586 219.31135 218.26484 217.36234 216.49683
 215.73232 214.90582 213.99731 213.35480 212.79829 213.39754 214.81334 215.93904
 216.44762 217.00404 217.85414 219.43770 221.65463 224.57072 228.69368 232.33585
 235.30446 237.92859 240.05840 242.07193 244.64789 248.02446 251.92877 255.88182
 259.54300 262.85641 265.87781 268.72830 271.40988 273.84100 275.83951 277.44296
 278.70212 279.77127 280.71805 281.62396 282.59863 283.64697 284.61810 285.51266
 286.33737 287.09622 287.81906 288.80838
 366.78100 356.33299 345.76297 334.62696 323.02794 311.21993 299.08791 286.88890
 274.59888 262.49387 250.50085 239.79984 229.91983 221.02181 213.20180 206.20178
 200.03377 194.96975 191.54974 189.58972 188.62471 188.68669 189.51968 190.82566
 192.54865 194.64164 196.90262 199.25961 201.70259 204.18058 206.26656 208.10655
 209.73053 210.87352 211.10050 211.32649 211.26148 210.96446 210.59545 210.22343
 209.83842 209.54640 209.35239 209.21437 209.14036 209.46934 209.85333 210.24032
 211.03130 212.20729 213.45527 215.23626 217.16224 219.20323 221.29621 223.37720
 225.43518 227.51717 229.61216 231.71614 233.84313 236.01311 238.26710 240.63508
 243.25407 245.50305 247.50304 249.26602 250.68101 251.80199 252.62198 252.93597
 252.97095 252.74294 252.10092 251.04691 249.65089 247.80988 245.71686 243.54785
 241.33683 239.13882 236.95681 234.79379 232.65178 230.51676 228.54075 226.69573
 224.97672 223.44670 222.07469 220.84467 219.72466 218.68265 217.78463 216.92362
 216.16360 215.34159 214.43757 213.79956 213.24754 213.66098 214.63776 215.99986
 216.78751 217.17854 218.01968 219.59454 221.77278 224.59590 228.61502 232.26749
 235.09888 237.55058 239.57848 241.62445 244.32140 247.81331 251.80608 255.80885
 259.48422 262.79688 265.84070 268.71970 271.41177 273.83340 275.86212 277.52271
 278.87976 280.04263 281.05905 281.95618 282.87247 283.88126 284.84909 285.74673
 286.57990 287.36682 288.14792 289.14334
 366.78100 356.33896 345.77492 334.64489 323.05185 311.24981 299.12377 286.93074
 274.64670 262.54766 250.56062 239.86559 229.99155 221.09951 213.28547 206.29144
 200.12940 195.07136 191.65732 189.70329 188.74425 188.81221 189.65117 190.96314
 192.69210 194.79106 197.05802 199.42099 201.86995 204.35391 206.44587 208.29184
 209.92180 211.07076 211.30372 211.53569 211.47665 211.18561 210.82257 210.45654
 210.07750 209.79146 209.60342 209.47139 209.40335 209.73831 210.12827 210.52124
 211.31820 212.50016 213.75412 215.54109 217.47305 219.52001 221.61897 223.70593
 225.76990 227.85786 229.95882 232.06878 234.20175 236.37771 238.63767 241.01163
 243.63660 245.89156 247.89752 249.66648 251.08745 252.21441 253.04037 253.36033
 253.40130 253.17926 252.54322 251.49518 250.10515 248.27011 246.18307 244.02003
 241.81500 239.62296 237.44692 235.28988 233.15385 231.02481 229.05477 227.21573
 225.50270 223.97866 222.61262 221.38858 220.27455 219.23851 218.34647 217.49143
 216.73740 215.92136 215.02332 214.39128 213.84525 214.00964 214.40190 215.99377
 217.03528 217.39642 218.36169 219.84802 221.92039 224.66107 228.61560 232.16721
 234.87367 237.19221 239.17357 241.28091 244.07051 247.63742 251.67996 255.70244
 259.38287 262.70462 265.77936 268.67831 271.37326 273.78806 275.84369 277.56125
 279.00052 280.22458 281.28891 282.26694 283.30246 284.33713 285.30270 286.20129
 287.02805 287.82431 288.57138 289.52341
 366.78100 356.34135 345.77971 334.65206 323.06141 311.26177 299.13812 286.94747
 274.66583 262.56918 250.58453 239.89189 230.02024 221.13059 213.31894 206.32730
 200.16765 195.11200 191.70036 189.74871 188.79206 188.86242 189.70377 191.01812
 192.74948 194.85083 197.12018 199.48554 201.93689 204.42324 206.51760 208.36595
 209.99830 211.14966 211.38501 211.61936 211.56272 211.27407 210.91342 210.54977
 210.17313 209.88948 209.70383 209.57419 209.50854 209.84589 210.23825 210.63360
 211.43295 212.61731 213.87366 215.66301 217.59737 219.64672 221.74807 223.83743
 225.90378 227.99413 230.09749 232.20984 234.34519 236.52355 238.78590 241.16225
 243.78960 246.04696 248.05531 249.82666 251.25002 252.37937 253.20772 253.53008
 253.57343 253.35378 252.72014 251.67449 250.28684 248.45420 246.36955 244.20890
 242.00626 239.81661 237.64296 235.48832 233.35467 231.22802 229.26038 227.42373
 225.71308 224.19143 222.82779 221.60614 220.49449 219.46085 218.57120 217.71855
 216.96691 216.15326 215.25761 214.62797 214.08432 214.17104 214.37804 215.97128
 217.10333 217.66243 218.64648 219.94316 221.94984 224.73055 228.69551 232.04893
 234.70792 236.93668 238.89075 241.03268 243.88152 247.50737 251.58757 255.62933
 259.33240 262.68213 265.78546 268.69446 271.38568 273.80176 275.87350 277.60852
 279.05261 280.28293 281.38589 282.44437 283.51608 284.54700 285.50620 286.39264
 287.20593 287.96954 288.68881 289.60547
 366.78100 356.34159 345.78018 334.65276 323.06235 311.26294 299.13953 286.94912
 274.66771 262.57129 250.58688 239.89447 230.02306 221.13365 213.32223 206.33082
 200.17141 195.11600 191.70459 189.75318 188.79676 188.86735 189.70894 191.02353
 192.75512 194.85670 197.12629 199.49188 201.94347 204.43006 206.52465 208.37323
 210.00582 211.15741 211.39300 211.62759 211.57117 211.28276 210.92235 210.55894
 210.18253 209.89912 209.71370 209.58429 209.51888 209.85647 210.24906 210.64464
 211.44423 212.62882 213.88541 215.67500 217.60959 219.65917 221.76076 223.85035
 225.91694 228.00753 230.11111 232.22370 234.35929 236.53788 238.80047 241.17706
 243.80464 246.06223 248.07082 249.84241 251.26600 252.39558 253.22417 253.54676
 253.59035 253.37094 252.73753 251.69211 250.30470 248.47229 246.38788 244.22747
 242.02505 239.83564 237.66223 235.50782 233.37441 231.24800 229.28058 227.44417
 225.73376 224.21235 222.84894 221.62752 220.51611 219.48270 218.59329 217.74088
 216.98947 216.17605 215.28064 214.65123 214.10782 214.21596 214.48653 215.95450
 217.15894 217.90546 218.79654 219.89830 221.88713 224.75085 228.73016 231.86757
 234.54790 236.63914 238.54343 240.70529 243.63652 247.36859 251.50241 255.56432
 259.28979 262.67133 265.80856 268.73972 271.44519 273.87839 275.97522 277.72531
 279.15414 280.34811 281.39944 282.40839 283.52261 284.56223 285.53012 286.42700
 287.25421 288.04852 288.74243 289.62671
 366.78100 356.34087 345.77873 334.65060 323.05947 311.25933 299.13520 286.94407
 274.66193 262.56480 250.57967 239.88653 230.01440 221.12427 213.31213 206.32000
 200.15987 195.10373 191.69160 189.73947 188.78234 188.85220 189.69307 191.00694
 192.73780 194.83867 197.10754 199.47240 201.92327 204.40914 206.50300 208.35087
 209.98274 211.13360 211.36847 211.60234 211.54520 211.25607 210.89494 210.53080
 210.15367 209.86954 209.68340 209.55327 209.48714 209.82400 210.21587 210.61074
 211.40960 212.59347 213.84934 215.63820 217.57207 219.62094 221.72180 223.81067
 225.87654 227.96640 230.06927 232.18114 234.31601 236.49387 238.75574 241.13161
 243.75847 246.01534 248.02321 249.79407 251.21694 252.34581 253.17367 253.49554
 253.53841 253.31827 252.68414 251.63801 250.24987 248.41674 246.33161 244.17047
 241.96734 239.77721 237.60307 235.44794 233.31381 231.18667 229.21854 227.38141
 225.67027 224.14814 222.78401 221.56187 220.44974 219.41561 218.52547 217.67234
 216.92021 216.10607 215.20994 214.57981 214.03568 214.21391 214.66174 215.91164
 217.08658 218.05855 219.04054 220.00279 221.95871 224.86255 228.75510 231.71185
 234.38005 236.32579 238.18980 240.41270 243.45258 247.24521 251.40637 255.47113
 259.19220 262.58224 265.74939 268.71640 271.45752 273.91913 276.04407 277.80548
 279.16528 280.26511 281.30817 282.50635 283.67978 284.74725 285.74350 286.67188
 287.56998 288.36972 289.06839 289.95874
 366.78100 356.33500 345.76701 334.63301 323.03602 311.23002 299.10003 286.90303
 274.61504 262.51204 250.52105 239.82205 229.94406 221.04806 213.23007 206.23207
 200.06608 195.00408 191.58609 189.62809 188.66510 188.72910 189.56411 190.87211
 192.59712 194.69212 196.95513 199.31413 201.75914 204.23914 206.32715 208.16915
 209.79516 210.94016 211.16917 211.39717 211.33418 211.03918 210.67219 210.30219
 209.91920 209.62920 209.43721 209.30121 209.22922 209.56022 209.94623 210.33523
 211.12824 212.30624 213.55625 215.33925 217.26726 219.31026 221.40527 223.48827
 225.54828 227.63228 229.72929 231.83529 233.96430 236.13630 238.39231 240.76231
 243.38332 245.63432 247.63633 249.40133 250.81834 251.94134 252.76335 253.07935
 253.11636 252.89036 252.25037 251.19837 249.80437 247.96538 245.87438 243.70739
 241.49839 239.30240 237.12240 234.96141 232.82141 230.68842 228.71442 226.87143
 225.15443 223.62644 222.25644 221.02845 219.91045 218.87046 217.97446 217.11547
 216.35747 215.53748 214.63548 213.99949 213.44949 213.93785 215.09082 215.89072
 216.80988 218.09677 219.27260 220.16324 222.07150 225.02679 228.89285 231.70183
 234.32788 236.18402 237.97307 240.18155 243.26448 247.11261 251.30823 255.36726
 259.07184 262.47122 265.67673 268.67883 271.42960 273.87308 275.94766 277.62054
 278.91302 280.04587 281.21289 282.47089 283.63214 284.66953 285.62811 286.50629
 287.32986 288.07397 288.72400 289.55237
 366.78100 356.32916 345.75532 334.61548 323.01264 311.20079 299.06495 286.86211
 274.56827 262.45943 250.46259 239.75775 229.87391 220.97206 213.14822 206.14438
 199.97254 194.90470 191.48086 189.51702 188.54818 188.60634 189.43549 190.73765
 192.45681 194.54597 196.80313 199.15629 201.59545 204.06961 206.15177 207.98792
 209.60808 210.74724 210.97040 211.19256 211.12372 210.82288 210.45004 210.07419
 209.68535 209.38951 209.19167 209.04983 208.97199 209.29715 209.67731 210.06047
 210.84762 212.01978 213.26394 215.04110 216.96326 219.00042 221.08958 223.16674
 225.22089 227.29905 229.39021 231.49037 233.61353 235.77969 238.02985 240.39401
 243.00917 245.25432 247.25048 249.00964 250.42080 251.53796 252.35412 252.66428
 252.69544 252.46359 251.81775 250.75991 249.36007 247.51523 245.41839 243.24555
 241.03071 238.82887 236.64302 234.47618 232.33034 230.19150 228.21166 226.36282
 224.63998 223.10614 221.73030 220.49645 219.37261 218.32677 217.42493 216.56009
 215.79625 214.97041 214.06257 213.42072 212.86488 213.64302 215.48146 216.06270
 216.52834 218.11954 219.39513 220.28551 222.22469 225.20464 228.99461 231.72914
 234.17529 236.04291 237.79311 240.00874 243.11667 246.99837 251.22005 255.28514
 258.99481 262.42630 265.67484 268.69385 271.43259 273.85065 275.89978 277.53668
 278.80597 279.89606 281.00641 282.17688 283.30026 284.32480 285.27194 286.14081
 286.93198 287.65164 288.30429 289.13605
 366.78100 356.33007 345.75713 334.61820 323.01626 311.20533 299.07039 286.86846
 274.57552 262.46759 250.47166 239.76772 229.88479 220.98385 213.16092 206.15798
 199.98705 194.92011 191.49718 189.53424 188.56631 188.62538 189.45544 190.75851
 192.47857 194.56864 196.82670 199.18077 201.62083 204.09590 206.17897 208.01603
 209.63710 210.77716 211.00123 211.22429 211.15636 210.85642 210.48449 210.10955
 209.72162 209.42669 209.22975 209.08882 209.01188 209.33795 209.71901 210.10308
 210.89114 212.06421 213.30928 215.08734 217.01041 219.04847 221.13854 223.21660
 225.27167 227.35073 229.44280 231.54387 233.66793 235.83500 238.08606 240.45113
 243.06719 245.31326 247.31032 249.07039 250.48245 251.60052 252.41759 252.72865
 252.76072 252.52978 251.88485 250.82791 249.42898 247.58504 245.48911 243.31718
 241.10324 238.90231 236.71737 234.55144 232.40650 230.26857 228.28963 226.44170
 224.71977 223.18683 221.81190 220.57896 219.45603 218.41109 217.51016 216.64622
 215.88329 215.05835 214.15142 213.51049 212.95555 213.69183 215.43140 216.33348
 216.61635 218.07950 219.52788 220.60672 222.39310 225.20100 228.93262 231.59624
 233.86774 235.73010 237.46899 239.76587 242.97194 246.92191 251.16182 255.23323
 258.96979 262.44321 265.70911 268.71033 271.41385 273.79910 275.84390 277.51035
 278.78458 279.83716 280.85037 281.89874 282.90585 283.91742 284.86755 285.74054
 286.53650 287.25528 287.89020 288.72314
 366.78100 356.33426 345.76551 334.63077 323.03303 311.22628 299.09554 286.89779
 274.60905 262.50531 250.51356 239.81382 229.93508 221.03833 213.21959 206.22085
 200.05410 194.99136 191.57261 189.61387 188.65013 188.71338 189.54764 190.85490
 192.57915 194.67341 196.93566 199.29392 201.73818 204.21743 206.30469 208.14595
 209.77120 210.91546 211.14372 211.37097 211.30723 211.01148 210.64374 210.27300
 209.88925 209.59851 209.40577 209.26902 209.19628 209.52654 209.91179 210.30005
 211.09230 212.26956 213.51882 215.30107 217.22833 219.27059 221.36484 223.44710
 225.50635 227.58961 229.68587 231.79112 233.91938 236.09064 238.34589 240.71515
 243.33541 245.58566 247.58692 249.35117 250.76743 251.88969 252.71094 253.02620
 253.06246 252.83571 252.19497 251.14223 249.74748 247.90774 245.81599 243.64825
 241.43851 239.24176 237.06102 234.89928 232.75853 230.62479 228.65005 226.80630
 225.08856 223.55981 222.18907 220.96033 219.84158 218.80084 217.90410 217.04435
 216.28561 215.46486 214.56212 213.92538 213.37463 213.92355 215.22040 216.42067
 216.87689 218.18613 219.76581 220.95465 222.55679 225.16084 228.81645 231.38873
 233.54234 235.32735 237.07248 239.48257 242.82030 246.85771 251.13927 255.23589
 258.99762 262.49274 265.75876 268.73453 271.40317 273.75613 275.77887 277.43576
 278.65930 279.68634 280.67770 281.69321 282.63681 283.64749 284.60425 285.48050
 286.28156 287.00754 287.64868 288.49228
 366.78100 356.33714 345.77128 334.63942 323.04457 311.24071 299.11285 286.91799
 274.63213 262.53127 250.54241 239.84555 229.96970 221.07584 213.25998 206.26412
 200.10026 195.04040 191.62454 189.66869 188.70783 188.77397 189.61111 190.92125
 192.64839 194.74553 197.01067 199.37182 201.81896 204.30110 206.39124 208.23538
 209.86352 211.01066 211.24180 211.47195 211.41109 211.11823 210.75337 210.38551
 210.00465 209.71679 209.52694 209.39308 209.32322 209.65636 210.04450 210.43564
 211.23078 212.41092 213.66307 215.44821 217.37835 219.42349 221.52063 223.60577
 225.66791 227.75406 229.85320 231.96134 234.09248 236.26662 238.52476 240.89690
 243.52004 245.77319 247.77733 249.54447 250.96361 252.08875 252.91289 253.23103
 253.27017 253.04632 252.40846 251.35860 249.96674 248.12988 246.04102 243.87616
 241.66931 239.47545 237.29759 235.13873 233.00087 230.87001 228.89815 227.05729
 225.34244 223.81658 222.44872 221.22286 220.10700 219.06914 218.17528 217.31843
 216.56257 215.74471 214.84485 214.21099 213.66313 214.09625 215.11954 216.37471
 217.09898 218.36047 220.01306 221.27841 222.75169 225.15880 228.69875 231.20419
 233.23697 234.93549 236.69150 239.22267 242.69075 246.80823 251.12747 255.24193
 259.01526 262.51782 265.78088 268.74246 271.39404 273.73337 275.75089 277.40488
 278.58484 279.56134 280.51898 281.52353 282.46042 283.47693 284.43698 285.31839
 286.12341 286.85336 287.50354 288.35291
 366.78100 356.33777 345.77254 334.64131 323.04708 311.24386 299.11663 286.92240
 274.63717 262.53694 250.54871 239.85248 229.97725 221.08402 213.26879 206.27357
 200.11034 195.05111 191.63588 189.68065 188.72042 188.78719 189.62496 190.93573
 192.66351 194.76128 197.02705 199.38882 201.83659 204.31936 206.41013 208.25490
 209.88367 211.03144 211.26322 211.49399 211.43376 211.14153 210.77730 210.41007
 210.02984 209.74261 209.55338 209.42016 209.35093 209.68470 210.07347 210.46524
 211.26101 212.44178 213.69455 215.48032 217.41109 219.45687 221.55464 223.64041
 225.70318 227.78995 229.88972 231.99849 234.13026 236.30503 238.56380 240.93658
 243.56035 245.81412 247.81889 249.58666 251.00643 252.13220 252.95697 253.27574
 253.31552 253.09229 252.45506 251.40583 250.01460 248.17837 246.09014 243.92591
 241.71968 239.52645 237.34923 235.19100 233.05377 230.92354 228.95231 227.11208
 225.39785 223.87262 222.50539 221.28017 220.16494 219.12771 218.23448 217.37825
 216.62302 215.80579 214.90656 214.27333 213.72610 214.15056 215.15338 216.30064
 217.24869 218.53223 220.20535 221.52814 222.95651 225.20309 228.58459 231.03523
 232.95221 234.56953 236.33958 238.98973 242.57474 246.76009 251.10754 255.22839
 259.00153 262.50589 265.76974 268.72610 271.37259 273.70895 275.73428 277.39825
 278.55978 279.49319 280.41428 281.41797 282.36536 283.38904 284.35056 285.23438
 286.04260 286.77536 287.42618 288.27771
 366.78100 356.33692 345.77085 334.63877 323.04370 311.23962 299.11155 286.91647
 274.63039 262.52932 250.54024 239.84317 229.96709 221.07301 213.25694 206.26086
 200.09679 195.03671 191.62064 189.66456 188.70348 188.76941 189.60633 190.91626
 192.64318 194.74010 197.00503 199.36595 201.81288 204.29480 206.38473 208.22865
 209.85657 211.00350 211.23442 211.46435 211.40327 211.11019 210.74512 210.37704
 209.99597 209.70789 209.51782 209.38374 209.31366 209.64659 210.03451 210.42544
 211.22036 212.40029 213.65221 215.43713 217.36706 219.41198 221.50891 223.59383
 225.65575 227.74168 229.84060 231.94853 234.07945 236.25338 238.51130 240.88322
 243.50615 245.75907 247.76300 249.52992 250.94884 252.07377 252.89769 253.21562
 253.25454 253.03047 252.39239 251.34231 249.95024 248.11316 246.02409 243.85901
 241.65193 239.45786 237.27978 235.12071 232.98263 230.85156 228.87948 227.03840
 225.32333 223.79725 222.42918 221.20310 220.08702 219.04895 218.15487 217.29780
 216.54172 215.72365 214.82357 214.18949 213.64142 214.12567 215.26981 216.21736
 217.30273 218.68472 220.37822 221.75153 223.19374 225.32204 228.51523 230.89792
 232.69267 234.23129 236.01979 238.78145 242.46753 246.71010 251.07823 255.19592
 258.96225 262.46729 265.73523 268.69232 271.33893 273.67584 275.71194 277.39346
 278.55692 279.47433 280.37503 281.38858 282.33264 283.35675 284.32101 285.20551
 286.01477 286.74869 287.39792 288.25122
 366.78100 356.33617 345.76934 334.63651 323.04069 311.23586 299.10703 286.91120
 274.62437 262.52254 250.53272 239.83489 229.95806 221.06323 213.24640 206.24957
 200.08475 195.02392 191.60709 189.65026 188.68843 188.75360 189.58978 190.89895
 192.62512 194.72129 196.98546 199.34563 201.79181 204.27298 206.36215 208.20532
 209.83249 210.97866 211.20884 211.43801 211.37618 211.08235 210.71652 210.34769
 209.96586 209.67704 209.48621 209.35138 209.28055 209.61272 209.99989 210.39007
 211.18424 212.36341 213.61458 215.39875 217.32792 219.37210 221.46827 223.55244
 225.61361 227.69878 229.79695 231.90413 234.03430 236.20747 238.46464 240.83581
 243.45798 245.71016 247.71333 249.47950 250.89767 252.02184 252.84501 253.16219
 253.20036 252.97553 252.33670 251.28587 249.89304 248.05521 245.96539 243.79956
 241.59173 239.39690 237.21807 235.05824 232.91942 230.78759 228.81476 226.97293
 225.25710 223.73027 222.36145 221.13462 220.01779 218.97896 218.08413 217.22630
 216.46948 215.65065 214.74982 214.11499 213.56616 214.10181 215.36732 216.18286
 217.30440 218.78934 220.53195 221.98869 223.46181 225.49429 228.48911 230.75807
 232.42422 233.89113 235.71133 238.58661 242.36659 246.65846 251.03725 255.14406
 258.90143 262.41116 265.68912 268.65451 271.30283 273.63934 275.68887 277.39703
 278.58084 279.50388 280.39771 281.40613 282.34198 283.36676 284.32898 285.21283
 286.01752 286.74176 287.38629 288.23526
 366.78100 356.33684 345.77067 334.63851 323.04334 311.23918 299.11101 286.91585
 274.62968 262.52852 250.53935 239.84219 229.96602 221.07186 213.25570 206.25953
 200.09537 195.03520 191.61904 189.66287 188.70171 188.76754 189.60438 190.91421
 192.64105 194.73788 197.00272 199.36356 201.81039 204.29223 206.38206 208.22590
 209.85373 211.00057 211.23140 211.46124 211.40007 211.10691 210.74174 210.37358
 209.99242 209.70425 209.51409 209.37992 209.30976 209.64259 210.03043 210.42126
 211.21610 212.39593 213.64777 215.43260 217.36244 219.40728 221.50411 223.58895
 225.65078 227.73662 229.83545 231.94329 234.07412 236.24796 238.50579 240.87763
 243.50046 245.75330 247.75713 249.52397 250.94281 252.06764 252.89148 253.20931
 253.24815 253.02398 252.38582 251.33565 249.94349 248.10632 246.01716 243.85199
 241.64483 239.45067 237.27250 235.11334 232.97517 230.84401 228.87184 227.03068
 225.31551 223.78935 222.42118 221.19502 220.07885 219.04069 218.14653 217.28936
 216.53320 215.71503 214.81487 214.18070 213.63254 214.14766 215.36467 216.21799
 217.36951 218.86490 220.64684 222.21083 223.68498 225.64337 228.46623 230.58879
 232.13805 233.55550 235.42656 238.42188 242.28598 246.61511 250.99490 255.08698
 258.83640 262.35388 265.64734 268.62064 271.26813 273.60309 275.66528 277.39981
 278.60742 279.54843 280.45071 281.46164 282.37900 283.39972 284.36115 285.24274
 286.04391 286.76651 287.40991 288.25812
 366.78100 356.33805 345.77309 334.64214 323.04819 311.24523 299.11828 286.92433
 274.63937 262.53942 250.55146 239.85551 229.98056 221.08760 213.27265 206.27770
 200.11474 195.05579 191.64084 189.68588 188.72593 188.79298 189.63102 190.94207
 192.67012 194.76816 197.03421 199.39625 201.84430 204.32735 206.41839 208.26344
 209.89249 211.04053 211.27258 211.50363 211.44367 211.15172 210.78777 210.42081
 210.04086 209.75391 209.56495 209.43200 209.36304 209.69709 210.08614 210.47818
 211.27423 212.45528 213.70832 215.49437 217.42542 219.47146 221.56951 223.65556
 225.71860 227.80565 229.90570 232.01474 234.14679 236.32183 238.58088 240.95393
 243.57797 245.83202 247.83707 249.60511 251.02516 252.15121 252.97625 253.29530
 253.33535 253.11239 252.47544 251.42649 250.03553 248.19958 246.11162 243.94767
 241.74172 239.54876 237.37181 235.21386 233.07690 230.94695 228.97600 227.13604
 225.42209 223.89714 222.53018 221.30523 220.19028 219.15332 218.26037 217.40441
 216.64946 215.83251 214.93355 214.30060 213.75365 214.22055 215.32370 216.25771
 217.50444 218.97038 220.75963 222.35278 223.79691 225.73790 228.44409 230.41119
 231.85904 233.24362 235.17882 238.29663 242.23027 246.58395 250.96053 255.04295
 258.78943 262.31387 265.61871 268.59369 271.23456 273.56247 275.62839 277.36993
 278.58536 279.55072 280.48471 281.52362 282.43875 283.45969 284.42130 285.30011
 286.09915 286.82083 287.46149 288.30936
 366.78100 356.33876 345.77452 334.64427 323.05103 311.24879 299.12255 286.92931
 274.64506 262.54582 250.55858 239.86334 229.98910 221.09685 213.28261 206.28837
 200.12613 195.06789 191.65364 189.69940 188.74016 188.80792 189.64668 190.95843
 192.68719 194.78595 197.05271 199.41547 201.86422 204.34798 206.43974 208.28550
 209.91526 211.06401 211.29677 211.52853 211.46929 211.17805 210.81480 210.44856
 210.06932 209.78308 209.59484 209.46259 209.39435 209.72911 210.11887 210.51163
 211.30838 212.49014 213.74390 215.53066 217.46242 219.50917 221.60793 223.69469
 225.75845 227.84621 229.94696 232.05672 234.18948 236.36524 238.62500 240.99875
 243.62351 245.87827 247.88403 249.65279 251.07354 252.20030 253.02606 253.34582
 253.38657 253.16433 252.52809 251.47985 250.08961 248.25436 246.16712 244.00388
 241.79864 239.60640 237.43015 235.27291 233.13667 231.00743 229.03719 227.19794
 225.48470 223.96046 222.59422 221.36998 220.25573 219.21949 218.32725 217.47201
 216.71777 215.90152 215.00328 214.37104 213.82480 214.26671 215.31078 216.29094
 217.60295 219.10577 220.91849 222.42033 223.82993 225.81509 228.44934 230.25165
 231.60139 232.95328 234.95444 238.20280 242.18468 246.55269 250.92802 255.00647
 258.75443 262.28180 265.59048 268.56238 271.19537 273.51483 275.57687 277.31445
 278.53336 279.52512 280.50806 281.57678 282.52090 283.54376 284.50806 285.38956
 286.19434 286.92307 287.56714 288.41354
 366.78100 356.33930 345.77560 334.64590 323.05321 311.25151 299.12581 286.93311
 274.64941 262.55071 250.56402 239.86932 229.99562 221.10392 213.29022 206.29652
 200.13482 195.07713 191.66343 189.70973 188.75103 188.81933 189.65863 190.97093
 192.70024 194.79954 197.06684 199.43014 201.87944 204.36374 206.45605 208.30235
 209.93265 211.08195 211.31525 211.54755 211.48885 211.19816 210.83546 210.46976
 210.09106 209.80536 209.61766 209.48596 209.41827 209.75357 210.14387 210.53717
 211.33447 212.51677 213.77108 215.55838 217.49068 219.53798 221.63728 223.72458
 225.78888 227.87719 229.97849 232.08879 234.22209 236.39839 238.65869 241.03299
 243.65830 245.91360 247.91990 249.68920 251.11050 252.23780 253.06411 253.38441
 253.42571 253.20401 252.56831 251.52061 250.13091 248.29622 246.20952 244.04682
 241.84212 239.65042 237.47472 235.31802 233.18233 231.05363 229.08393 227.24523
 225.53253 224.00883 222.64314 221.41944 220.30574 219.27004 218.37834 217.52364
 216.76994 215.95425 215.05655 214.42485 213.87915 214.30177 215.30028 216.36774
 217.62303 219.22780 221.09927 222.46008 223.84924 225.89676 228.48364 230.12247
 231.37184 232.68704 234.74945 238.12003 242.13774 246.51747 250.89102 254.96564
 258.71225 262.23761 265.54492 268.51627 271.14969 273.47391 275.53500 277.26907
 278.49109 279.49380 280.50903 281.61960 282.61520 283.64487 284.60892 285.49155
 286.29776 287.02609 287.67218 288.51370
 366.78100 356.33992 345.77683 334.64775 323.05566 311.25458 299.12950 286.93741
 274.65433 262.55624 250.57016 239.87608 230.00299 221.11191 213.29882 206.30574
 200.14466 195.08757 191.67449 189.72140 188.76332 188.83224 189.67215 190.98507
 192.71498 194.81490 197.08282 199.44673 201.89665 204.38156 206.47448 208.32140
 209.95231 211.10223 211.33614 211.56906 211.51098 211.22089 210.85881 210.49372
 210.11564 209.83055 209.64347 209.51239 209.44530 209.78122 210.17213 210.56605
 211.36397 212.54688 213.80180 215.58971 217.52263 219.57055 221.67046 223.75838
 225.82329 227.91221 230.01413 232.12504 234.25896 236.43587 238.69679 241.07171
 243.69762 245.95354 247.96045 249.73037 251.15229 252.28020 253.10712 253.42803
 253.46995 253.24887 252.61378 251.56670 250.17761 248.34353 246.25745 244.09536
 241.89128 239.70019 237.52511 235.36903 233.23394 231.10586 229.13677 227.29869
 225.58661 224.06352 222.69844 221.47535 220.36227 219.32719 218.43610 217.58202
 216.82893 216.01385 215.11677 214.48568 213.94060 214.33853 215.27870 216.47792
 217.63121 219.31648 221.24040 222.49910 223.89613 225.98074 228.50391 230.00153
 231.17206 232.46094 234.57497 238.05135 242.09436 246.48123 250.85017 254.91685
 258.65707 262.17661 265.48068 268.45657 271.10214 273.44052 275.50333 277.23364
 278.46265 279.46927 280.49548 281.59100 282.72382 283.76523 284.72592 285.60434
 286.40601 287.13187 287.77249 288.61237
 366.78100 356.33979 345.77658 334.64737 323.05516 311.25395 299.12874 286.93653
 274.65332 262.55511 250.56890 239.87469 230.00148 221.11027 213.29706 206.30385
 200.14264 195.08543 191.67222 189.71901 188.76080 188.82960 189.66939 190.98218
 192.71197 194.81176 197.07955 199.44334 201.89313 204.37792 206.47071 208.31750
 209.94829 211.09808 211.33187 211.56466 211.50645 211.21624 210.85403 210.48882
 210.11061 209.82540 209.63819 209.50698 209.43977 209.77556 210.16635 210.56014
 211.35793 212.54072 213.79551 215.58330 217.51609 219.56388 221.66367 223.75146
 225.81625 227.90504 230.00683 232.11762 234.25141 236.42820 238.68900 241.06379
 243.68958 245.94537 247.95216 249.72195 251.14374 252.27153 253.09832 253.41911
 253.46090 253.23969 252.60448 251.55727 250.16806 248.33385 246.24764 244.08543
 241.88122 239.69001 237.51480 235.35859 233.22338 231.09517 229.12596 227.28775
 225.57554 224.05233 222.68712 221.46391 220.35070 219.31549 218.42428 217.57007
 216.81686 216.00165 215.10444 214.47323 213.92802 214.33777 215.30586 216.53877
 217.67671 219.40613 221.35289 222.56133 223.91792 226.02966 228.52254 229.89587
 230.98004 232.24387 234.42514 237.99402 242.07159 246.45113 250.80623 254.86078
 258.59134 262.10571 265.41046 268.39246 271.05225 273.40460 275.46155 277.18210
 278.42639 279.45114 280.48471 281.64462 282.80618 283.85431 284.81674 285.69696
 286.50067 287.22086 287.85913 288.69061
 366.78100 356.33882 345.77464 334.64447 323.05129 311.24911 299.12293 286.92976
 274.64558 262.54640 250.55922 239.86404 229.98987 221.09769 213.28351 206.28933
 200.12716 195.06898 191.65480 189.70062 188.74144 188.80927 189.64809 190.95991
 192.68873 194.78756 197.05438 199.41720 201.86602 204.34984 206.44167 208.28749
 209.91731 211.06613 211.29896 211.53078 211.47160 211.18042 210.81724 210.45107
 210.07189 209.78571 209.59753 209.46536 209.39718 209.73200 210.12182 210.51464
 211.31147 212.49329 213.74711 215.53393 217.46576 219.51258 221.61140 223.69822
 225.76204 227.84987 229.95069 232.06051 234.19333 236.36916 238.62898 241.00280
 243.62762 245.88244 247.88827 249.65709 251.07791 252.20473 253.03056 253.35038
 253.39120 253.16902 252.53284 251.48467 250.09449 248.25931 246.17213 244.00896
 241.80378 239.61160 237.43542 235.27824 233.14207 231.01289 229.04271 227.20353
 225.49036 223.96618 222.60000 221.37582 220.26164 219.22547 218.33329 217.47811
 216.72393 215.90776 215.00958 214.37740 213.83122 214.29564 215.39290 216.54672
 217.73845 219.50917 221.43918 222.63177 223.97731 226.06882 228.49637 229.78557
 230.80849 232.05028 234.29128 237.94511 242.06383 246.42229 250.75401 254.79431
 258.51807 262.03152 265.33734 268.32541 270.99530 273.35535 275.40060 277.10690
 278.37491 279.44284 280.50928 281.70828 282.87469 283.92468 284.88687 285.76770
 286.56909 287.28860 287.92511 288.75061
 366.78100 356.33761 345.77221 334.64082 323.04643 311.24303 299.11564 286.92125
 274.63585 262.53546 250.54707 239.85067 229.97528 221.08189 213.26649 206.27110
 200.10771 195.04831 191.63292 189.67753 188.71713 188.78374 189.62135 190.93195
 192.65956 194.75717 197.02277 199.38438 201.83199 204.31459 206.40520 208.24981
 209.87841 211.02602 211.25763 211.48823 211.42784 211.13545 210.77105 210.40366
 210.02327 209.73588 209.54648 209.41309 209.34370 209.67730 210.06591 210.45752
 211.25312 212.43373 213.68634 215.47194 217.40255 219.44816 221.54576 223.63137
 225.69398 227.78058 229.88019 231.98880 234.12040 236.29501 238.55362 240.92622
 243.54983 245.80344 247.80804 249.57565 250.99526 252.12086 252.94547 253.26408
 253.30368 253.08029 252.44290 251.39350 250.00211 248.16572 246.07732 243.91293
 241.70654 239.51314 237.33575 235.17736 233.03996 230.90957 228.93818 227.09778
 225.38339 223.85800 222.49060 221.26521 220.14982 219.11242 218.21903 217.36264
 216.60724 215.78985 214.89046 214.25706 213.70967 214.24094 215.49612 216.56694
 217.78487 219.61734 221.55170 222.64439 223.91728 226.10527 228.54607 229.75381
 230.66566 231.84355 234.15353 237.90286 242.06207 246.38989 250.69334 254.72169
 258.44501 261.95969 265.26270 268.25311 270.92801 273.28894 275.31488 277.00381
 278.29755 279.42871 280.55563 281.74817 282.91196 283.95837 284.91824 285.79550
 286.59042 287.30338 287.93387 288.74506
 366.78100 356.33653 345.77006 334.63759 323.04212 311.23765 299.10918 286.91371
 274.62724 262.52577 250.53630 239.83883 229.96236 221.06789 213.25142 206.25495
 200.09048 195.03001 191.61354 189.65707 188.69560 188.76113 189.59766 190.90719
 192.63372 194.73026 196.99479 199.35532 201.80185 204.28338 206.37291 208.21644
 209.84397 210.99050 211.22103 211.45056 211.38909 211.09562 210.73015 210.36168
 209.98021 209.69174 209.50127 209.36680 209.29633 209.62886 210.01639 210.40692
 211.20145 212.38098 213.63251 215.41704 217.34657 219.39110 221.48763 223.57216
 225.63369 227.71922 229.81775 231.92528 234.05581 236.22934 238.48687 240.85840
 243.48093 245.73346 247.73699 249.50352 250.92205 252.04658 252.87011 253.18764
 253.22617 253.00170 252.36323 251.31277 249.92030 248.08283 245.99336 243.82789
 241.62042 239.42595 237.24748 235.08801 232.94954 230.81807 228.84560 227.00413
 225.28866 223.76219 222.39372 221.16725 220.05078 219.01231 218.11784 217.26037
 216.50390 215.68543 214.78496 214.15049 213.60202 214.19572 215.59845 216.58269
 217.82620 219.66737 221.64610 222.73672 223.86929 226.06606 228.53421 229.72702
 230.49442 231.58647 233.98602 237.88109 242.08272 246.36163 250.65042 254.68018
 258.40109 261.90897 265.20786 268.19925 270.87622 273.23764 275.23621 276.89099
 278.20715 279.38535 280.56100 281.77603 282.90170 283.92841 284.88022 285.74509
 286.52438 287.22003 287.81955 288.58322
 366.78100 356.33583 345.76865 334.63548 323.03931 311.23414 299.10496 286.90879
 274.62162 262.51945 250.52927 239.83110 229.95393 221.05875 213.24158 206.24441
 200.07924 195.01806 191.60089 189.64372 188.68154 188.74637 189.58220 190.89103
 192.61685 194.71268 196.97651 199.33634 201.78216 204.26299 206.35182 208.19464
 209.82147 210.96730 211.19713 211.42595 211.36378 211.06961 210.70343 210.33426
 209.95209 209.66292 209.47174 209.33657 209.26540 209.59723 209.98405 210.37388
 211.16771 212.34653 213.59736 215.38119 217.31002 219.35384 221.44967 223.53350
 225.59432 227.67915 229.77698 231.88381 234.01363 236.18646 238.44329 240.81412
 243.43594 245.68777 247.69060 249.45642 250.87425 251.99808 252.82091 253.13773
 253.17556 252.95039 252.31122 251.26004 249.86687 248.02870 245.93852 243.77235
 241.56418 239.36901 237.18983 235.02966 232.89049 230.75831 228.78514 226.94297
 225.22680 223.69962 222.33045 221.10328 219.98611 218.94693 218.05176 217.19359
 216.43641 215.61724 214.71607 214.08090 213.53172 214.17473 215.68935 216.61160
 217.81799 219.57016 221.59848 222.78343 223.78256 225.99045 228.46829 229.81580
 230.30670 231.34647 233.82747 237.86890 242.14691 246.39014 250.63184 254.66014
 258.39575 261.90073 265.18161 268.17194 270.85034 273.20227 275.18588 276.79462
 278.10968 279.31311 280.52945 281.78638 282.96051 284.01050 284.97797 285.88748
 286.74973 287.51755 288.18829 289.04309
 366.78100 356.33554 345.76808 334.63462 323.03817 311.23271 299.10325 286.90679
 274.61933 262.51687 250.52641 239.82795 229.95050 221.05504 213.23758 206.24012
 200.07466 195.01320 191.59574 189.63828 188.67583 188.74037 189.57591 190.88445
 192.60999 194.70553 196.96907 199.32861 201.77416 204.25470 206.34324 208.18578
 209.81232 210.95786 211.18740 211.41594 211.35349 211.05903 210.69257 210.32311
 209.94065 209.65119 209.45973 209.32428 209.25282 209.58436 209.97090 210.36044
 211.15398 212.33252 213.58306 215.36661 217.29515 219.33869 221.43423 223.51777
 225.57831 227.66285 229.76039 231.86694 233.99648 236.16902 238.42556 240.79610
 243.41764 245.66918 247.67172 249.43727 250.85481 251.97835 252.80089 253.11743
 253.15497 252.92951 252.29005 251.23860 249.84514 248.00668 245.91622 243.74976
 241.54130 239.34584 237.16639 235.00593 232.86647 230.73401 228.76055 226.91809
 225.20163 223.67417 222.30472 221.07726 219.95980 218.92034 218.02488 217.16642
 216.40896 215.58950 214.68805 214.05259 213.50313 214.16858 215.73401 216.74828
 217.79053 219.42673 221.42979 222.77284 223.85110 225.93391 228.38635 229.85596
 230.24763 231.39235 233.91273 237.89928 242.20393 246.43475 250.63821 254.66006
 258.40738 261.91620 265.19553 268.18851 270.88303 273.24594 275.21582 276.81271
 278.11453 279.31717 280.56638 281.90289 283.09213 284.16098 285.20038 286.16699
 287.03632 287.81049 288.48679 289.34863
 366.78100 356.33592 345.76883 334.63575 323.03967 311.23459 299.10550 286.90942
 274.62234 262.52025 250.53017 239.83209 229.95501 221.05992 213.24284 206.24576
 200.08067 195.01959 191.60251 189.64542 188.68334 188.74826 189.58418 190.89309
 192.61901 194.71493 196.97884 199.33876 201.78468 204.26560 206.35451 208.19743
 209.82435 210.97026 211.20018 211.42910 211.36702 211.07293 210.70685 210.33777
 209.95568 209.66660 209.47552 209.34044 209.26935 209.60127 209.98819 210.37810
 211.17202 212.35094 213.60186 215.38577 217.31469 219.35861 221.45452 223.53844
 225.59936 227.68427 229.78219 231.88911 234.01903 236.19194 238.44886 240.81978
 243.44169 245.69361 247.69653 249.46245 250.88036 252.00428 252.82720 253.14411
 253.18203 252.95695 252.31787 251.26678 249.87370 248.03562 245.94553 243.77945
 241.57137 239.37629 237.19720 235.03712 232.89804 230.76595 228.79287 226.95079
 225.23471 223.70762 222.33854 221.11146 219.99437 218.95529 218.06021 217.20212
 216.44504 215.62596 214.72488 214.08979 213.54071 214.18808 215.72316 216.92348
 217.86501 219.41856 221.37857 222.76184 223.89044 225.91003 228.35411 229.74959
 230.13164 231.27229 233.82051 237.90332 242.24052 246.43289 250.61461 254.64650
 258.40265 261.91672 265.19891 268.20114 270.91266 273.30884 275.30978 276.93671
 278.27020 279.45435 280.66052 282.00272 283.19193 284.26102 285.30231 286.26193
 287.12500 287.89359 288.56500 289.42062
 366.78100 356.33662 345.77023 334.63785 323.04247 311.23809 299.10970 286.91432
 274.62794 262.52656 250.53717 239.83979 229.96341 221.06903 213.25264 206.25626
 200.09188 195.03149 191.61511 189.65873 188.69735 188.76296 189.59958 190.90920
 192.63582 194.73243 196.99705 199.35767 201.80429 204.28590 206.37552 208.21914
 209.84675 210.99337 211.22399 211.45361 211.39222 211.09884 210.73346 210.36508
 209.98369 209.69531 209.50493 209.37055 209.30016 209.63278 210.02040 210.41101
 211.20563 212.38525 213.63687 215.42148 217.35110 219.39572 221.49234 223.57695
 225.63857 227.72419 229.82281 231.93042 234.06104 236.23466 238.49227 240.86389
 243.48651 245.73913 247.74274 249.50936 250.92798 252.05260 252.87621 253.19383
 253.23245 253.00807 252.36968 251.31930 249.92692 248.08953 246.00015 243.83477
 241.62739 239.43300 237.25462 235.09524 232.95686 230.82547 228.85309 227.01171
 225.29633 223.76994 222.40156 221.17518 220.05879 219.02041 218.12603 217.26865
 216.51226 215.69388 214.79350 214.15912 213.61073 214.22495 215.68842 217.03516
 218.00870 219.53938 221.41550 222.76900 223.92987 225.88644 228.33733 229.52711
 229.92313 231.04742 233.65338 237.88049 242.25569 246.40781 250.56165 254.60011
 258.36493 261.88309 265.16797 268.18057 270.91190 273.34933 275.38327 277.04138
 278.43356 279.65399 280.80347 282.07654 283.25760 284.31155 285.29453 286.22739
 287.06641 287.81357 288.46628 289.29807
 366.78100 356.33725 345.77150 334.63976 323.04501 311.24126 299.11351 286.91876
 274.63302 262.53227 250.54352 239.84677 229.97102 221.07728 213.26153 206.26578
 200.10203 195.04228 191.62653 189.67079 188.71004 188.77629 189.61354 190.92379
 192.65105 194.74830 197.01355 199.37480 201.82205 204.30431 206.39456 208.23881
 209.86706 211.01431 211.24557 211.47582 211.41507 211.12232 210.75757 210.38983
 210.00908 209.72133 209.53158 209.39783 209.32809 209.66134 210.04959 210.44084
 211.23609 212.41635 213.66860 215.45385 217.38410 219.42935 221.52660 223.61186
 225.67411 227.76036 229.85961 231.96786 234.09912 236.27337 238.53162 240.90387
 243.52712 245.78038 247.78463 249.55188 250.97113 252.09638 252.92064 253.23889
 253.27814 253.05439 252.41664 251.36690 249.97515 248.13840 246.04965 243.88490
 241.67816 239.48441 237.30666 235.14791 233.01016 230.87942 228.90767 227.06692
 225.35217 223.82642 222.45867 221.23293 220.11718 219.07943 218.18568 217.32893
 216.57319 215.75544 214.85569 214.22194 213.67419 214.25957 215.65211 217.11261
 218.15587 219.69775 221.49457 222.81064 224.04260 225.91350 228.30820 229.25375
 229.73515 230.82492 233.47096 237.86836 242.26671 246.36354 250.49010 254.52840
 258.29785 261.81616 265.10040 268.12109 270.86685 273.32013 275.37857 277.07071
 278.51950 279.81390 280.97568 282.15149 283.31104 284.35944 285.32269 286.21326
 287.06390 287.82144 288.48318 289.32651
 366.78100 356.33769 345.77237 334.64106 323.04675 311.24343 299.11612 286.92181
 274.63650 262.53618 250.54787 239.85156 229.97624 221.08293 213.26762 206.27230
 200.10899 195.04968 191.63437 189.67905 188.71874 188.78543 189.62311 190.93380
 192.66149 194.75917 197.02486 199.38655 201.83424 204.31692 206.40761 208.25230
 209.88098 211.02867 211.26036 211.49104 211.43073 211.13842 210.77410 210.40679
 210.02648 209.73917 209.54985 209.41654 209.34723 209.68091 210.06960 210.46129
 211.25697 212.43766 213.69035 215.47604 217.40672 219.45241 221.55010 223.63578
 225.69847 227.78516 229.88484 231.99353 234.12522 236.29991 238.55859 240.93128
 243.55497 245.80865 247.81334 249.58103 251.00071 252.12640 252.95109 253.26977
 253.30946 253.08615 252.44884 251.39952 250.00821 248.17190 246.08358 243.91927
 241.71296 239.51964 237.34233 235.18402 233.04671 230.91639 228.94508 227.10477
 225.39045 223.86514 222.49783 221.27251 220.15720 219.11989 218.22658 217.37026
 216.61495 215.79764 214.89832 214.26501 213.71770 214.28328 215.61951 217.18362
 218.33153 219.86485 221.54817 222.86180 224.15935 225.95178 228.24664 229.05554
 229.60982 230.78258 233.53253 237.87610 242.25647 246.30811 250.40155 254.45302
 258.21106 261.72751 265.00751 268.03375 270.79004 273.24588 275.31418 277.01514
 278.50949 279.86386 281.09601 282.23438 283.35382 284.39426 285.34958 286.22180
 287.01239 287.72424 288.34799 289.14291
 366.78100 356.33781 345.77262 334.64143 323.04724 311.24405 299.11686 286.92267
 274.63748 262.53729 250.54910 239.85291 229.97772 221.08453 213.26934 206.27415
 200.11096 195.05177 191.63658 189.68139 188.72120 188.78801 189.62582 190.93663
 192.66444 194.76225 197.02806 199.38987 201.83768 204.32049 206.41130 208.25611
 209.88492 211.03273 211.26454 211.49535 211.43516 211.14297 210.77878 210.41159
 210.03140 209.74421 209.55502 209.42183 209.35264 209.68645 210.07526 210.46707
 211.26288 212.44369 213.69650 215.48231 217.41312 219.45893 221.55674 223.64255
 225.70536 227.79217 229.89198 232.00079 234.13260 236.30741 238.56622 240.93903
 243.56284 245.81665 247.82146 249.58927 251.00908 252.13489 252.95970 253.27851
 253.31832 253.09513 252.45794 251.40875 250.01756 248.18137 246.09318 243.92899
 241.72280 239.52961 237.35242 235.19423 233.05704 230.92685 228.95566 227.11547
 225.40128 223.87609 222.50890 221.28371 220.16852 219.13133 218.23814 217.38195
 216.62676 215.80957 214.91038 214.27719 213.73000 214.29060 215.61507 217.24646
 218.51448 219.99318 221.56410 222.86969 224.19261 225.94527 228.16170 228.94157
 229.48180 230.74403 233.55817 237.88744 242.25917 246.29414 250.35835 254.37413
 258.13907 261.65317 264.92593 267.95435 270.71799 273.17474 275.21024 276.89465
 278.41055 279.81354 281.10037 282.28262 283.35529 284.39798 285.35373 286.22299
 287.00916 287.71240 288.32993 289.14160
 366.78100 356.33769 345.77237 334.64106 323.04675 311.24344 299.11612 286.92181
 274.63650 262.53618 250.54787 239.85156 229.97625 221.08293 213.26762 206.27231
 200.10899 195.04968 191.63437 189.67906 188.71874 188.78543 189.62312 190.93380
 192.66149 194.75918 197.02487 199.38655 201.83424 204.31693 206.40761 208.25230
 209.88099 211.02868 211.26036 211.49105 211.43074 211.13842 210.77411 210.40680
 210.02648 209.73917 209.54986 209.41655 209.34723 209.68092 210.06961 210.46129
 211.25698 212.43767 213.69036 215.47604 217.40673 219.45242 221.55010 223.63579
 225.69848 227.78517 229.88485 231.99354 234.12523 236.29991 238.55860 240.93129
 243.55498 245.80866 247.81335 249.58104 251.00072 252.12641 252.95110 253.26979
 253.30947 253.08616 252.44885 251.39953 250.00822 248.17191 246.08360 243.91928
 241.71297 239.51966 237.34234 235.18403 233.04672 230.91641 228.94509 227.10478
 225.39047 223.86515 222.49784 221.27253 220.15722 219.11990 218.22659 217.37028
 216.61496 215.79765 214.89834 214.26503 213.71771 214.28540 215.62662 217.30128
 218.64978 220.06052 221.53667 222.82307 224.15564 225.90663 228.08913 228.86562
 229.39960 230.69131 233.55121 237.92567 242.30305 246.30385 250.32617 254.32796
 258.10110 261.61414 264.87698 267.89844 270.66275 273.11981 275.12363 276.79129
 278.31744 279.74155 281.06378 282.28250 283.34378 284.37198 285.32654 286.19394
 286.97647 287.67593 288.28732 289.08896
 366.78100 356.33778 345.77255 334.64133 323.04710 311.24388 299.11666 286.92243
 274.63721 262.53698 250.54876 239.85254 229.97731 221.08409 213.26887 206.27364
 200.11042 195.05119 191.63597 189.68075 188.72052 188.78730 189.62507 190.93585
 192.66363 194.76140 197.02718 199.38895 201.83673 204.31951 206.41028 208.25506
 209.88383 211.03161 211.26339 211.49416 211.43394 211.14172 210.77749 210.41027
 210.03004 209.74282 209.55360 209.42037 209.35115 209.68492 210.07370 210.46548
 211.26125 212.44203 213.69480 215.48058 217.41136 219.45713 221.55491 223.64068
 225.70346 227.79024 229.89001 231.99879 234.13056 236.30534 238.56412 240.93689
 243.56067 245.81445 247.81922 249.58700 251.00677 252.13255 252.95733 253.27610
 253.31588 253.09265 252.45543 251.40621 250.01498 248.17876 246.09053 243.92631
 241.72009 239.52686 237.34964 235.19141 233.05419 230.92397 228.95274 227.11252
 225.39830 223.87307 222.50585 221.28062 220.16540 219.12818 218.23495 217.37873
 216.62350 215.80628 214.90706 214.27383 213.72661 214.28960 215.61969 217.37054
 218.77863 220.11894 221.49878 222.74837 224.08034 225.84329 228.02164 228.81250
 229.35829 230.66341 233.55461 237.97095 242.35281 246.31281 250.30450 254.29543
 258.07492 261.58737 264.83984 267.85339 270.61707 273.07712 275.06259 276.71942
 278.25021 279.68289 281.02429 282.27020 283.32034 284.33847 285.28979 286.15680
 286.93988 287.64316 288.25211 289.05450
 366.78100 356.33841 345.77383 334.64324 323.04965 311.24706 299.12048 286.92689
 274.64230 262.54271 250.55513 239.85954 229.98495 221.09236 213.27778 206.28319
 200.12060 195.06201 191.64743 189.69284 188.73325 188.80066 189.63908 190.95049
 192.67890 194.77731 197.04373 199.40614 201.85455 204.33796 206.42938 208.27479
 209.90420 211.05261 211.28503 211.51644 211.45685 211.16526 210.80168 210.43509
 210.05550 209.76891 209.58033 209.44774 209.37915 209.71356 210.10298 210.49539
 211.29180 212.47321 213.72663 215.51304 217.44445 219.49086 221.58928 223.67569
 225.73910 227.82651 229.92693 232.03634 234.16875 236.34416 238.60358 240.97699
 243.60140 245.85581 247.86123 249.62964 251.05005 252.17646 253.00188 253.32129
 253.36170 253.13911 252.50253 251.45394 250.06335 248.22776 246.14018 243.97659
 241.77100 239.57841 237.40183 235.24424 233.10765 230.97806 229.00748 227.16789
 225.45430 223.92971 222.56313 221.33854 220.22395 219.18736 218.29478 217.43919
 216.68460 215.86802 214.96943 214.33684 213.79025 214.32201 215.57832 217.44061
 218.92447 220.22047 221.50110 222.67223 223.97107 225.74648 227.92593 228.73444
 229.30450 230.63397 233.55832 238.00858 242.39377 246.31784 250.27983 254.26323
 258.04904 261.56161 264.80389 267.80753 270.56967 273.02676 275.00165 276.65527
 278.18915 279.62607 280.97699 282.24072 283.29471 284.30493 285.25525 286.12283
 286.90851 287.61249 288.22653 289.03009
 366.78100 356.33937 345.77573 334.64610 323.05347 311.25184 299.12620 286.93357
 274.64994 262.55130 250.56467 239.87004 229.99641 221.10477 213.29114 206.29751
 200.13587 195.07824 191.66461 189.71098 188.75234 188.82071 189.66008 190.97244
 192.70181 194.80118 197.06855 199.43191 201.88128 204.36565 206.45801 208.30438
 209.93475 211.08411 211.31748 211.54985 211.49122 211.20058 210.83795 210.47232
 210.09368 209.80805 209.62042 209.48879 209.42115 209.75652 210.14689 210.54025
 211.33762 212.51999 213.77436 215.56172 217.49409 219.54146 221.64082 223.72819
 225.79256 227.88093 229.98229 232.09266 234.22603 236.40239 238.66276 241.03713
 243.66250 245.91786 247.92423 249.69360 251.11496 252.24233 253.06870 253.38907
 253.43043 253.20880 252.57317 251.52553 250.13590 248.30127 246.21464 244.05200
 241.84737 239.65574 237.48010 235.32347 233.18784 231.05920 229.08957 227.25094
 225.53831 224.01467 222.64904 221.42541 220.31177 219.27614 218.38451 217.52988
 216.77624 215.96061 215.06298 214.43134 213.88571 214.37222 215.52164 217.48590
 219.07663 220.35143 221.53627 222.61217 223.86061 225.62361 227.81342 228.65002
 229.25082 230.61183 233.56679 238.03944 242.42189 246.33400 250.26134 254.23230
 258.02640 261.54065 264.77219 267.76535 270.52222 272.97537 274.94312 276.59616
 278.12943 279.56467 280.92178 282.19345 283.25024 284.27319 285.22629 286.09515
 286.88379 287.59100 288.20868 289.01279
 366.78100 356.34033 345.77766 334.64899 323.05732 311.25666 299.13199 286.94032
 274.65765 262.55998 250.57431 239.88064 230.00797 221.11730 213.30463 206.31197
 200.15130 195.09463 191.68196 189.72929 188.77162 188.84095 189.68128 190.99461
 192.72494 194.82528 197.09361 199.45794 201.90827 204.39360 206.48693 208.33426
 209.96559 211.11592 211.35025 211.58359 211.52592 211.23625 210.87458 210.50991
 210.13224 209.84757 209.66090 209.53023 209.46356 209.79990 210.19123 210.58556
 211.38389 212.56722 213.82255 215.61088 217.54421 219.59254 221.69287 223.78121
 225.84654 227.93587 230.03820 232.14953 234.28386 236.46119 238.72252 241.09785
 243.72418 245.98052 247.98785 249.75818 251.18051 252.30884 253.13617 253.45750
 253.49983 253.27916 252.64450 251.59783 250.20916 248.37549 246.28982 244.12815
 241.92448 239.73381 237.55914 235.40347 233.26881 231.14114 229.17247 227.33480
 225.62313 224.10046 222.73579 221.51312 220.40045 219.36578 218.47512 217.62145
 216.86878 216.05411 215.15744 214.52677 213.98210 214.42386 215.46754 217.51030
 219.23421 220.48723 221.57518 222.54489 223.73480 225.50812 227.70108 228.56049
 229.20192 230.60330 233.58591 238.07372 242.45311 246.34540 250.24879 254.21147
 258.00894 261.52267 264.74210 267.72290 270.47266 272.91867 274.88358 276.53955
 278.06912 279.50089 280.85828 282.13443 283.20178 284.23447 285.19131 286.06619
 286.85892 287.57181 288.19305 288.99838
 366.78100 356.34123 345.77946 334.65170 323.06093 311.26116 299.13739 286.94663
 274.66486 262.56809 250.58332 239.89056 230.01879 221.12902 213.31725 206.32549
 200.16572 195.10995 191.69818 189.74641 188.78965 188.85988 189.70111 191.01534
 192.74658 194.84781 197.11704 199.48227 201.93351 204.41974 206.51397 208.36220
 209.99444 211.14567 211.38090 211.61513 211.55836 211.26960 210.90883 210.54506
 210.16829 209.88453 209.69876 209.56899 209.50322 209.84046 210.23269 210.62792
 211.42715 212.61139 213.86762 215.65685 217.59108 219.64031 221.74155 223.83078
 225.89701 227.98724 230.09048 232.20271 234.33794 236.51617 238.77841 241.15464
 243.78187 246.03910 248.04734 249.81857 251.24180 252.37103 253.19926 253.52150
 253.56473 253.34496 252.71119 251.66543 250.27766 248.44489 246.36012 244.19936
 241.99659 239.80682 237.63305 235.47829 233.34452 231.21775 229.24998 227.41321
 225.70245 224.18068 222.81691 221.59514 220.48338 219.44961 218.55984 217.70707
 216.95531 216.14154 215.24577 214.61600 214.07224 214.47232 215.41757 217.51866
 219.39355 220.61946 221.61833 222.49858 223.62250 225.33887 227.56682 228.48790
 229.17390 230.61441 233.61642 238.11081 242.48550 246.37242 250.24158 254.19116
 257.99097 261.50220 264.70920 267.67599 270.41837 272.85638 274.82181 276.48431
 278.00677 279.43124 280.78888 282.06177 283.15912 284.19724 285.16013 286.03772
 286.83557 287.55292 288.18097 288.98810
 366.78100 356.34205 345.78111 334.65416 323.06421 311.26526 299.14232 286.95237
 274.67142 262.57547 250.59153 239.89958 230.02863 221.13968 213.32874 206.33779
 200.17884 195.12389 191.71295 189.76200 188.80605 188.87710 189.71916 191.03421
 192.76626 194.86831 197.13837 199.50442 201.95647 204.44352 206.53858 208.38763
 210.02068 211.17273 211.40879 211.64384 211.58789 211.29994 210.94000 210.57705
 210.20110 209.91815 209.73321 209.60426 209.53931 209.87736 210.27042 210.66647
 211.46652 212.65157 213.90863 215.69868 217.63373 219.68378 221.78584 223.87589
 225.94294 228.03399 230.13805 232.25110 234.38715 236.56620 238.82926 241.20631
 243.83436 246.09241 248.10147 249.87352 251.29757 252.42762 253.25668 253.57973
 253.62378 253.40483 252.77189 251.72694 250.33999 248.50804 246.42410 244.26415
 242.06220 239.87325 237.70031 235.54636 233.41341 231.28746 229.32052 227.48457
 225.77462 224.25367 222.89073 221.66978 220.55883 219.52588 218.63694 217.78499
 217.03404 216.22109 215.32615 214.69720 214.15425 214.51651 215.37241 217.51361
 219.54187 220.74742 221.67044 222.46747 223.51959 225.16231 227.42183 228.40932
 229.14694 230.63475 233.65714 238.15520 242.52814 246.39827 250.23405 254.17291
 257.97375 261.47949 264.67310 267.62686 270.36060 272.79160 274.76285 276.43567
 277.94955 279.36526 280.71881 281.96884 283.12497 284.16745 285.12674 286.00339
 286.80286 287.52206 288.15317 288.96289
 366.78100 356.34267 345.78234 334.65601 323.06668 311.26835 299.14603 286.95670
 274.67637 262.58104 250.59771 239.90638 230.03605 221.14772 213.33739 206.34706
 200.18874 195.13441 191.72408 189.77375 188.81842 188.89009 189.73276 191.04843
 192.78110 194.88377 197.15444 199.52112 201.97379 204.46146 206.55713 208.40680
 210.04047 211.19314 211.42981 211.66548 211.61015 211.32283 210.96350 210.60117
 210.22584 209.94351 209.75918 209.63085 209.56652 209.90519 210.29886 210.69553
 211.49621 212.68188 213.93955 215.73022 217.66589 219.71656 221.81923 223.90990
 225.97757 228.06924 230.17392 232.28759 234.42426 236.60393 238.86760 241.24527
 243.87394 246.13261 248.14228 249.91495 251.33962 252.47030 253.29997 253.62364
 253.66831 253.44998 252.81765 251.77332 250.38699 248.55566 246.47233 244.31301
 242.11168 239.92335 237.75102 235.59769 233.46536 231.34003 229.37370 227.53837
 225.82904 224.30871 222.94639 221.72606 220.61573 219.58340 218.69507 217.84374
 217.09341 216.28108 215.38675 214.75842 214.21609 214.55084 215.34174 217.49196
 219.67162 220.88177 221.73778 222.44794 223.41864 224.98827 227.26625 228.31229
 229.10915 230.65601 233.70171 238.20041 242.56918 246.43085 250.24171 254.16206
 257.95728 261.45560 264.63470 267.57474 270.30063 272.72623 274.70654 276.39044
 277.89554 279.30002 280.64627 281.90475 283.07886 284.12912 285.09387 285.97552
 286.77896 287.50424 288.13794 288.95728
 366.78100 356.34305 345.78311 334.65716 323.06822 311.27027 299.14833 286.95938
 274.67944 262.58449 250.60155 239.91060 230.04066 221.15271 213.34277 206.35282
 200.19488 195.14093 191.73098 189.78104 188.82609 188.89815 189.74120 191.05726
 192.79031 194.89337 197.16442 199.53148 201.98453 204.47259 206.56864 208.41870
 210.05275 211.20581 211.44286 211.67891 211.62397 211.33702 210.97808 210.61613
 210.24119 209.95924 209.77530 209.64735 209.58341 209.92246 210.31652 210.71357
 211.51463 212.70068 213.95874 215.74979 217.68584 219.73690 221.83995 223.93101
 225.99906 228.09112 230.19617 232.31023 234.44728 236.62734 238.89139 241.26945
 243.89850 246.15756 248.16761 249.94067 251.36572 252.49677 253.32683 253.65088
 253.69594 253.47799 252.84605 251.80210 250.41616 248.58521 246.50227 244.34332
 242.14238 239.95443 237.78249 235.62954 233.49760 231.37265 229.40670 227.57176
 225.86281 224.34287 222.98092 221.76098 220.65103 219.61909 218.73114 217.88020
 217.13025 216.31831 215.42436 214.79642 214.25447 214.57420 215.32962 217.45445
 219.78291 221.02780 221.81599 222.43207 223.31442 224.81781 227.10388 228.20158
 229.06438 230.68089 233.75450 238.24823 242.61009 246.47173 250.25810 254.15533
 257.94351 261.43146 264.59451 267.52087 270.23874 272.65884 274.65082 276.34702
 277.84311 279.23682 280.54831 281.87033 283.04675 284.09476 285.05804 285.94305
 286.74756 287.47443 288.10968 288.93481
 366.78100 356.34339 345.78378 334.65817 323.06957 311.27196 299.15035 286.96174
 274.68213 262.58752 250.60491 239.91430 230.04470 221.15709 213.34748 206.35787
 200.20026 195.14665 191.73704 189.78744 188.83283 188.90522 189.74861 191.06500
 192.79839 194.90178 197.17317 199.54057 201.99396 204.48235 206.57874 208.42913
 210.06352 211.21691 211.45430 211.69070 211.63609 211.34948 210.99087 210.62926
 210.25465 209.97304 209.78944 209.66183 209.59822 209.93761 210.33200 210.72939
 211.53078 212.71717 213.97557 215.76696 217.70335 219.75474 221.85813 223.94952
 226.01791 228.11031 230.21570 232.33009 234.46748 236.64787 238.91226 241.29065
 243.92004 246.17944 248.18983 249.96322 251.38861 252.52000 253.35039 253.67478
 253.72017 253.50257 252.87096 251.82735 250.44174 248.61113 246.52852 244.36991
 242.16931 239.98170 237.81009 235.65748 233.52587 231.40126 229.43565 227.60104
 225.89244 224.37283 223.01122 221.79161 220.68200 219.65039 218.76278 217.91218
 217.16257 216.35096 215.45735 214.82974 214.28813 214.59604 215.32349 217.41415
 219.87738 221.17485 221.89146 222.41275 223.20552 224.65405 226.94247 228.08818
 229.02280 230.71608 233.81737 238.30316 242.66031 246.51791 250.27737 254.15633
 257.92941 261.40311 264.54980 267.46274 270.17310 272.58664 274.59076 276.30133
 277.79047 279.17770 280.47772 281.81787 283.00305 284.05594 285.02234 285.90662
 286.71161 287.43738 288.07098 288.90085
 366.78100 356.34396 345.78491 334.65987 323.07182 311.27478 299.15374 286.96569
 274.68665 262.59260 250.61056 239.92052 230.05147 221.16443 213.35538 206.36634
 200.20930 195.15625 191.74721 189.79816 188.84412 188.91708 189.76103 191.07799
 192.81195 194.91590 197.18786 199.55581 202.00977 204.49873 206.59568 208.44664
 210.08159 211.23555 211.47351 211.71046 211.65642 211.37037 211.01233 210.65129
 210.27724 209.99620 209.81315 209.68611 209.62307 209.96302 210.35798 210.75593
 211.55789 212.74485 214.00380 215.79576 217.73271 219.78467 221.88863 223.98058
 226.04954 228.14249 230.24845 232.36341 234.50136 236.68232 238.94727 241.32623
 243.95619 246.21614 248.22710 250.00106 251.42701 252.55897 253.38992 253.71488
 253.76084 253.54379 252.91275 251.86970 250.48466 248.65462 246.57257 244.41453
 242.21448 240.02744 237.85640 235.70435 233.57331 231.44926 229.48422 227.65018
 225.94213 224.42309 223.06204 221.84300 220.73396 219.70291 218.81587 217.96582
 217.21678 216.40574 215.51269 214.88565 214.34460 214.62985 215.30382 217.39355
 219.94928 221.30246 221.96284 222.39532 223.09979 224.50101 226.78389 227.97339
 228.98351 230.75948 233.89125 238.36415 242.71696 246.57051 250.30951 254.15842
 257.91245 261.37030 264.49997 267.40097 270.10269 272.51187 274.52841 276.25201
 277.73901 279.12228 280.42123 281.76663 282.95602 284.01022 284.97919 285.86423
 286.66873 287.39438 288.02823 288.85550
 366.78100 356.34477 345.78654 334.66230 323.07507 311.27884 299.15861 286.97137
 274.69314 262.59991 250.61868 239.92944 230.06121 221.17498 213.36675 206.37851
 200.22228 195.17005 191.76182 189.81359 188.86035 188.93412 189.77889 191.09666
 192.83142 194.93619 197.20896 199.57773 202.03249 204.52226 206.62003 208.47180
 210.10757 211.26233 211.50110 211.73887 211.68564 211.40040 211.04317 210.68294
 210.30971 210.02947 209.84724 209.72101 209.65878 209.99954 210.39531 210.79408
 211.59685 212.78462 214.04438 215.83715 217.77492 219.82769 221.93245 224.02522
 226.09499 228.18876 230.29552 232.41129 234.55006 236.73183 238.99759 241.37736
 244.00813 246.26890 248.28067 250.05543 251.48220 252.61497 253.44674 253.77250
 253.81927 253.60304 252.97281 251.93057 250.54634 248.71711 246.63588 244.47865
 242.27941 240.09318 237.92295 235.77172 233.64148 231.51825 229.55402 227.72079
 226.01355 224.49532 223.13509 221.91686 220.80862 219.77839 218.89216 218.04293
 217.29470 216.48446 215.59223 214.96600 214.42577 214.67621 215.26787 217.39861
 219.99190 221.39755 222.04193 222.39938 223.00989 224.36372 226.62608 227.84543
 228.93117 230.79733 233.97050 238.43068 242.77425 246.62616 250.34184 254.16328
 257.89703 261.33420 264.44568 267.33603 270.03030 272.43741 274.46649 276.20438
 277.69141 279.07037 280.37457 281.71948 282.90860 283.96667 284.93527 285.81891
 286.62405 287.34702 287.98254 288.80258
 366.78100 356.34547 345.78794 334.66441 323.07789 311.28236 299.16283 286.97630
 274.69877 262.60624 250.62572 239.93719 230.06966 221.18413 213.37660 206.38907
 200.23354 195.18202 191.77449 189.82696 188.87443 188.94890 189.79437 191.11285
 192.84832 194.95379 197.22726 199.59673 202.05220 204.54267 206.64115 208.49362
 210.13009 211.28556 211.52503 211.76350 211.71098 211.42645 211.06992 210.71039
 210.33786 210.05833 209.87681 209.75128 209.68975 210.03122 210.42769 210.82716
 211.63063 212.81911 214.07958 215.87305 217.81152 219.86499 221.97046 224.06394
 226.13441 228.22888 230.33635 232.45282 234.59229 236.77476 239.04124 241.42171
 244.05318 246.31465 248.32712 250.10259 251.53007 252.66354 253.49601 253.82248
 253.86995 253.65442 253.02489 251.98337 250.59984 248.77131 246.69078 244.53425
 242.33572 240.15020 237.98067 235.83014 233.70061 231.57808 229.61455 227.78202
 226.07550 224.55797 223.19844 221.98091 220.87338 219.84385 218.95833 218.10980
 217.36227 216.55274 215.66121 215.03568 214.49615 214.71771 215.24112 217.40459
 220.01065 221.46518 222.13286 222.42953 222.94402 224.24432 226.46643 227.70312
 228.86192 230.82112 234.04190 238.49712 242.83855 246.68442 250.37469 254.16718
 257.87833 261.29211 264.38672 267.26822 269.95770 272.36380 274.40616 276.15686
 277.64883 279.02747 280.33664 281.68369 282.87390 283.92996 284.89920 285.78436
 286.58813 287.31381 287.94717 288.77032
 366.78100 356.34577 345.78855 334.66532 323.07909 311.28386 299.16464 286.97841
 274.70118 262.60895 250.62873 239.94050 230.07327 221.18804 213.38082 206.39359
 200.23836 195.18713 191.77991 189.83268 188.88045 188.95522 189.80100 191.11977
 192.85554 194.96132 197.23509 199.60486 202.06063 204.55141 206.65018 208.50295
 210.13972 211.29550 211.53527 211.77404 211.72181 211.43759 211.08136 210.72213
 210.34990 210.07068 209.88945 209.76422 209.70299 210.04477 210.44154 210.84131
 211.64508 212.83386 214.09463 215.88840 217.82718 219.88095 221.98672 224.08049
 226.15127 228.24604 230.35381 232.47058 234.61036 236.79313 239.05990 241.44067
 244.07245 246.33422 248.34699 250.12276 251.55054 252.68431 253.51708 253.84385
 253.89163 253.67640 253.04717 252.00595 250.62272 248.79449 246.71426 244.55804
 242.35981 240.17458 238.00535 235.85513 233.72590 231.60367 229.64044 227.80822
 226.10199 224.58476 223.22553 222.00831 220.90108 219.87185 218.98662 218.13840
 217.39117 216.58194 215.69072 215.06549 214.52626 214.74019 215.24559 217.38826
 220.02133 221.51331 222.22563 222.47301 222.88821 224.13774 226.31148 227.55405
 228.78339 230.84039 234.11342 238.56676 242.90303 246.75049 250.41507 254.17039
 257.85233 261.23999 264.31982 267.19632 269.88187 272.28848 274.34082 276.10394
 277.60623 278.98792 280.31296 281.66122 282.85135 283.90939 284.87869 285.76334
 286.57150 287.29599 287.93246 288.75613
 366.78100 356.34568 345.78836 334.66505 323.07873 311.28341 299.16409 286.97778
 274.70046 262.60814 250.62782 239.93950 230.07219 221.18687 213.37955 206.39223
 200.23692 195.18560 191.77828 189.83096 188.87865 188.95333 189.79901 191.11769
 192.85337 194.95906 197.23274 199.60242 202.05810 204.54879 206.64747 208.50015
 210.13683 211.29251 211.53220 211.77088 211.71856 211.43424 211.07793 210.71861
 210.34629 210.06697 209.88566 209.76034 209.69902 210.04070 210.43738 210.83707
 211.64075 212.82943 214.09011 215.88380 217.82248 219.87616 221.98184 224.07552
 226.14621 228.24089 230.34857 232.46525 234.60494 236.78762 239.05430 241.43498
 244.06667 246.32835 248.34103 250.11671 251.54439 252.67808 253.51076 253.83744
 253.88512 253.66981 253.04049 251.99917 250.61585 248.78753 246.70722 244.55090
 242.35258 240.16726 237.99795 235.84763 233.71831 231.59599 229.63268 227.80036
 226.09404 224.57672 223.21740 222.00009 220.89277 219.86345 218.97813 218.12982
 217.38250 216.57318 215.68186 215.05654 214.51723 214.74478 215.28241 217.34872
 220.02490 221.55998 222.29930 222.50360 222.83752 224.04150 226.15656 227.40938
 228.71501 230.86894 234.19456 238.64546 242.97583 246.82027 250.45804 254.17584
 257.82364 261.18430 264.24930 267.12146 269.80435 272.21033 274.27170 276.04553
 277.56232 278.95279 280.29901 281.64917 282.84058 283.89777 284.86783 285.75500
 286.56140 287.28937 287.92661 288.75189
 366.78100 356.34552 345.78803 334.66455 323.07806 311.28258 299.16309 286.97661
 274.69912 262.60664 250.62615 239.93767 230.07018 221.18470 213.37721 206.38973
 200.23424 195.18276 191.77527 189.82779 188.87530 188.94982 189.79533 191.11385
 192.84936 194.95488 197.22839 199.59791 202.05342 204.54394 206.64245 208.49497
 210.13148 211.28700 211.52651 211.76503 211.71254 211.42806 211.07157 210.71209
 210.33960 210.06012 209.87863 209.75315 209.69166 210.03318 210.42969 210.82921
 211.63272 212.82124 214.08175 215.87527 217.81378 219.86730 221.97281 224.06633
 226.13684 228.23136 230.33887 232.45539 234.59490 236.77742 239.04393 241.42445
 244.05596 246.31748 248.32999 250.10551 251.53302 252.66654 253.49905 253.82557
 253.87308 253.65760 253.02811 251.98663 250.60314 248.77466 246.69417 244.53769
 242.33920 240.15372 237.98423 235.83375 233.70426 231.58178 229.61829 227.78581
 226.07932 224.56184 223.20235 221.98487 220.87738 219.84790 218.96241 218.11393
 217.36644 216.55696 215.66547 215.03999 214.50050 214.74721 215.33006 217.31592
 220.00307 221.60370 222.36540 222.51672 222.76790 223.94771 226.01852 227.27664
 228.65202 230.90309 234.28448 238.73352 243.05576 246.89752 250.50914 254.18364
 257.79343 261.12396 264.17471 267.04376 269.72351 272.12842 274.19592 275.98038
 277.51642 278.91907 280.29932 281.65390 282.84451 283.90271 284.87289 285.76007
 286.56952 287.29764 287.93634 288.76288
 366.78100 356.34551 345.78801 334.66452 323.07803 311.28254 299.16304 286.97655
 274.69906 262.60657 250.62607 239.93758 230.07009 221.18459 213.37710 206.38961
 200.23412 195.18262 191.77513 189.82764 188.87515 188.94965 189.79516 191.11367
 192.84917 194.95468 197.22819 199.59770 202.05320 204.54371 206.64222 208.49472
 210.13123 211.28674 211.52625 211.76475 211.71226 211.42777 211.07128 210.71178
 210.33929 210.05980 209.87830 209.75281 209.69132 210.03283 210.42933 210.82884
 211.63235 212.82086 214.08136 215.87487 217.81338 219.86688 221.97239 224.06590
 226.13641 228.23091 230.33842 232.45493 234.59444 236.77694 239.04345 241.42396
 244.05546 246.31697 248.32948 250.10499 251.53249 252.66600 253.49851 253.82501
 253.87252 253.65703 253.02754 251.98604 250.60255 248.77406 246.69357 244.53707
 242.33858 240.15309 237.98359 235.83310 233.70361 231.58112 229.61762 227.78513
 226.07864 224.56115 223.20165 221.98416 220.87667 219.84717 218.96168 218.11319
 217.36570 216.55620 215.66471 215.03922 214.49973 214.75880 215.37091 217.30847
 219.96097 221.63654 222.40768 222.51479 222.70996 223.86647 225.86899 227.13870
 228.59914 230.95061 234.38467 238.83260 243.14723 246.98299 250.56841 254.19495
 257.76233 261.06116 264.09723 266.96402 269.64078 272.04443 274.11417 275.90756
 277.46671 278.88132 280.31494 281.67081 282.85953 283.91690 284.88687 285.77365
 286.58316 287.31378 287.95056 288.77875
 366.78100 356.34546 345.78791 334.66437 323.07782 311.28228 299.16273 286.97619
 274.69864 262.60610 250.62555 239.93701 230.06946 221.18392 213.37638 206.38883
 200.23329 195.18174 191.77420 189.82665 188.87411 188.94856 189.79402 191.11247
 192.84793 194.95338 197.22684 199.59630 202.05175 204.54221 206.64066 208.49312
 210.12957 211.28503 211.52448 211.76294 211.71039 211.42585 211.06930 210.70976
 210.33721 210.05767 209.87613 209.75058 209.68904 210.03049 210.42695 210.82640
 211.62986 212.81831 214.07877 215.87222 217.81068 219.86413 221.96959 224.06305
 226.13350 228.22796 230.33541 232.45187 234.59132 236.77378 239.04023 241.42069
 244.05214 246.31360 248.32605 250.10151 251.52897 252.66242 253.49488 253.82133
 253.86879 253.65324 253.02370 251.98215 250.59861 248.77006 246.68952 244.53297
 242.33443 240.14889 237.97934 235.82880 233.69925 231.57671 229.61316 227.78062
 226.07407 224.55653 223.19698 221.97944 220.87189 219.84235 218.95681 218.10826
 217.36072 216.55117 215.65963 215.03408 214.49454 214.76877 215.41669 217.31567
 219.89473 221.66988 222.46751 222.49699 222.61021 223.76274 225.74182 227.02837
 228.55319 230.99365 234.48524 238.93472 243.24037 247.07056 250.63158 254.20900
 257.73221 260.99945 264.02087 266.88586 269.55927 271.96094 274.03247 275.83603
 277.41806 278.82413 280.33185 281.69833 282.88715 283.94183 284.91064 285.79620
 286.60452 287.33524 287.97449 288.79700
 366.78100 356.34523 345.78747 334.66370 323.07693 311.28117 299.16140 286.97463
 274.69686 262.60410 250.62333 239.93456 230.06680 221.18103 213.37326 206.38550
 200.22973 195.17796 191.77019 189.82243 188.86966 188.94389 189.78913 191.10736
 192.84259 194.94783 197.22106 199.59029 202.04553 204.53576 206.63399 208.48622
 210.12246 211.27769 211.51692 211.75516 211.70239 211.41762 211.06086 210.70109
 210.32832 210.04856 209.86679 209.74102 209.67925 210.02049 210.41672 210.81595
 211.61919 212.80742 214.06765 215.86089 217.79912 219.85235 221.95758 224.05082
 226.12105 228.21528 230.32252 232.43875 234.57798 236.76022 239.02645 241.40668
 244.03792 246.29915 248.31138 250.08661 251.51385 252.64708 253.47931 253.80555
 253.85278 253.63701 253.00725 251.96548 250.58171 248.75295 246.67218 244.51541
 242.31664 240.13088 237.96111 235.81034 233.68058 231.55781 229.59404 227.76128
 226.05451 224.53674 223.17697 221.95921 220.85144 219.82167 218.93591 218.08714
 217.33937 216.52961 215.63784 215.01207 214.47231 214.77010 215.47363 217.33105
 219.80380 221.66631 222.53377 222.51295 222.55760 223.69806 225.58238 226.85995
 228.47563 231.02850 234.58372 239.03920 243.34009 247.16837 250.70724 254.23463
 257.71158 260.94592 263.95175 266.81311 269.48267 271.87869 273.94565 275.75305
 277.35941 278.82111 280.34381 281.71683 282.90823 283.96716 284.93619 285.82275
 286.63327 287.36319 288.00104 288.82239
 366.78100 356.34492 345.78685 334.66277 323.07569 311.27962 299.15954 286.97246
 274.69439 262.60131 250.62023 239.93115 230.06308 221.17700 213.36892 206.38085
 200.22477 195.17269 191.76462 189.81654 188.86346 188.93739 189.78231 191.10023
 192.83516 194.94008 197.21300 199.58192 202.03685 204.52677 206.62469 208.47662
 210.11254 211.26746 211.50639 211.74431 211.69123 211.40616 211.04908 210.68900
 210.31593 210.03585 209.85377 209.72770 209.66562 210.00654 210.40246 210.80139
 211.60431 212.79223 214.05216 215.84508 217.78300 219.83593 221.94085 224.03377
 226.10370 228.19762 230.30454 232.42047 234.55939 236.74131 239.00724 241.38716
 244.01808 246.27900 248.29093 250.06585 251.49277 252.62570 253.45762 253.78354
 253.83047 253.61439 252.98431 251.94224 250.55816 248.72908 246.64801 244.49093
 242.29185 240.10577 237.93570 235.78462 233.65454 231.53147 229.56739 227.73431
 226.02724 224.50916 223.14908 221.93101 220.82293 219.79285 218.90678 218.05770
 217.30962 216.49955 215.60747 214.98139 214.44131 214.76677 215.53568 217.34836
 219.71487 221.61787 222.58054 222.55920 222.53458 223.55559 225.39313 226.73514
 228.43747 231.08458 234.69571 239.15201 243.45219 247.28462 250.80193 254.27667
 257.70334 260.90341 263.89029 266.74521 269.40796 271.79434 273.85333 275.66562
 277.30045 278.82343 280.35394 281.72702 282.91852 283.97592 284.94394 285.82767
 286.63422 287.36282 287.99335 288.79538
 366.78100 356.34445 345.78590 334.66135 323.07380 311.27725 299.15670 286.96915
 274.69060 262.59705 250.61550 239.92595 230.05741 221.17086 213.36231 206.37376
 200.21721 195.16466 191.75611 189.80756 188.85401 188.92746 189.77191 191.08936
 192.82381 194.92826 197.20071 199.56916 202.02361 204.51306 206.61051 208.46196
 210.09741 211.25186 211.49031 211.72777 211.67422 211.38867 211.03112 210.67057
 210.29702 210.01647 209.83392 209.70737 209.64482 209.98527 210.38072 210.77917
 211.58162 212.76907 214.02852 215.82097 217.75842 219.81087 221.91532 224.00777
 226.07722 228.17067 230.27712 232.39258 234.53103 236.71248 238.97793 241.35738
 243.98783 246.24828 248.25973 250.03418 251.46063 252.59308 253.42453 253.74998
 253.79643 253.57988 252.94933 251.90678 250.52223 248.69268 246.61113 244.45358
 242.25403 240.06748 237.89694 235.74539 233.61484 231.49129 229.52674 227.69319
 225.98564 224.46709 223.10654 221.88799 220.77944 219.74889 218.86234 218.01279
 217.26424 216.45369 215.56114 214.93459 214.39404 214.75473 215.60692 217.35802
 219.63303 221.55086 222.60187 222.58427 222.49158 223.39473 225.21878 226.64702
 228.42891 231.15625 234.81584 239.26904 243.56868 247.40582 250.90247 254.32626
 257.70029 260.86365 263.83121 266.67972 269.33539 271.71219 273.75995 275.57083
 277.23352 278.82382 280.36084 281.73276 282.92377 283.97919 284.94513 285.82782
 286.63400 287.35995 287.99103 288.78622
 366.78100 356.34410 345.78521 334.66031 323.07241 311.27551 299.15462 286.96672
 274.68782 262.59392 250.61203 239.92213 230.05323 221.16633 213.35744 206.36854
 200.21164 195.15875 191.74985 189.80095 188.84705 188.92016 189.76426 191.08136
 192.81546 194.91957 197.19167 199.55977 202.01388 204.50298 206.60008 208.45118
 210.08629 211.24039 211.47849 211.71559 211.66170 211.37580 211.01790 210.65700
 210.28311 210.00221 209.81931 209.69242 209.62952 209.96962 210.36472 210.76283
 211.56493 212.75203 214.01113 215.80324 217.74034 219.79244 221.89654 223.98865
 226.05775 228.15085 230.25696 232.37206 234.51016 236.69126 238.95637 241.33547
 243.96557 246.22567 248.23678 250.01088 251.43698 252.56909 253.40019 253.72529
 253.77139 253.55450 252.92360 251.88070 250.49580 248.66591 246.58401 244.42611
 242.22621 240.03932 237.86842 235.71652 233.58563 231.46173 229.49683 227.66293
 225.95504 224.43614 223.07524 221.85634 220.74745 219.71655 218.82965 217.97975
 217.23086 216.41996 215.52706 214.90017 214.35927 214.74988 215.67273 217.37560
 219.56047 221.46490 222.59425 222.58965 222.43224 223.23911 225.05727 226.56429
 228.42024 231.22659 234.93626 239.38411 243.68359 247.52904 251.00694 254.38130
 257.70343 260.83167 263.77728 266.61877 269.26697 271.63339 273.67325 275.49237
 277.18588 278.81479 280.35449 281.72543 282.91333 283.96841 284.93350 285.81375
 286.61844 287.34430 287.97391 288.76639
 366.78100 356.34450 345.78600 334.66150 323.07400 311.27750 299.15700 286.96951
 274.69101 262.59751 250.61601 239.92651 230.05801 221.17151 213.36301 206.37451
 200.21801 195.16551 191.75701 189.80851 188.85502 188.92852 189.77302 191.09052
 192.82502 194.92952 197.20202 199.57052 202.02502 204.51452 206.61202 208.46352
 210.09903 211.25353 211.49203 211.72953 211.67603 211.39053 211.03303 210.67253
 210.29903 210.01853 209.83603 209.70953 209.64703 209.98754 210.38304 210.78154
 211.58404 212.77154 214.03104 215.82354 217.76104 219.81354 221.91804 224.01054
 226.08004 228.17354 230.28005 232.39555 234.53405 236.71555 238.98105 241.36055
 243.99105 246.25155 248.26305 250.03755 251.46405 252.59655 253.42805 253.75356
 253.80006 253.58356 252.95306 251.91056 250.52606 248.69656 246.61506 244.45756
 242.25806 240.07156 237.90106 235.74957 233.61907 231.49557 229.53107 227.69757
 225.99007 224.47157 223.11107 221.89257 220.78407 219.75357 218.86707 218.01757
 217.26908 216.45858 215.56608 214.93958 214.39908 214.78748 215.70509 217.39215
 219.53151 221.39906 222.54356 222.54021 222.33791 223.08049 224.90472 226.48578
 228.41333 231.29788 235.06146 239.50481 243.80386 247.66052 251.12819 254.45938
 257.72977 260.81741 263.73651 266.56400 269.19843 271.54456 273.56119 275.37479
 277.09998 278.80527 280.35208 281.72003 282.90585 283.95697 284.91852 285.79791
 286.60034 287.32446 287.94540 288.73798
 366.78100 356.34526 345.78752 334.66377 323.07703 311.28129 299.16155 286.97481
 274.69706 262.60432 250.62358 239.93484 230.06710 221.18136 213.37361 206.38587
 200.23013 195.17839 191.77065 189.82290 188.87016 188.94442 189.78968 191.10794
 192.84319 194.94845 197.22171 199.59097 202.04623 204.53648 206.63474 208.48700
 210.12326 211.27852 211.51777 211.75603 211.70329 211.41855 211.06181 210.70207
 210.32932 210.04958 209.86784 209.74210 209.68036 210.02161 210.41787 210.81713
 211.62039 212.80865 214.06890 215.86216 217.80042 219.85368 221.95894 224.05219
 226.12245 228.21671 230.32397 232.44023 234.57948 236.76174 239.02800 241.40826
 244.03952 246.30078 248.31303 250.08829 251.51555 252.64881 253.48107 253.80732
 253.85458 253.63884 253.00910 251.96736 250.58361 248.75487 246.67413 244.51739
 242.31865 240.13290 237.96316 235.81242 233.68268 231.55994 229.59619 227.76345
 226.05671 224.53897 223.17923 221.96149 220.85374 219.82400 218.93826 218.08952
 217.34178 216.53203 215.64029 215.01455 214.47481 214.85297 215.74641 217.32349
 219.55928 221.45091 222.51558 222.42509 222.14755 222.85599 224.71117 226.37370
 228.39786 231.38712 235.20959 239.64185 243.94968 247.82950 251.28783 254.56360
 257.77518 260.81873 263.70245 266.51443 269.13275 271.45593 273.45731 275.28729
 277.05392 278.74759 280.29160 281.65662 282.83942 283.88715 284.84567 285.72162
 286.52170 287.24286 287.86340 288.65698
 366.78100 356.34549 345.78797 334.66446 323.07795 311.28244 299.16292 286.97641
 274.69890 262.60639 250.62587 239.93736 230.06985 221.18433 213.37682 206.38931
 200.23380 195.18228 191.77477 189.82726 188.87475 188.94923 189.79472 191.11321
 192.84869 194.95418 197.22767 199.59716 202.05264 204.54313 206.64162 208.49411
 210.13059 211.28608 211.52557 211.76405 211.71154 211.42703 211.07052 210.71100
 210.33849 210.05898 209.87747 209.75195 209.69044 210.03193 210.42841 210.82790
 211.63139 212.81988 214.08036 215.87385 217.81234 219.86583 221.97131 224.06480
 226.13529 228.22977 230.33726 232.45375 234.59324 236.77572 239.04221 241.42270
 244.05418 246.31567 248.32816 250.10365 251.53113 252.66462 253.49711 253.82360
 253.87108 253.65557 253.02606 251.98454 250.60103 248.77252 246.69201 244.53549
 242.33698 240.15147 237.98196 235.83144 233.70193 231.57942 229.61590 227.78339
 226.07688 224.55937 223.19985 221.98234 220.87483 219.84532 218.95980 218.11129
 217.36378 216.55426 215.66275 215.03724 214.49773 214.89520 215.83429 217.24178
 219.43115 221.45091 222.57532 222.40581 221.98474 222.62993 224.45348 226.16705
 228.33470 231.41721 235.33603 239.78142 244.09984 248.00389 251.46387 254.70174
 257.85849 260.85046 263.68170 266.46445 269.05759 271.34909 273.32220 275.15652
 276.96085 278.71817 280.26440 281.62753 282.81042 283.85928 284.81894 285.69855
 286.49710 287.22632 287.86801 288.68576
 366.78100 356.34591 345.78882 334.66573 323.07964 311.28455 299.16546 286.97937
 274.70228 262.61019 250.63009 239.94200 230.07491 221.18982 213.38273 206.39564
 200.24055 195.18946 191.78237 189.83528 188.88319 188.95810 189.80401 191.12292
 192.85883 194.96474 197.23865 199.60856 202.06447 204.55537 206.65428 208.50719
 210.14410 211.30001 211.53992 211.77883 211.72674 211.44265 211.08656 210.72747
 210.35538 210.07629 209.89520 209.77011 209.70902 210.05093 210.44784 210.84775
 211.65165 212.84056 214.10147 215.89538 217.83429 219.88820 221.99411 224.08802
 226.15893 228.25384 230.36175 232.47866 234.61857 236.80148 239.06839 241.44930
 244.08121 246.34312 248.35603 250.13193 251.55984 252.69375 253.52666 253.85357
 253.90148 253.68639 253.05730 252.01621 250.63312 248.80503 246.72494 244.56885
 242.37076 240.18567 238.01658 235.86649 233.73740 231.61531 229.65221 227.82012
 226.11403 224.59694 223.23785 222.02076 220.91367 219.88458 218.99949 218.15140
 217.40431 216.59522 215.70413 215.07904 214.53995 214.93912 215.88219 217.28401
 219.23715 221.29343 222.59480 222.50330 222.00343 222.52875 224.28423 226.00496
 228.23268 231.41312 235.42117 239.86340 244.18291 248.11775 251.59969 254.82948
 257.95435 260.92325 263.73364 266.48184 269.04089 271.29492 273.25824 275.10965
 276.93344 278.64026 280.15900 281.51346 282.69162 283.73734 284.69431 285.57703
 286.38412 287.11960 287.76318 288.58331
 366.78100 356.34786 345.79271 334.67157 323.08742 311.29428 299.17714 286.99299
 274.71785 262.62771 250.64956 239.96342 230.09827 221.21513 213.40999 206.42484
 200.27170 195.22256 191.81741 189.87227 188.92212 188.99898 189.84684 191.16769
 192.90555 195.01340 197.28926 199.66112 202.11897 204.61183 206.71269 208.56754
 210.20640 211.36425 211.60611 211.84697 211.79682 211.51468 211.16054 210.80339
 210.43325 210.15610 209.97696 209.85382 209.79467 210.13853 210.53738 210.93924
 211.74510 212.93595 214.19881 215.99467 217.93552 219.99138 222.09923 224.19509
 226.26795 228.36480 230.47466 232.59352 234.73537 236.92023 239.18908 241.57194
 244.20580 246.46965 248.48451 250.26236 251.69222 252.82808 253.66293 253.99179
 254.04165 253.82850 253.20136 252.16221 250.78107 248.95493 246.87678 244.72264
 242.52650 240.34335 238.17621 236.02806 233.90092 231.78078 229.81963 227.98949
 226.28534 224.77020 223.41306 222.19791 221.09277 220.06563 219.18248 218.33634
 217.59119 216.78405 215.89491 215.27176 214.73462 215.06885 215.85851 217.26393
 219.27808 221.33946 222.55400 222.42160 221.92355 222.41736 224.13092 225.81427
 228.13603 231.46187 235.52306 239.94759 244.25870 248.19034 251.68530 254.92551
 258.04419 261.00220 263.78497 266.52625 269.09763 271.35629 273.26086 275.04550
 276.85223 278.53400 280.03543 281.37622 282.55444 283.60556 284.57428 285.45688
 286.24756 286.94717 287.57281 288.37973
 366.78100 356.34758 345.79216 334.67074 323.08633 311.29291 299.17549 286.99107
 274.71565 262.62523 250.64682 239.96040 230.09498 221.21156 213.40614 206.42072
 200.26730 195.21789 191.81247 189.86705 188.91663 188.99321 189.84079 191.16138
 192.89896 195.00654 197.28212 199.65370 202.11128 204.60386 206.70445 208.55903
 210.19761 211.35519 211.59677 211.83735 211.78694 211.50452 211.15010 210.79268
 210.42226 210.14484 209.96542 209.84201 209.78259 210.12617 210.52475 210.92633
 211.73191 212.92250 214.18508 215.98066 217.92124 219.97682 222.08440 224.17998
 226.25257 228.34915 230.45873 232.57731 234.71889 236.90347 239.17206 241.55464
 244.18822 246.45180 248.46638 250.24396 251.67354 252.80913 253.64371 253.97229
 254.02187 253.80845 253.18103 252.14161 250.76020 248.93378 246.85536 244.70094
 242.50452 240.32110 238.15369 236.00527 233.87785 231.75743 229.79601 227.96559
 226.26117 224.74576 223.38834 222.17292 221.06750 220.04008 219.15666 218.31025
 217.56483 216.75741 215.86799 215.24457 214.70715 215.09357 216.01141 217.13451
 219.12250 221.23526 222.48466 222.29224 221.69810 222.18422 223.88075 225.75020
 228.00943 231.40863 235.57613 240.00810 244.33902 248.32506 251.86710 255.10606
 258.18121 261.10904 263.89731 266.59100 269.12665 271.39682 273.36960 275.15182
 276.84525 278.43704 279.86646 281.13699 282.28555 283.33862 284.32376 285.23639
 286.06937 286.81116 287.45914 288.28494
 366.78100 356.34387 345.78474 334.65960 323.07147 311.27434 299.15321 286.96508
 274.68595 262.59181 250.60968 239.91955 230.05042 221.16329 213.35415 206.36502
 200.20789 195.15476 191.74563 189.79649 188.84236 188.91523 189.75910 191.07597
 192.80984 194.91370 197.18557 199.55344 202.00731 204.49618 206.59304 208.44391
 210.07878 211.23265 211.47052 211.70739 211.65325 211.36712 211.00899 210.64786
 210.27373 209.99259 209.80946 209.68233 209.61920 209.95907 210.35394 210.75180
 211.55367 212.74054 213.99941 215.79128 217.72814 219.78001 221.88388 223.97575
 226.04462 228.13748 230.24335 232.35822 234.49609 236.67696 238.94183 241.32069
 243.95056 246.21043 248.22130 249.99517 251.42103 252.55290 253.38377 253.70864
 253.75451 253.53738 252.90624 251.86311 250.47798 248.64785 246.56572 244.40758
 242.20745 240.02032 237.84919 235.69706 233.56592 231.44179 229.47666 227.64253
 225.93440 224.41527 223.05413 221.83500 220.72587 219.69474 218.80761 217.95747
 217.20834 216.39721 215.50408 214.87695 214.33582 214.93205 216.32010 217.21759
 218.80042 220.90338 222.40460 222.48428 222.01335 222.26787 223.73424 225.77798
 228.05574 231.50928 235.64781 240.02861 244.33833 248.38933 252.10237 255.44679
 258.51392 261.38239 264.12125 266.73145 269.16199 271.33197 273.25717 275.02451
 276.71838 278.22198 279.52158 280.86203 282.11578 283.23636 284.25873 285.18491
 286.01791 286.75970 287.40771 288.23355
 366.78100 356.34184 345.78068 334.65352 323.06336 311.26420 299.14104 286.95088
 274.66971 262.57355 250.58939 239.89723 230.02607 221.13691 213.32575 206.33459
 200.17543 195.12027 191.70911 189.75795 188.80179 188.87263 189.71447 191.02930
 192.76114 194.86298 197.13282 199.49866 201.95050 204.43734 206.53218 208.38102
 210.01386 211.16570 211.40154 211.63638 211.58022 211.29206 210.93190 210.56873
 210.19257 209.90941 209.72425 209.59509 209.52993 209.86777 210.26061 210.65645
 211.45629 212.64113 213.89797 215.68781 217.62265 219.67249 221.77432 223.86416
 225.93100 228.02184 230.12568 232.23852 234.37436 236.55320 238.81604 241.19288
 243.82072 246.07856 248.08740 249.85924 251.28308 252.41291 253.24175 253.56459
 253.60843 253.38927 252.75611 251.71095 250.32379 248.49163 246.40747 244.24731
 242.04515 239.85599 237.68283 235.52867 233.39551 231.26934 229.30218 227.46602
 225.75586 224.23470 222.87154 221.65038 220.53922 219.50606 218.61690 217.76474
 217.01358 216.20042 215.30526 214.67610 214.13293 214.83778 216.46057 217.31367
 218.52525 220.72894 222.45413 222.63194 222.11009 222.26869 223.71965 225.62013
 227.96014 231.51666 235.70619 240.07065 244.39893 248.50652 252.26329 255.65384
 258.67291 261.49469 264.15915 266.72330 269.13666 271.29547 273.15033 274.94855
 276.58615 278.01447 279.53000 280.96609 282.23907 283.36533 284.39285 285.32373
 286.16095 286.90649 287.55780 288.38782
 366.78100 356.34263 345.78227 334.65590 323.06654 311.26817 299.14581 286.95644
 274.67607 262.58071 250.59734 239.90598 230.03561 221.14725 213.33688 206.34651
 200.18815 195.13378 191.72342 189.77305 188.81769 188.88932 189.73196 191.04759
 192.78022 194.88286 197.15349 199.52013 201.97276 204.46040 206.55603 208.40566
 210.03930 211.19193 211.42857 211.66420 211.60884 211.32147 210.96210 210.59974
 210.22437 209.94201 209.75764 209.62928 209.56491 209.90354 210.29718 210.69381
 211.49445 212.68008 213.93772 215.72835 217.66399 219.71462 221.81725 223.90789
 225.97552 228.06716 230.17179 232.28543 234.42206 236.60169 238.86533 241.24296
 243.87160 246.13023 248.13987 249.91250 251.33713 252.46777 253.29740 253.62104
 253.66567 253.44731 252.81494 251.77057 250.38421 248.55284 246.46948 244.31011
 242.10875 239.92038 237.74801 235.59465 233.46228 231.33692 229.37055 227.53519
 225.82582 224.30546 222.94309 221.72272 220.61236 219.57999 218.69163 217.84026
 217.08990 216.27753 215.38316 214.75480 214.21243 214.88541 216.45793 217.35406
 218.37944 220.56528 222.22600 222.41934 221.96117 222.16985 223.67157 225.55444
 227.97659 231.57343 235.77158 240.09824 244.39839 248.52292 252.30183 255.68889
 258.70380 261.52277 264.18546 266.71960 269.12952 271.31903 273.25766 274.99533
 276.64850 278.03503 279.23883 280.56943 281.77945 282.89566 283.91760 284.84341
 285.67609 286.41757 287.06534 287.89084
 366.78100 356.34341 345.78381 334.65822 323.06963 311.27204 299.15044 286.96185
 274.68226 262.58767 250.60507 239.91448 230.04489 221.15730 213.34770 206.35811
 200.20052 195.14692 191.73733 189.78774 188.83315 188.90555 189.74896 191.06537
 192.79878 194.90218 197.17359 199.54100 201.99441 204.48281 206.57922 208.42963
 210.06403 211.21744 211.45485 211.69126 211.63666 211.35007 210.99148 210.62989
 210.25529 209.97370 209.79011 209.66252 209.59892 209.93833 210.33274 210.73014
 211.53155 212.71796 213.97637 215.76777 217.70418 219.75559 221.85900 223.95040
 226.01881 228.11122 230.21663 232.33103 234.46844 236.64885 238.91326 241.29166
 243.92107 246.18048 248.19088 249.96429 251.38970 252.52111 253.35151 253.67592
 253.72133 253.50374 252.87214 251.82855 250.44296 248.61237 246.52977 244.37118
 242.17059 239.98299 237.81140 235.65881 233.52722 231.40262 229.43703 227.60244
 225.89385 224.37425 223.01266 221.79307 220.68348 219.65188 218.76429 217.91370
 217.16410 216.35251 215.45892 214.83133 214.28973 214.94649 216.48096 217.36450
 218.34247 220.47527 222.20978 222.38652 221.87590 222.07571 223.63069 225.50890
 227.90392 231.58699 235.82079 240.11047 244.38095 248.53358 252.35472 255.78700
 258.76111 261.52432 264.17728 266.67831 269.07361 271.28848 273.27811 274.98657
 276.59937 278.01642 279.21988 280.41711 281.61182 282.70447 283.70135 284.60446
 285.41669 286.14001 286.77188 287.57712
 366.78100 356.34387 345.78474 334.65961 323.07148 311.27435 299.15322 286.96510
 274.68597 262.59184 250.60971 239.91958 230.05045 221.16332 213.35419 206.36506
 200.20793 195.15480 191.74567 189.79654 188.84241 188.91529 189.75916 191.07603
 192.80990 194.91377 197.18564 199.55351 202.00738 204.49625 206.59312 208.44399
 210.07886 211.23273 211.47061 211.70748 211.65335 211.36722 211.00909 210.64796
 210.27383 209.99270 209.80957 209.68244 209.61931 209.95918 210.35405 210.75193
 211.55380 212.74067 213.99954 215.79141 217.72828 219.78015 221.88402 223.97589
 226.04476 228.13763 230.24350 232.35837 234.49624 236.67712 238.94199 241.32086
 243.95073 246.21060 248.22147 249.99534 251.42121 252.55308 253.38395 253.70882
 253.75469 253.53756 252.90644 251.86331 250.47818 248.64805 246.56592 244.40779
 242.20766 240.02053 237.84940 235.69727 233.56614 231.44201 229.47688 227.64276
 225.93463 224.41550 223.05437 221.83524 220.72611 219.69498 218.80785 217.95772
 217.20859 216.39746 215.50433 214.87720 214.33607 214.99571 216.52298 217.39333
 218.38542 220.36542 222.13448 222.40114 221.92836 222.09784 223.62914 225.50896
 227.98697 231.67767 235.89661 240.16519 244.43660 248.59926 252.44029 255.89470
 258.90488 261.66846 264.28110 266.76074 269.10550 271.28992 273.22330 274.95813
 276.53055 277.87695 279.36514 280.82669 282.09155 283.21063 284.23160 285.15656
 285.98843 286.72922 287.37637 288.20108
 366.78100 356.34538 345.78776 334.66413 323.07751 311.28189 299.16227 286.97565
 274.69802 262.60540 250.62478 239.93616 230.06854 221.18291 213.37529 206.38767
 200.23205 195.18043 191.77280 189.82518 188.87256 188.94694 189.79232 191.11069
 192.84607 194.95145 197.22483 199.59421 202.04958 204.53996 206.63834 208.49072
 210.12710 211.28247 211.52185 211.76023 211.70761 211.42299 211.06636 210.70674
 210.33412 210.05450 209.87288 209.74725 209.68563 210.02701 210.42339 210.82277
 211.62614 212.81452 214.07490 215.86828 217.80666 219.86003 221.96541 224.05879
 226.12917 228.22355 230.33092 232.44730 234.58668 236.76906 239.03544 241.41581
 244.04719 246.30857 248.32095 250.09633 251.52370 252.65708 253.48946 253.81584
 253.86322 253.64759 253.01797 251.97635 250.59273 248.76411 246.68348 244.52686
 242.32824 240.14262 237.97300 235.82237 233.69275 231.57013 229.60651 227.77389
 226.06727 224.54964 223.19002 221.97240 220.86478 219.83516 218.94953 218.10091
 217.35329 216.54367 215.65205 215.02642 214.48680 215.08667 216.49518 217.44974
 218.42741 220.18858 221.93228 222.26224 221.81697 222.00046 223.69055 225.45233
 227.97487 231.74359 236.01617 240.30513 244.57310 248.73108 252.55205 256.02252
 259.07620 261.84219 264.44562 266.89813 269.21518 271.38989 273.29831 275.00449
 276.53799 278.20114 279.89246 281.37756 282.66278 283.79990 284.83731 285.77716
 286.62244 287.37518 288.03275 288.87076
 366.78100 356.34577 345.78855 334.66532 323.07909 311.28386 299.16464 286.97841
 274.70118 262.60895 250.62873 239.94050 230.07327 221.18805 213.38082 206.39359
 200.23836 195.18714 191.77991 189.83268 188.88046 188.95523 189.80100 191.11977
 192.85555 194.96132 197.23509 199.60486 202.06064 204.55141 206.65018 208.50296
 210.13973 211.29550 211.53527 211.77405 211.72182 211.43759 211.08136 210.72214
 210.34991 210.07068 209.88946 209.76423 209.70300 210.04477 210.44155 210.84132
 211.64509 212.83387 214.09464 215.88841 217.82718 219.88096 221.98673 224.08050
 226.15127 228.24605 230.35382 232.47059 234.61037 236.79314 239.05991 241.44068
 244.07246 246.33423 248.34700 250.12277 251.55055 252.68432 253.51709 253.84387
 253.89164 253.67641 253.04718 252.00596 250.62273 248.79450 246.71427 244.55805
 242.35982 240.17459 238.00537 235.85514 233.72591 231.60368 229.64046 227.80823
 226.10200 224.58478 223.22555 222.00832 220.90109 219.87187 218.98664 218.13841
 217.39118 216.58196 215.69073 215.06550 214.52628 215.12131 216.50926 217.44592
 218.47345 220.11708 221.79761 222.10353 221.63466 221.82205 223.60014 225.46693
 228.00958 231.83286 236.13284 240.42694 244.70015 248.84886 252.61928 256.05112
 259.24350 261.97971 264.55447 266.96210 269.25455 271.42487 273.31396 275.05051
 276.61911 278.45566 280.18295 281.69965 283.01221 284.17349 285.23300 286.19284
 287.05609 287.82483 288.49640 289.35220
 366.78100 356.34487 345.78674 334.66261 323.07548 311.27935 299.15922 286.97208
 274.69395 262.60082 250.61969 239.93056 230.06243 221.17630 213.36817 206.38004
 200.22391 195.17178 191.76365 189.81552 188.86239 188.93625 189.78112 191.09899
 192.83386 194.93873 197.21160 199.58047 202.03534 204.52521 206.62308 208.47495
 210.11082 211.26569 211.50456 211.74242 211.68929 211.40416 211.04703 210.68690
 210.31377 210.03364 209.85151 209.72538 209.66325 210.00412 210.39999 210.79886
 211.60173 212.78959 214.04946 215.84233 217.78020 219.83307 221.93794 224.03081
 226.10068 228.19455 230.30142 232.41729 234.55616 236.73803 239.00390 241.38376
 244.01463 246.27550 248.28737 250.06224 251.48911 252.62198 253.45385 253.77972
 253.82659 253.61046 252.98033 251.93820 250.55407 248.72493 246.64380 244.48667
 242.28754 240.10141 237.93128 235.78015 233.65002 231.52689 229.56276 227.72963
 226.02250 224.50437 223.14424 221.92610 220.81797 219.78784 218.90171 218.05258
 217.30445 216.49432 215.60219 214.97606 214.43593 215.09406 216.58160 217.40620
 218.44058 220.11057 221.80388 222.03644 221.42932 221.57268 223.49203 225.48404
 228.10742 231.92844 236.23691 240.54291 244.83708 248.99113 252.77556 256.19128
 259.29892 262.04611 264.56927 266.93750 269.20139 271.35849 273.26102 274.94278
 276.94824 279.01840 280.84467 282.44827 283.83606 285.06390 286.18408 287.19894
 288.11166 288.92444 289.63449 290.53934
 366.78100 356.34567 345.78833 334.66500 323.07867 311.28334 299.16400 286.97767
 274.70034 262.60801 250.62767 239.93934 230.07201 221.18668 213.37934 206.39201
 200.23668 195.18535 191.77801 189.83068 188.87835 188.95302 189.79868 191.11735
 192.85302 194.95869 197.23235 199.60202 202.05769 204.54836 206.64702 208.49969
 210.13636 211.29203 211.53169 211.77036 211.71803 211.43370 211.07736 210.71803
 210.34570 210.06637 209.88503 209.75970 209.69837 210.04004 210.43670 210.83637
 211.64004 212.82871 214.08937 215.88304 217.82171 219.87538 221.98104 224.07471
 226.14538 228.24005 230.34771 232.46438 234.60405 236.78672 239.05338 241.43405
 244.06572 246.32739 248.34005 250.11572 251.54339 252.67706 253.50972 253.83639
 253.88406 253.66873 253.03939 251.99806 250.61473 248.78640 246.70606 244.54973
 242.35140 240.16607 237.99673 235.84640 233.71707 231.59474 229.63140 227.79907
 226.09274 224.57540 223.21607 221.99874 220.89141 219.86207 218.97674 218.12841
 217.38108 216.57174 215.68041 215.05508 214.51575 215.14212 216.57257 217.43498
 218.39763 220.00261 221.70332 221.94304 221.24187 221.35425 223.42229 225.51070
 228.20564 232.02652 236.33649 240.65254 244.96631 249.13666 252.95332 256.38974
 259.47769 262.23022 264.71832 267.04214 269.26611 271.38211 273.26666 275.19278
 277.44940 279.53967 281.34845 282.93671 284.31119 285.52728 286.63675 287.64188
 288.54587 289.35086 290.05411 290.95032
 366.78100 356.34741 345.79182 334.67022 323.08563 311.29204 299.17445 286.98986
 274.71426 262.62367 250.64508 239.95849 230.09289 221.20930 213.40371 206.41812
 200.26453 195.21493 191.80934 189.86375 188.91316 188.98957 189.83697 191.15738
 192.89479 195.00220 197.27761 199.64901 202.10642 204.59883 206.69924 208.55364
 210.19205 211.34946 211.59087 211.83128 211.78068 211.49809 211.14350 210.78591
 210.41532 210.13772 209.95813 209.83454 209.77495 210.11835 210.51676 210.91817
 211.72358 212.91399 214.17639 215.97180 217.91221 219.96762 222.07503 224.17043
 226.24284 228.33925 230.44866 232.56707 234.70847 236.89288 239.16129 241.54370
 244.17710 246.44051 248.45492 250.23233 251.66174 252.79714 253.63155 253.95996
 254.00937 253.79578 253.16818 252.12859 250.74700 248.92041 246.84182 244.68722
 242.49063 240.30704 238.13945 235.99085 233.86326 231.74267 229.78108 227.95049
 226.24589 224.73030 223.37271 222.15712 221.05153 220.02393 219.14034 218.29375
 217.54816 216.74057 215.85097 215.22738 214.68979 215.22913 216.51633 217.48865
 218.40593 219.88828 221.48460 221.76711 221.10681 221.23526 223.31653 225.48485
 228.23450 232.09558 236.42920 240.74980 245.07249 249.25795 253.10805 256.58286
 259.69055 262.46118 264.93216 267.22092 269.40363 271.50134 273.35675 275.45239
 277.75259 279.82837 281.62460 283.20184 284.56680 285.77441 286.87622 287.87436
 288.77206 289.57147 290.26984 291.15982
 366.78100 356.34799 345.79298 334.67197 323.08796 311.29496 299.17795 286.99394
 274.71893 262.62892 250.65091 239.96490 230.09989 221.21688 213.41188 206.42687
 200.27386 195.22485 191.81984 189.87483 188.92482 189.00181 189.84980 191.17079
 192.90879 195.01678 197.29277 199.66476 202.12275 204.61574 206.71673 208.57172
 210.21071 211.36871 211.61070 211.85169 211.80168 211.51967 211.16566 210.80865
 210.43864 210.16163 209.98263 209.85962 209.80061 210.14460 210.54359 210.94558
 211.75157 212.94256 214.20555 216.00155 217.94254 219.99853 222.10652 224.20251
 226.27550 228.37249 230.48248 232.60147 234.74346 236.92846 239.19745 241.58044
 244.21443 246.47842 248.49341 250.27140 251.70139 252.83738 253.67238 254.00137
 254.05136 253.83835 253.21134 252.17233 250.79132 248.96531 246.88730 244.73330
 242.53729 240.35428 238.18727 236.03926 233.91225 231.79224 229.83123 228.00122
 226.29721 224.78221 223.42520 222.21019 221.10518 220.07817 219.19516 218.34915
 217.60414 216.79713 215.90813 215.28512 214.74811 215.26227 216.49727 217.49756
 218.44556 219.82936 221.29041 221.58423 220.98232 221.13474 223.14557 225.41385
 228.23578 232.15707 236.52217 240.84918 245.17715 249.38210 253.25749 256.75049
 259.86060 262.62717 265.09537 267.36966 269.53827 271.63348 273.45532 275.60605
 277.91257 279.99335 281.79391 283.37497 284.74323 285.95377 287.05820 288.05875
 288.95865 289.75998 290.46002 291.35214
 366.78100 356.34798 345.79297 334.67195 323.08793 311.29491 299.17790 286.99388
 274.71886 262.62884 250.65083 239.96481 230.09979 221.21677 213.41176 206.42674
 200.27372 195.22470 191.81969 189.87467 188.92465 189.00163 189.84962 191.17060
 192.90858 195.01656 197.29255 199.66453 202.12251 204.61549 206.71648 208.57146
 210.21044 211.36842 211.61041 211.85139 211.80137 211.51935 211.16534 210.80832
 210.43830 210.16128 209.98227 209.85925 209.80023 210.14421 210.54320 210.94518
 211.75116 212.94214 214.20513 216.00111 217.94209 219.99807 222.10606 224.20204
 226.27502 228.37200 230.48199 232.60097 234.74295 236.92793 239.19692 241.57990
 244.21388 246.47786 248.49285 250.27083 251.70081 252.83679 253.67178 254.00076
 254.05074 253.83772 253.21071 252.17169 250.79067 248.96466 246.88664 244.73262
 242.53660 240.35359 238.18657 236.03855 233.91153 231.79152 229.83050 228.00048
 226.29646 224.78145 223.42443 222.20941 221.10439 220.07738 219.19436 218.34834
 217.60332 216.79631 215.90729 215.28427 214.74725 215.26611 216.49014 217.47629
 218.51404 219.80399 221.09279 221.32617 220.83940 221.07394 222.94632 225.35054
 228.25446 232.24504 236.64943 240.98608 245.31235 249.52014 253.40291 256.89465
 259.99448 262.75946 265.24670 267.52023 269.67285 271.74008 273.57446 275.80829
 278.05704 280.11520 281.89621 283.46005 284.81345 286.01083 287.10327 288.09296
 288.98306 289.77570 290.46814 291.35056
 366.78100 356.34725 345.79149 334.66974 323.08498 311.29123 299.17347 286.98872
 274.71296 262.62221 250.64345 239.95670 230.09094 221.20719 213.40143 206.41568
 200.26192 195.21217 191.80641 189.86066 188.90990 188.98615 189.83339 191.15364
 192.89088 194.99813 197.27337 199.64462 202.10186 204.59411 206.69435 208.54860
 210.18684 211.34409 211.58533 211.82558 211.77482 211.49207 211.13731 210.77956
 210.40880 210.13105 209.95129 209.82754 209.76778 210.11103 210.50927 210.91052
 211.71576 212.90601 214.16825 215.96350 217.90374 219.95899 222.06623 224.16148
 226.23372 228.32997 230.43921 232.55746 234.69870 236.88295 239.15119 241.53344
 244.16668 246.42993 248.44418 250.22142 251.65067 252.78591 253.62016 253.94840
 253.99765 253.78389 253.15614 252.11638 250.73463 248.90787 246.82912 244.67436
 242.47761 240.29385 238.12610 235.97734 233.84959 231.72883 229.76708 227.93632
 226.23157 224.71581 223.35806 222.14230 221.03655 220.00879 219.12504 218.27828
 217.53253 216.72477 215.83502 215.21126 214.67351 215.22850 216.50769 217.41849
 218.56564 219.87212 220.92409 220.96609 220.60258 221.03546 222.62819 225.28918
 228.27005 232.34122 236.79771 241.14619 245.45515 249.65988 253.56407 257.06470
 260.15384 262.92566 265.45844 267.75037 269.86728 271.87436 273.73596 275.65323
 277.51749 279.46796 281.18430 282.69135 283.99557 285.14951 286.20227 287.15601
 288.01379 288.77765 289.44495 290.29532
 366.78100 356.34604 345.78908 334.66612 323.08016 311.28520 299.16624 286.98028
 274.70332 262.61136 250.63141 239.94345 230.07649 221.19153 213.38457 206.39761
 200.24265 195.19169 191.78473 189.83777 188.88581 188.96085 189.80689 191.12593
 192.86197 194.96801 197.24205 199.61209 202.06814 204.55918 206.65822 208.51126
 210.14830 211.30434 211.54438 211.78342 211.73146 211.44750 211.09154 210.73258
 210.36062 210.08166 209.90070 209.77574 209.71478 210.05682 210.45387 210.85391
 211.65795 212.84699 214.10803 215.90207 217.84111 219.89515 222.00119 224.09523
 226.16627 228.26131 230.36935 232.48639 234.62643 236.80947 239.07651 241.45755
 244.08960 246.35164 248.36468 250.14072 251.56876 252.70280 253.53584 253.86288
 253.91092 253.69596 253.06700 252.02604 250.64308 248.81512 246.73516 244.57920
 242.38124 240.19628 238.02732 235.87737 233.74841 231.62645 229.66349 227.83153
 226.12557 224.60861 223.24965 222.03269 220.92573 219.89677 219.01181 218.16385
 217.41689 216.60793 215.71697 215.09201 214.55305 215.16270 216.55168 217.36378
 218.51167 219.94128 220.90106 220.75122 220.35207 220.87080 222.37822 225.15556
 228.22058 232.40939 236.91273 241.25780 245.55791 249.76654 253.68353 257.20294
 260.28714 263.03531 265.59048 267.94394 270.10556 272.13791 274.03064 275.71228
 276.96317 278.47351 280.20642 281.72803 283.04483 284.20987 285.27280 286.23575
 287.10181 287.87305 288.54678 289.40536
 366.78100 356.34619 345.78938 334.66657 323.08076 311.28595 299.16714 286.98132
 274.70451 262.61270 250.63289 239.94508 230.07827 221.19346 213.38665 206.39984
 200.24503 195.19422 191.78741 189.84059 188.88878 188.96397 189.81016 191.12935
 192.86554 194.97173 197.24592 199.61611 202.07230 204.56349 206.66268 208.51586
 210.15305 211.30924 211.54943 211.78862 211.73681 211.45300 211.09719 210.73838
 210.36657 210.08776 209.90695 209.78213 209.72132 210.06351 210.46070 210.86089
 211.66508 212.85427 214.11546 215.90965 217.84884 219.90303 222.00922 224.10340
 226.17459 228.26978 230.37797 232.49516 234.63535 236.81854 239.08573 241.46692
 244.09911 246.36130 248.37449 250.15067 251.57886 252.71305 253.54624 253.87343
 253.92162 253.70681 253.07800 252.03719 250.65438 248.82657 246.74676 244.59094
 242.39313 240.20832 238.03951 235.88970 233.76089 231.63908 229.67627 227.84446
 226.13865 224.62184 223.26303 222.04621 220.93940 219.91059 219.02578 218.17797
 217.43116 216.62235 215.73154 215.10673 214.56792 215.15735 216.52673 217.38470
 218.42696 219.87370 220.82002 220.61063 220.16928 220.72327 222.34227 225.13020
 228.33339 232.50833 237.00542 241.34854 245.64908 249.84663 253.73949 257.23254
 260.28561 263.02151 265.58206 267.97598 270.21240 272.31915 274.29361 276.06445
 277.55508 278.35178 279.56030 280.95740 282.16641 283.23611 284.21204 285.09616
 285.89136 286.59946 287.21805 288.00635
 366.78100 356.34679 345.79057 334.66836 323.08314 311.28893 299.17071 286.98550
 274.70928 262.61807 250.63885 239.95164 230.08542 221.20121 213.39499 206.40878
 200.25456 195.20435 191.79813 189.85192 188.90070 188.97649 189.82327 191.14306
 192.87984 194.98663 197.26141 199.63220 202.08898 204.58077 206.68056 208.53434
 210.17213 211.32891 211.56970 211.80948 211.75827 211.47505 211.11984 210.76162
 210.39041 210.11219 209.93198 209.80776 209.74755 210.09033 210.48812 210.88890
 211.69369 212.88347 214.14526 215.94004 217.87983 219.93461 222.04140 224.13618
 226.20797 228.30376 230.41254 232.53033 234.67111 236.85490 239.12268 241.50447
 244.13725 246.40004 248.41382 250.19061 251.61939 252.75418 253.58796 253.91575
 253.96453 253.75032 253.12210 252.08189 250.69967 248.87246 246.79324 244.63803
 242.44081 240.25660 238.08838 235.93917 233.81095 231.68974 229.72753 227.89631
 226.19110 224.67488 223.31667 222.10045 220.99424 219.96602 219.08181 218.23459
 217.48838 216.68016 215.78995 215.16573 214.62752 215.17508 216.46880 217.42264
 218.41757 219.75291 220.66403 220.39461 219.91928 220.50752 222.37430 225.12851
 228.46481 232.60966 237.10316 241.47984 245.78490 249.96906 253.85616 257.32642
 260.34772 263.05142 265.58475 267.96774 270.21429 272.35532 274.35748 276.16049
 277.69080 278.66602 279.30685 280.50934 281.85031 283.04117 284.12766 285.11191
 285.99716 286.78549 287.47412 288.35175
 366.78100 356.34624 345.78948 334.66672 323.08096 311.28619 299.16743 286.98167
 274.70491 262.61315 250.63339 239.94563 230.07887 221.19411 213.38734 206.40058
 200.24582 195.19506 191.78830 189.84154 188.88978 188.96502 189.81126 191.13049
 192.86673 194.97297 197.24721 199.61745 202.07369 204.56493 206.66417 208.51741
 210.15465 211.31088 211.55112 211.79036 211.73860 211.45484 211.09908 210.74032
 210.36856 210.08980 209.90903 209.78427 209.72351 210.06575 210.46299 210.86323
 211.66747 212.85671 214.11795 215.91218 217.85142 219.90566 222.01190 224.10614
 226.17738 228.27262 230.38086 232.49810 234.63833 236.82157 239.08881 241.47005
 244.10229 246.36453 248.37777 250.15401 251.58225 252.71648 253.54972 253.87696
 253.92520 253.71044 253.08168 252.04092 250.65816 248.83040 246.75064 244.59487
 242.39711 240.21235 238.04359 235.89383 233.76507 231.64331 229.68055 227.84879
 226.14302 224.62626 223.26750 222.05074 220.94398 219.91522 219.03046 218.18270
 217.43594 216.62717 215.73641 215.11165 214.57289 215.15108 216.50031 217.38162
 218.47345 219.80769 220.74532 220.34253 219.62399 220.18645 222.12292 225.02249
 228.43463 232.66769 237.18669 241.58925 245.93962 250.14357 254.02388 257.48645
 260.50601 263.21045 265.71774 268.05334 270.26733 272.39331 274.39102 276.18207
 277.63937 278.54666 279.21573 280.49924 281.78973 282.93152 283.97321 284.91690
 285.76566 286.52145 287.18173 288.02316
 366.78100 356.34563 345.78827 334.66490 323.07854 311.28317 299.16381 286.97744
 274.70007 262.60771 250.62734 239.93898 230.07161 221.18625 213.37888 206.39152
 200.23615 195.18478 191.77742 189.83005 188.87769 188.95232 189.79796 191.11659
 192.85222 194.95786 197.23149 199.60113 202.05676 204.54740 206.64603 208.49867
 210.13530 211.29093 211.53057 211.76920 211.71684 211.43247 211.07611 210.71674
 210.34437 210.06501 209.88364 209.75828 209.69691 210.03855 210.43518 210.83481
 211.63845 212.82708 214.08772 215.88135 217.81999 219.87362 221.97926 224.07289
 226.14352 228.23816 230.34579 232.46243 234.60206 236.78470 239.05133 241.43196
 244.06360 246.32523 248.33787 250.11350 251.54114 252.67477 253.50741 253.83404
 253.88167 253.66631 253.03694 251.99558 250.61221 248.78385 246.70348 244.54711
 242.34875 240.16338 237.99402 235.84365 233.71429 231.59192 229.62855 227.79619
 226.08982 224.57246 223.21309 221.99573 220.88836 219.85900 218.97363 218.12526
 217.37790 216.56853 215.67717 215.05180 214.51244 215.12791 216.53790 217.34163
 218.48027 219.85594 220.89001 220.43523 219.47871 219.88853 221.73828 224.88258
 228.38242 232.72639 237.29576 241.71222 246.08255 250.27330 254.13103 257.57565
 260.61700 263.36606 265.90570 268.25488 270.46335 272.56659 274.55942 276.35626
 277.75525 278.49670 279.87628 281.38074 282.68271 283.83463 284.88556 285.83765
 286.69394 287.45648 288.12259 288.97150
 366.78100 356.34571 345.78843 334.66514 323.07885 311.28356 299.16428 286.97799
 274.70070 262.60841 250.62813 239.93984 230.07255 221.18726 213.37998 206.39269
 200.23740 195.18611 191.77883 189.83154 188.87925 188.95397 189.79968 191.11839
 192.85410 194.95982 197.23353 199.60324 202.05895 204.54967 206.64838 208.50109
 210.13780 211.29352 211.53323 211.77194 211.71965 211.43537 211.07908 210.71979
 210.34751 210.06822 209.88693 209.76164 209.70036 210.04207 210.43878 210.83849
 211.64221 212.83092 214.09163 215.88534 217.82406 219.87777 221.98348 224.07720
 226.14791 228.24262 230.35033 232.46705 234.60676 236.78947 239.05618 241.43690
 244.06861 246.33032 248.34303 250.11875 251.54646 252.68017 253.51288 253.83960
 253.88731 253.67202 253.04274 252.00145 250.61816 248.78987 246.70959 244.55330
 242.35501 240.16972 238.00044 235.85015 233.72086 231.59857 229.63529 227.80300
 226.09671 224.57942 223.22014 222.00285 220.89556 219.86628 218.98099 218.13270
 217.38541 216.57613 215.68484 215.05955 214.52026 215.12241 216.51997 217.34959
 218.43742 219.77364 220.68600 220.27783 219.35674 219.67674 221.67346 224.86891
 228.50613 232.85133 237.42517 241.86687 246.21739 250.38243 254.18484 257.57257
 260.61771 263.41647 266.01407 268.40445 270.63019 272.77145 274.78894 276.56625
 277.93900 278.86346 279.63257 280.84073 282.08112 283.17853 284.17975 285.08679
 285.90256 286.62903 287.26364 288.07239
 366.78100 356.34514 345.78728 334.66342 323.07656 311.28070 299.16084 286.97398
 274.69612 262.60326 250.62240 239.93354 230.06568 221.17982 213.37196 206.38410
 200.22824 195.17638 191.76852 189.82066 188.86780 188.94194 189.78708 191.10522
 192.84036 194.94550 197.21864 199.58778 202.04292 204.53306 206.63120 208.48334
 210.11948 211.27462 211.51376 211.75190 211.69904 211.41418 211.05732 210.69746
 210.32460 210.04474 209.86288 209.73702 209.67516 210.01630 210.41244 210.81158
 211.61472 212.80286 214.06300 215.85614 217.79428 219.84742 221.95256 224.04570
 226.11584 228.20998 230.31712 232.43326 234.57240 236.75454 239.02068 241.40082
 244.03196 246.29310 248.30524 250.08038 251.50752 252.64066 253.47280 253.79894
 253.84608 253.63022 253.00036 251.95850 250.57464 248.74578 246.66492 244.50806
 242.30920 240.12334 237.95348 235.80262 233.67276 231.54990 229.58604 227.75318
 226.04632 224.52846 223.16860 221.95074 220.84288 219.81302 218.92716 218.07830
 217.33044 216.52058 215.62872 215.00286 214.46300 215.07887 216.52306 217.38057
 218.33986 219.66803 220.49995 219.99495 219.03780 219.31502 221.58943 224.71904
 228.60458 232.94946 237.54662 242.01501 246.34741 250.49290 254.27551 257.63568
 260.65298 263.44421 266.05579 268.47418 270.73355 272.88745 274.90552 276.67838
 278.03934 278.98077 279.52835 279.85172 280.26721 281.19659 282.19101 283.09189
 283.90213 284.62363 285.25394 286.05719
 366.78100 356.34524 345.78747 334.66371 323.07694 311.28118 299.16141 286.97465
 274.69688 262.60412 250.62335 239.93459 230.06683 221.18106 213.37330 206.38553
 200.22977 195.17800 191.77024 189.82247 188.86971 188.94395 189.78918 191.10742
 192.84265 194.94789 197.22112 199.59036 202.04559 204.53583 206.63406 208.48630
 210.12254 211.27777 211.51701 211.75524 211.70248 211.41771 211.06095 210.70118
 210.32842 210.04866 209.86689 209.74113 209.67936 210.02060 210.41683 210.81607
 211.61930 212.80754 214.06777 215.86101 217.79925 219.85248 221.95772 224.05095
 226.12119 228.21542 230.32266 232.43889 234.57813 236.76037 239.02660 241.40684
 244.03807 246.29931 248.31154 250.08678 251.51401 252.64725 253.47948 253.80572
 253.85296 253.63719 253.00743 251.96566 250.58190 248.75313 246.67237 244.51560
 242.31684 240.13108 237.96131 235.81055 233.68078 231.55802 229.59425 227.76149
 226.05472 224.53696 223.17719 221.95943 220.85167 219.82190 218.93614 218.08737
 217.33961 216.52984 215.63808 215.01231 214.47255 215.07291 216.49054 217.48576
 218.26253 219.51732 220.46288 219.91837 218.82780 218.97653 221.34978 224.55922
 228.65417 233.03958 237.66231 242.14275 246.48534 250.63527 254.40750 257.75604
 260.76260 263.53790 266.13141 268.53812 270.79501 272.95834 274.99832 276.76868
 278.11676 279.00470 279.44913 279.62601 279.95203 280.67163 281.63538 282.53830
 283.35034 284.07349 284.70523 285.51028
 366.78100 356.34538 345.78776 334.66414 323.07752 311.28190 299.16228 286.97566
 274.69804 262.60542 250.62480 239.93618 230.06856 221.18294 213.37532 206.38770
 200.23208 195.18046 191.77284 189.82522 188.87260 188.94698 189.79236 191.11074
 192.84612 194.95150 197.22488 199.59426 202.04964 204.54002 206.63840 208.49078
 210.12716 211.28254 211.52192 211.76030 211.70768 211.42306 211.06644 210.70682
 210.33420 210.05458 209.87296 209.74734 209.68572 210.02710 210.42348 210.82286
 211.62624 212.81462 214.07500 215.86838 217.80676 219.86014 221.96552 224.05890
 226.12928 228.22366 230.33104 232.44742 234.58680 236.76918 239.03556 241.41594
 244.04732 246.30870 248.32108 250.09646 251.52384 252.65722 253.48960 253.81598
 253.86336 253.64774 253.01812 251.97650 250.59288 248.76426 246.68364 244.52702
 242.32840 240.14278 237.97316 235.82254 233.69292 231.57030 229.60668 227.77406
 226.06744 224.54982 223.19020 221.97258 220.86496 219.83534 218.94972 218.10110
 217.35348 216.54386 215.65224 215.02662 214.48700 215.07224 216.45650 217.56013
 218.33287 219.44832 220.36284 219.80698 218.69420 218.74115 221.16145 224.46269
 228.72868 233.15065 237.79327 242.27423 246.62347 250.76727 254.51663 257.84659
 260.85352 263.64014 266.23682 268.64450 270.90643 273.07431 275.13016 276.90967
 278.17847 278.93808 279.25464 279.33072 279.59592 280.32150 281.27011 282.16037
 282.96857 283.68829 284.31705 285.11829
 366.78100 356.34466 345.78633 334.66199 323.07465 311.27832 299.15798 286.97065
 274.69231 262.59897 250.61764 239.92830 230.05996 221.17363 213.36529 206.37696
 200.22062 195.16828 191.75995 189.81161 188.85827 188.93194 189.77660 191.09427
 192.82893 194.93359 197.20626 199.57492 202.02958 204.51925 206.61691 208.46858
 210.10424 211.25890 211.49757 211.73523 211.68189 211.39656 211.03922 210.67889
 210.30555 210.02521 209.84288 209.71654 209.65420 209.99487 210.39053 210.78920
 211.59186 212.77952 214.03919 215.83185 217.76951 219.82218 221.92684 224.01951
 226.08917 228.18283 230.28950 232.40516 234.54382 236.72549 238.99115 241.37082
 244.00148 246.26214 248.27381 250.04847 251.47513 252.60780 253.43946 253.76513
 253.81179 253.59545 252.96512 251.92278 250.53844 248.70911 246.62777 244.47044
 242.27110 240.08476 237.91443 235.76309 233.63275 231.50942 229.54508 227.71175
 226.00441 224.48607 223.12574 221.90740 220.79906 219.76873 218.88239 218.03306
 217.28472 216.47438 215.58205 214.95571 214.41537 215.03180 216.48814 217.54372
 218.45541 219.49747 220.19176 219.57716 218.52592 218.58290 220.99516 224.44530
 228.81314 233.27211 237.92694 242.40631 246.76929 250.90343 254.62465 257.93225
 260.94250 263.74411 266.34076 268.74304 271.00742 273.18762 275.23523 276.97253
 278.19379 278.87070 279.05490 279.07080 279.39587 280.09540 281.00812 281.86890
 282.64459 283.34705 283.96069 284.74274
 354.97500 345.04800 334.58700 324.11500 313.32600 302.53700 291.65000 280.76700
 269.93100 259.19300 248.62200 238.61700 229.08700 220.35500 212.54000 205.53500
 199.46400 194.49300 191.14300 189.19000 188.08900 188.01400 188.72400 189.90600
 191.46900 193.38200 195.40300 197.55600 199.80700 202.06000 204.28800 206.47900
 208.55200 210.37800 212.02500 213.65900 214.99800 216.11800 217.17200 218.25900
 219.49400 220.64500 221.67900 222.61400 223.54500 224.98200 226.57100 228.19000
 229.79700 231.81100 233.86500 235.97200 238.24200 240.55300 242.89900 245.25300
 247.48800 249.53500 251.36600 252.84800 254.09800 255.16700 256.02700 256.25300
 256.09500 255.54300 253.93500 252.56600 251.38400 250.24500 249.05200 247.70100
 246.01600 243.99600 241.78400 239.39300 236.81300 234.22300 231.65800 229.14400
 226.74000 224.47300 222.33500 220.32500 218.44000 216.67700 214.96200 213.47200
 212.20000 211.10800 210.26000 209.63900 209.24400 209.03100 209.05800 209.33300
 209.78400 210.62600 211.33100 212.39100 213.62500 214.84668 217.72949 219.47640
 220.32566 220.86828 220.88710 220.27371 219.43733 218.84250 219.04934 220.86203
 222.60583 225.72206 229.03064 232.61777 236.12270 239.51333 242.70767 245.68587
 248.41061 250.90679 253.19353 254.91714 256.48655 257.94920 259.39966 260.69384
 261.81714 262.77997 263.71679 264.54570 265.26305 265.89772 266.47676 267.00133
 267.47312 267.89325 268.26027 268.72800
