|-------------------------------------------------------------------------|
|   File Name : in_temp.dat
|   Subject   : temperature profiles used for initial guess atmosphere
|   File Type : input of gmtr
|   Data Type : atmospherical data
|   Author/s  : WRF-Chem
|   Date      : Fri Jul 26 15:39:24 2024
|-------------------------------------------------------------------------|

 WRF-Chem temperature
#
 values of T (K)    (8f10.5)
#
 354.97500 345.04800 334.58700 324.11500 313.32600 302.53700 291.65000 280.76700
 269.93100 259.19300 248.62200 238.61700 229.08700 220.35500 212.54000 205.53500
 199.46400 194.49300 191.14300 189.19000 188.08900 188.01400 188.72400 189.90600
 191.46900 193.38200 195.40300 197.55600 199.80700 202.06000 204.28800 206.47900
 208.55200 210.37800 212.02500 213.65900 214.99800 216.11800 217.17200 218.25900
 219.49400 220.64500 221.67900 222.61400 223.54500 224.98200 226.57100 228.19000
 229.79700 231.81100 233.86500 235.97200 238.24200 240.55300 242.89900 245.25300
 247.48800 249.53500 251.36600 252.84800 254.09800 255.16700 256.02700 256.25300
 256.09500 255.54300 253.93500 252.56600 251.38400 250.24500 249.05200 247.70100
 246.01600 243.99600 241.78400 239.39300 236.81300 234.22300 231.65800 229.14400
 226.74000 224.47300 222.33500 220.32500 218.44000 216.67700 214.96200 213.47200
 212.20000 211.10800 210.26000 209.63900 209.24400 209.03100 209.05800 209.33300
 209.78400 210.62600 211.33100 212.39100 213.62500 214.84668 217.72949 219.47640
 220.32566 220.86828 220.88710 220.27371 219.43733 218.84250 219.04934 220.86203
 222.60583 225.72206 229.03064 232.61777 236.12270 239.51333 242.70767 245.68587
 248.41061 250.90679 253.19353 254.91714 256.48655 257.94920 259.39966 260.69384
 261.81714 262.77997 263.71679 264.54570 265.26305 265.89772 266.47676 267.00133
 267.47312 267.89325 268.26027 268.72800
 366.78100 356.33500 345.76700 334.63300 323.03600 311.23000 299.10000 286.90300
 274.61500 262.51200 250.52100 239.82200 229.94400 221.04800 213.23000 206.23200
 200.06600 195.00400 191.58600 189.62800 188.66500 188.72900 189.56400 190.87200
 192.59700 194.69200 196.95500 199.31400 201.75900 204.23900 206.32700 208.16900
 209.79500 210.94000 211.16900 211.39700 211.33400 211.03900 210.67200 210.30200
 209.91900 209.62900 209.43700 209.30100 209.22900 209.56000 209.94600 210.33500
 211.12800 212.30600 213.55600 215.33900 217.26700 219.31000 221.40500 223.48800
 225.54800 227.63200 229.72900 231.83500 233.96400 236.13600 238.39200 240.76200
 243.38300 245.63400 247.63600 249.40100 250.81800 251.94100 252.76300 253.07900
 253.11600 252.89000 252.25000 251.19800 249.80400 247.96500 245.87400 243.70700
 241.49800 239.30200 237.12200 234.96100 232.82100 230.68800 228.71400 226.87100
 225.15400 223.62600 222.25600 221.02800 219.91000 218.87000 217.97400 217.11500
 216.35700 215.53700 214.63500 213.99900 213.44900 212.85855 212.01316 212.61654
 214.26826 216.08686 218.14273 220.53346 223.40855 226.78828 231.49734 235.90155
 239.42278 243.28576 247.23140 251.11907 254.80144 258.23331 261.38913 264.27520
 266.89312 269.26852 271.44504 273.08845 274.58484 275.98591 277.39845 278.65879
 279.75272 280.69038 281.56708 282.34086 283.01050 283.60295 284.14348 284.63317
 285.07358 285.46577 285.80838 286.24500
 381.81900 372.39900 361.20600 349.77600 337.62200 324.85300 311.81000 298.35300
 284.86000 271.32400 258.56100 246.30400 236.08700 226.79600 218.44800 211.29000
 205.52200 200.89400 197.38100 194.84800 193.01500 192.31500 192.25000 192.43100
 192.91200 193.53700 194.13600 194.71200 195.26200 195.83100 196.39300 196.97600
 197.60400 198.14900 198.58400 199.05700 199.69500 200.37800 201.05400 201.70800
 202.31300 202.85700 203.35500 203.86200 204.56900 205.29700 206.02600 206.98700
 208.19300 209.44100 210.96900 212.57600 214.46200 216.51300 218.63000 220.85300
 223.34100 225.96200 228.73900 231.69700 234.70600 237.70600 240.69200 243.65700
 246.73700 249.69900 252.52100 255.06300 257.29000 259.23300 260.63300 261.68000
 262.46100 262.79800 262.69100 262.22400 261.06900 259.52500 257.70700 255.50700
 253.00100 250.30200 247.39800 244.45200 241.65400 239.05400 236.73300 234.59000
 232.59500 230.72500 228.83400 226.82600 224.66600 222.38700 220.10400 217.71500
 215.45900 213.06600 210.54600 208.09300 205.35400 202.08130 196.05959 200.71215
 209.01611 216.90438 223.84126 229.78593 235.00632 240.20838 245.98943 250.68668
 254.32982 257.93487 261.55666 264.96801 268.15192 271.06452 273.76717 276.25691
 278.57680 280.74479 282.77456 284.60533 286.27232 287.81705 289.31715 290.65561
 291.81734 292.81312 293.70701 294.49387 295.17482 295.77730 296.32696 296.82492
 297.27278 297.67160 298.02000 298.46400
 399.33000 389.90700 379.81300 368.66800 357.52200 345.30100 333.07400 320.22700
 307.21600 293.84800 280.37600 267.29600 254.61000 242.98700 232.15100 221.97700
 212.67200 204.28600 197.66900 192.82100 189.48600 187.45200 186.81400 187.08900
 187.78100 189.05400 190.64800 192.54200 194.63000 196.75200 198.67100 200.15800
 201.53500 202.48700 202.97500 203.34000 203.53900 203.49700 203.38500 203.24700
 203.00500 202.78600 202.60300 202.43700 202.42600 202.88800 203.42000 203.95100
 204.89500 205.99200 207.30100 208.95800 210.73800 213.10000 215.56400 218.18000
 220.96600 223.91800 226.96100 230.09200 233.29300 236.55700 239.95500 243.53700
 246.84500 249.39000 251.54200 253.47400 255.19500 256.48400 257.43100 258.05900
 258.21200 258.04000 257.58200 256.64300 255.23900 253.50700 251.40800 249.05600
 246.57600 243.99400 241.38900 238.83000 236.34400 233.98600 231.96900 230.11800
 228.42300 226.89900 225.54800 224.29700 223.10500 221.96500 220.95800 220.11300
 219.49000 218.92000 218.32500 217.88100 217.42300 216.96366 216.35568 216.80261
 217.73415 218.28582 218.64258 219.10077 220.44626 222.53987 226.38451 230.35736
 233.59734 237.39164 241.29814 245.22796 248.98002 252.51130 255.78595 258.80109
 261.54781 264.05210 266.34239 268.04198 269.58951 271.01303 272.35754 273.55718
 274.59842 275.49092 276.28989 276.99307 277.60161 278.14001 278.63122 279.07623
 279.47646 279.83287 280.14422 280.54100
 399.73800 389.78500 379.66200 368.15100 356.64100 344.35000 331.79200 318.88800
 305.72600 292.49300 279.20900 266.73800 254.69600 244.21100 234.45700 225.43300
 217.56900 210.45100 204.30000 199.30600 195.45800 192.57600 191.02700 190.38600
 190.23900 190.53400 191.16600 191.92500 192.79500 193.76600 194.73200 195.31200
 195.80000 196.05200 196.11500 196.11500 196.03900 195.72300 195.34000 194.98900
 194.75100 194.79200 195.13300 195.59800 196.50600 198.13600 199.85800 201.56600
 204.17900 206.82300 209.89300 213.28400 216.82800 220.60500 224.38700 228.20900
 232.03200 235.82500 239.56000 243.25800 246.84500 250.20100 253.70900 257.46800
 261.53000 264.22100 266.60100 268.68100 270.32900 271.74100 272.83600 273.47400
 273.89800 274.00200 273.75700 273.28800 272.37100 271.10000 269.58900 267.77900
 265.81600 263.72100 261.39300 258.91600 256.29800 253.42300 250.33100 247.11400
 243.83700 240.52900 237.24900 233.99900 230.72800 227.51500 224.25400 220.95200
 217.62700 213.65600 210.12100 206.78900 204.01000 201.99491 199.07309 198.76551
 199.40006 200.48994 201.46112 202.31912 203.45100 204.96110 207.47502 210.85391
 213.70530 217.29629 220.99574 224.72316 228.28753 231.64854 234.68024 237.40893
 239.70644 241.60899 243.46854 245.67368 247.68154 249.52395 251.24767 252.78566
 254.12057 255.26479 256.23740 257.09036 257.82852 258.48160 259.07744 259.61723
 260.10271 260.53504 260.91270 261.39400
 399.73800 389.78500 379.66200 368.15100 356.64100 344.35000 331.79200 318.88800
 305.72600 292.49300 279.20900 266.73800 254.69600 244.21100 234.45700 225.43300
 217.56900 210.45100 204.30000 199.30600 195.45800 192.57600 191.02700 190.38600
 190.23900 190.53400 191.16600 191.92500 192.79500 193.76600 194.73200 195.31200
 195.80000 196.05200 196.11500 196.11500 196.03900 195.72300 195.34000 194.98900
 194.75100 194.79200 195.13300 195.59800 196.50600 198.13600 199.85800 201.56600
 204.17900 206.82300 209.89300 213.28400 216.82800 220.60500 224.38700 228.20900
 232.03200 235.82500 239.56000 243.25800 246.84500 250.20100 253.70900 257.46800
 261.53000 264.22100 266.60100 268.68100 270.32900 271.74100 272.83600 273.47400
 273.89800 274.00200 273.75700 273.28800 272.37100 271.10000 269.58900 267.77900
 265.81600 263.72100 261.39300 258.91600 256.29800 253.42300 250.33100 247.11400
 243.83700 240.52900 237.24900 233.99900 230.72800 227.51500 224.25400 220.95200
 217.62700 213.65600 210.12100 206.78900 204.01000 201.99491 199.07309 198.76551
 199.40006 200.48994 201.46112 202.31912 203.45100 204.96110 207.47502 210.85391
 213.70530 217.29629 220.99574 224.72316 228.28753 231.64854 234.68024 237.40893
 239.70644 241.60899 243.46854 245.67368 247.68154 249.52395 251.24767 252.78566
 254.12057 255.26479 256.23740 257.09036 257.82852 258.48160 259.07744 259.61723
 260.10271 260.53504 260.91270 261.39400
 399.33000 389.90700 379.81300 368.66800 357.52200 345.30100 333.07400 320.22700
 307.21600 293.84800 280.37600 267.29600 254.61000 242.98700 232.15100 221.97700
 212.67200 204.28600 197.66900 192.82100 189.48600 187.45200 186.81400 187.08900
 187.78100 189.05400 190.64800 192.54200 194.63000 196.75200 198.67100 200.15800
 201.53500 202.48700 202.97500 203.34000 203.53900 203.49700 203.38500 203.24700
 203.00500 202.78600 202.60300 202.43700 202.42600 202.88800 203.42000 203.95100
 204.89500 205.99200 207.30100 208.95800 210.73800 213.10000 215.56400 218.18000
 220.96600 223.91800 226.96100 230.09200 233.29300 236.55700 239.95500 243.53700
 246.84500 249.39000 251.54200 253.47400 255.19500 256.48400 257.43100 258.05900
 258.21200 258.04000 257.58200 256.64300 255.23900 253.50700 251.40800 249.05600
 246.57600 243.99400 241.38900 238.83000 236.34400 233.98600 231.96900 230.11800
 228.42300 226.89900 225.54800 224.29700 223.10500 221.96500 220.95800 220.11300
 219.49000 218.92000 218.32500 217.88100 217.42300 216.96366 216.35568 216.80261
 217.73415 218.28582 218.64258 219.10077 220.44626 222.53987 226.38451 230.35736
 233.59734 237.39164 241.29814 245.22796 248.98002 252.51130 255.78595 258.80109
 261.54781 264.05210 266.34239 268.04198 269.58951 271.01303 272.35754 273.55718
 274.59842 275.49092 276.28989 276.99307 277.60161 278.14001 278.63122 279.07623
 279.47646 279.83287 280.14422 280.54100
 381.81900 372.39900 361.20600 349.77600 337.62200 324.85300 311.81000 298.35300
 284.86000 271.32400 258.56100 246.30400 236.08700 226.79600 218.44800 211.29000
 205.52200 200.89400 197.38100 194.84800 193.01500 192.31500 192.25000 192.43100
 192.91200 193.53700 194.13600 194.71200 195.26200 195.83100 196.39300 196.97600
 197.60400 198.14900 198.58400 199.05700 199.69500 200.37800 201.05400 201.70800
 202.31300 202.85700 203.35500 203.86200 204.56900 205.29700 206.02600 206.98700
 208.19300 209.44100 210.96900 212.57600 214.46200 216.51300 218.63000 220.85300
 223.34100 225.96200 228.73900 231.69700 234.70600 237.70600 240.69200 243.65700
 246.73700 249.69900 252.52100 255.06300 257.29000 259.23300 260.63300 261.68000
 262.46100 262.79800 262.69100 262.22400 261.06900 259.52500 257.70700 255.50700
 253.00100 250.30200 247.39800 244.45200 241.65400 239.05400 236.73300 234.59000
 232.59500 230.72500 228.83400 226.82600 224.66600 222.38700 220.10400 217.71500
 215.45900 213.06600 210.54600 208.09300 205.35400 202.08130 196.05959 200.71215
 209.01611 216.90438 223.84126 229.78593 235.00632 240.20838 245.98943 250.68668
 254.32982 257.93487 261.55666 264.96801 268.15192 271.06452 273.76717 276.25691
 278.57680 280.74479 282.77456 284.60533 286.27232 287.81705 289.31715 290.65561
 291.81734 292.81312 293.70701 294.49387 295.17482 295.77730 296.32696 296.82492
 297.27278 297.67160 298.02000 298.46400
 366.78100 356.36133 345.81966 334.71199 323.14133 311.36166 299.25799 287.08732
 274.82565 262.74898 250.78431 240.11165 230.25998 221.39031 213.59864 206.62697
 200.48730 195.45163 192.05996 190.12830 189.19163 189.28196 190.14329 191.47762
 193.22895 195.35028 197.63962 200.02495 202.49628 205.00261 207.11694 208.98527
 210.63760 211.80894 212.06427 212.31860 212.28193 212.01326 211.67259 211.32892
 210.97226 210.70859 210.54292 210.43325 210.38758 210.74491 211.15724 211.57257
 212.39191 213.59624 214.87257 216.68190 218.63623 220.70556 222.82689 224.93623
 227.02256 229.13289 231.25622 233.38855 235.54388 237.74221 240.02455 242.42088
 245.06821 247.34554 249.37387 251.16520 252.60853 253.75787 254.60620 254.94853
 255.01186 254.81219 254.19852 253.17285 251.80518 249.99252 247.92785 245.78718
 243.60451 241.43484 239.28117 237.14650 235.03284 232.92617 230.97850 229.16183
 227.47116 225.96949 224.62582 223.42416 222.33249 221.31882 220.44915 219.61648
 218.88481 218.09114 217.21548 216.60581 216.08214 214.10251 209.45433 208.49271
 209.89935 210.58453 211.99243 215.57631 219.97095 224.78416 230.52937 235.57242
 239.44135 243.51741 247.90883 252.25250 255.86705 258.73331 261.28918 263.92853
 266.69742 269.30969 271.87173 274.42410 276.32751 277.79904 279.24500 280.94504
 282.90909 284.70081 286.24887 287.60519 288.77774 289.81448 290.75879 291.61392
 292.38159 293.06567 293.66052 294.40561
 366.78100 356.36109 345.81919 334.71128 323.14038 311.36047 299.25656 287.08566
 274.82375 262.74685 250.78194 240.10903 230.25713 221.38722 213.59532 206.62341
 200.48350 195.44760 192.05569 190.12379 189.18688 189.27697 190.13807 191.47216
 193.22325 195.34435 197.63344 200.01854 202.48963 204.99572 207.10982 208.97791
 210.63001 211.80110 212.05619 212.31029 212.27338 212.00448 211.66357 211.31966
 210.96276 210.69885 210.53295 210.42304 210.37713 210.73423 211.14632 211.56142
 212.38051 213.58460 214.86070 216.66979 218.62389 220.69298 222.81407 224.92317
 227.00926 229.11936 231.24245 233.37454 235.52964 237.72773 240.00983 242.40592
 245.05301 247.33011 249.35820 251.14929 252.59239 253.74148 254.58958 254.93167
 254.99476 254.79486 254.18095 253.15505 251.78714 249.97423 247.90933 245.76842
 243.58552 241.41561 239.26170 237.12680 235.01289 232.90599 230.95808 229.14117
 227.45027 225.94836 224.60446 223.40255 222.31064 221.29674 220.42683 219.59393
 218.86202 218.06811 217.19221 216.58230 216.05840 214.10541 209.51834 208.56699
 209.89864 210.60997 212.01735 215.52307 219.89619 224.71407 230.46352 235.49530
 239.36076 243.43880 247.83698 252.20006 255.84990 258.74304 261.29770 263.91443
 266.67081 269.28082 271.83875 274.37332 276.25150 277.71014 279.17575 280.90454
 282.89606 284.68726 286.23340 287.59030 288.76270 289.79868 290.74249 291.59686
 292.36377 293.04730 293.64139 294.38412
 366.78100 356.36078 345.81855 334.71033 323.13910 311.35888 299.25465 287.08343
 274.82120 262.74398 250.77875 240.10553 230.25330 221.38308 213.59085 206.61863
 200.47840 195.44218 192.04995 190.11773 189.18050 189.27028 190.13105 191.46483
 193.21560 195.33638 197.62516 200.00993 202.48071 204.98648 207.10026 208.96803
 210.61981 211.79058 212.04536 212.29913 212.26191 211.99268 211.65146 211.30723
 210.95001 210.68578 210.51956 210.40933 210.36311 210.71988 211.13166 211.54643
 212.36521 213.56898 214.84476 216.65354 218.60731 220.67609 222.79686 224.90564
 226.99141 229.10119 231.22396 233.35574 235.51051 237.70829 239.99006 242.38584
 245.03261 247.30939 249.33716 251.12794 252.57071 253.71949 254.56726 254.90904
 254.97181 254.77159 254.15736 253.13114 251.76292 249.94969 247.88447 245.74324
 243.56002 241.38979 239.23557 237.10034 234.98612 232.87889 230.93067 229.11344
 227.42222 225.91999 224.57577 223.37354 222.28132 221.26709 220.39687 219.56364
 218.83142 218.03719 217.16097 216.55074 216.02652 214.10326 209.58466 208.64433
 209.89397 210.64212 212.02489 215.47250 219.84081 224.64482 230.39005 235.42094
 239.28722 243.36687 247.76848 252.14696 255.82964 258.75101 261.30774 263.90335
 266.64551 269.25079 271.80322 274.31805 276.17163 277.61859 279.10364 280.86264
 282.88120 284.67062 286.21631 287.57144 288.74362 289.77869 290.72144 291.57510
 292.34085 293.02341 293.61661 294.35654
 366.78100 356.36047 345.81793 334.70940 323.13787 311.35733 299.25280 287.08127
 274.81873 262.74120 250.77567 240.10213 230.24960 221.37907 213.58654 206.61400
 200.47347 195.43694 192.04440 190.11187 189.17434 189.26380 190.12427 191.45774
 193.20820 195.32867 197.61714 200.00160 202.47207 204.97754 207.09100 208.95847
 210.60994 211.78040 212.03487 212.28834 212.25081 211.98127 211.63974 211.29521
 210.93767 210.67314 210.50661 210.39607 210.34954 210.70601 211.11747 211.53194
 212.35041 213.55387 214.82934 216.63781 218.59127 220.65974 222.78021 224.88867
 226.97414 229.08361 231.20608 233.33754 235.49201 237.68948 239.97094 242.36641
 245.01288 247.28934 249.31681 251.10728 252.54974 253.69821 254.54568 254.88714
 254.94961 254.74908 254.13454 253.10801 251.73948 249.92594 247.86041 245.71888
 243.53535 241.36481 239.21028 237.07475 234.96021 232.85268 230.90415 229.08661
 227.39508 225.89255 224.54801 223.34548 222.25295 221.23841 220.36788 219.53435
 218.80181 218.00728 217.13075 216.52021 215.99568 214.10115 209.64874 208.72031
 209.90062 210.66635 212.02170 215.42876 219.78671 224.57777 230.31404 235.34999
 239.21942 243.30083 247.70265 252.09422 255.80765 258.75864 261.31998 263.89490
 266.62097 269.21927 271.76434 274.25870 276.08917 277.52676 279.03204 280.82147
 282.86047 284.64993 286.19370 287.54858 288.71875 289.75513 290.69531 291.54688
 292.31232 292.99402 293.58591 294.32239
 366.78100 356.36021 345.81742 334.70863 323.13684 311.35605 299.25127 287.07948
 274.81669 262.73890 250.77311 240.09932 230.24653 221.37574 213.58295 206.61016
 200.46937 195.43259 192.03980 190.10701 189.16922 189.25843 190.11864 191.45185
 193.20206 195.32227 197.61048 199.99470 202.46491 204.97012 207.08333 208.95054
 210.60175 211.77196 212.02617 212.27938 212.24159 211.97180 211.63002 211.28523
 210.92744 210.66265 210.49586 210.38507 210.33828 210.69449 211.10570 211.51991
 212.33812 213.54134 214.81655 216.62476 218.57797 220.64618 222.76639 224.87460
 226.95981 229.06902 231.19123 233.32244 235.47666 237.67387 239.95508 242.35029
 244.99650 247.27271 249.29992 251.09013 252.53234 253.68055 254.52776 254.86898
 254.93119 254.73040 254.11561 253.08882 251.72003 249.90624 247.84045 245.69866
 243.51487 241.34409 239.18930 237.05351 234.93872 232.83093 230.88214 229.06435
 227.37256 225.86977 224.52498 223.32219 222.22941 221.21462 220.34383 219.51004
 218.77725 217.98246 217.10567 216.49488 215.97009 214.10173 209.70958 208.79596
 209.92070 210.68170 212.01411 215.39127 219.72841 224.50958 230.23897 235.27872
 239.15186 243.23598 247.63953 252.04279 255.78584 258.76645 261.33517 263.88989
 266.59827 269.18616 271.72131 274.19360 276.00253 277.43268 278.95847 280.78012
 282.83359 284.62164 286.16528 287.52036 288.69022 289.72360 290.66299 291.51389
 292.27753 292.95685 293.54764 294.28006
 366.78100 356.35993 345.81685 334.70778 323.13570 311.35463 299.24956 287.07748
 274.81441 262.73634 250.77026 240.09619 230.24311 221.37204 213.57897 206.60589
 200.46482 195.42775 192.03467 190.10160 189.16352 189.25245 190.11238 191.44530
 193.19523 195.31515 197.60308 199.98701 202.45693 204.96186 207.07479 208.94171
 210.59264 211.76256 212.01649 212.26942 212.23134 211.96127 211.61920 211.27412
 210.91605 210.65097 210.48390 210.37283 210.32575 210.68168 211.09261 211.50653
 212.32446 213.52738 214.80231 216.61024 218.56316 220.63109 222.75101 224.85894
 226.94387 229.05279 231.17472 233.30565 235.45957 237.65650 239.93742 242.33235
 244.97828 247.25420 249.28113 251.07106 252.51298 253.66091 254.50783 254.84876
 254.91069 254.70961 254.09454 253.06746 251.69839 249.88432 247.81824 245.67617
 243.49210 241.32102 239.16595 237.02987 234.91480 232.80673 230.85765 229.03958
 227.34751 225.84443 224.49936 223.29628 222.20321 221.18814 220.31706 219.48299
 218.74992 217.95484 217.07777 216.46669 215.94162 214.10037 209.77078 208.87054
 209.95122 210.69096 212.00145 215.35661 219.66562 224.44016 230.16754 235.20894
 239.08490 243.17375 247.57967 251.99458 255.76508 258.77518 261.35257 263.88748
 266.57660 269.15207 271.67459 274.12415 275.91269 277.33823 278.88724 280.74014
 282.80115 284.58862 286.13153 287.48480 288.65634 289.68683 290.62308 291.47156
 292.23318 292.91251 293.50140 294.22986
 366.78100 356.35937 345.81573 334.70610 323.13347 311.35184 299.24620 287.07357
 274.80994 262.73131 250.76467 240.09004 230.23641 221.36478 213.57114 206.59751
 200.45588 195.41825 192.02461 190.09098 189.15235 189.24072 190.10008 191.43245
 193.18182 195.30119 197.58855 199.97192 202.44129 204.94566 207.05802 208.92439
 210.57476 211.74412 211.99749 212.24986 212.21123 211.94059 211.59796 211.25233
 210.89370 210.62806 210.46043 210.34880 210.30117 210.65653 211.06690 211.48027
 212.29764 213.50000 214.77437 216.58174 218.53411 220.60147 222.72084 224.82821
 226.91258 229.02094 231.14231 233.27268 235.42605 237.62241 239.90278 242.29715
 244.94252 247.21788 249.24425 251.03362 252.47498 253.62235 254.46872 254.80909
 254.87045 254.66882 254.05319 253.02556 251.65592 249.84129 247.77466 245.63203
 243.44739 241.27576 239.12013 236.98350 234.86786 232.75923 230.80960 228.99097
 227.29833 225.79470 224.44907 223.24544 222.15180 221.13617 220.26454 219.42991
 218.69627 217.90064 217.02301 216.41137 215.88574 214.08237 209.84079 208.96082
 209.97510 210.68227 211.99225 215.33206 219.60172 224.36548 230.09601 235.13860
 239.01804 243.11270 247.52216 251.94659 255.74197 258.78210 261.37134 263.88977
 266.55899 269.11951 271.62531 274.05225 275.82385 277.24707 278.81766 280.69962
 282.76099 284.54736 286.08926 287.44220 288.61206 289.63983 290.57370 291.41986
 292.18076 292.85919 293.44989 294.18683
 366.78100 356.35876 345.81453 334.70429 323.13106 311.34882 299.24258 287.06935
 274.80511 262.72588 250.75864 240.08340 230.22917 221.35693 213.56270 206.58846
 200.44622 195.40799 192.01375 190.07951 189.14028 189.22804 190.08681 191.41857
 193.16733 195.28610 197.57286 199.95563 202.42439 204.92815 207.03992 208.90568
 210.55545 211.72421 211.97697 212.22874 212.18950 211.91827 211.57503 211.22879
 210.86956 210.60332 210.43509 210.32285 210.27461 210.62938 211.03914 211.45191
 212.26867 213.47043 214.74420 216.55096 218.50272 220.56949 222.68825 224.79502
 226.87878 228.98654 231.10731 233.23707 235.38984 237.58560 239.86536 242.25913
 244.90389 247.17866 249.20442 250.99318 252.43395 253.58071 254.42648 254.76624
 254.82700 254.62477 254.00853 252.98030 251.61006 249.79482 247.72759 245.58435
 243.39911 241.22688 239.07064 236.93341 234.81717 232.70793 230.75770 228.93846
 227.24523 225.74099 224.39475 223.19052 222.09628 221.08005 220.20781 219.37257
 218.63834 217.84210 216.96387 216.35163 215.82539 214.05977 209.90611 209.06496
 210.01942 210.66660 211.97321 215.29509 219.52560 224.28748 230.02557 235.06934
 238.95172 243.05244 247.46576 251.89862 255.71751 258.79086 261.39746 263.90094
 266.54926 269.08990 271.57397 273.97672 275.73160 277.15268 278.74423 280.65341
 282.71292 284.49564 286.03604 287.38791 288.55823 289.58597 290.52377 291.37189
 292.13260 292.81171 293.40546 294.15247
 366.78100 356.35799 345.81299 334.70198 323.12797 311.34497 299.23796 287.06396
 274.79895 262.71894 250.75094 240.07493 230.21992 221.34692 213.55191 206.57691
 200.43390 195.39489 191.99989 190.06488 189.12487 189.21187 190.06986 191.40085
 193.14885 195.26684 197.55284 199.93483 202.40282 204.90582 207.01681 208.88180
 210.53080 211.69879 211.95078 212.20178 212.16177 211.88977 211.54576 211.19875
 210.83875 210.57174 210.40273 210.28973 210.24072 210.59472 211.00371 211.41570
 212.23170 213.43269 214.70568 216.51168 218.46267 220.52866 222.64666 224.75265
 226.83565 228.94264 231.06263 233.19163 235.34362 237.53861 239.81761 242.21060
 244.85460 247.12859 249.15358 250.94158 252.38157 253.52756 254.37256 254.71155
 254.77154 254.56854 253.95153 252.92253 251.55152 249.73551 247.66751 245.52350
 243.33749 241.16449 239.00748 236.86947 234.75247 232.64246 230.69146 228.87145
 227.17744 225.67244 224.32543 223.12042 222.02542 221.00841 220.13541 219.29940
 218.56439 217.76739 216.88838 216.27537 215.74837 214.02751 209.97841 209.16827
 210.08740 210.65825 211.92355 215.24889 219.43927 224.19687 229.95219 235.00092
 238.89052 243.00081 247.41890 251.86011 255.70177 258.80960 261.43536 263.92215
 266.54318 269.05853 271.51572 273.89304 275.64157 277.07111 278.67880 280.60339
 282.65628 284.43600 285.97260 287.32581 288.49487 289.52625 290.46463 291.31479
 292.07730 292.75903 293.35678 294.10504
 366.78100 356.35789 345.81279 334.70168 323.12757 311.34447 299.23736 287.06326
 274.79815 262.71804 250.74994 240.07383 230.21872 221.34562 213.55051 206.57541
 200.43230 195.39319 191.99809 190.06298 189.12287 189.20977 190.06766 191.39856
 193.14645 195.26434 197.55024 199.93213 202.40002 204.90292 207.01381 208.87871
 210.52760 211.69549 211.94739 212.19828 212.15817 211.88607 211.54196 211.19486
 210.83475 210.56764 210.39854 210.28543 210.23632 210.59022 210.99911 211.41101
 212.22690 213.42779 214.70069 216.50658 218.45747 220.52337 222.64126 224.74716
 226.83005 228.93694 231.05684 233.18573 235.33762 237.53252 239.81141 242.20430
 244.84820 247.12209 249.14699 250.93488 252.37477 253.52067 254.36556 254.70445
 254.76435 254.56124 253.94414 252.91503 251.54392 249.72782 247.65971 245.51560
 243.32950 241.15639 238.99929 236.86118 234.74407 232.63397 230.68286 228.86275
 227.16865 225.66354 224.31644 223.11133 222.01622 220.99912 220.12601 219.28990
 218.55480 217.75769 216.87859 216.26548 215.73837 214.02855 210.00525 209.29808
 210.20424 210.61916 211.86516 215.18033 219.33380 224.10695 229.88565 234.94170
 238.83879 242.96115 247.38148 251.82535 255.68729 258.82913 261.47421 263.94757
 266.54132 269.03262 271.46149 273.81094 275.55850 277.00317 278.62564 280.55481
 282.59137 284.36774 285.90231 287.25354 288.42358 289.45407 290.39490 291.24429
 292.00806 292.69098 293.28720 294.03754
 366.78100 356.35824 345.81348 334.70271 323.12895 311.34619 299.23943 287.06567
 274.80090 262.72114 250.75338 240.07762 230.22286 221.35009 213.55533 206.58057
 200.43781 195.39905 192.00428 190.06952 189.12976 189.21700 190.07524 191.40647
 193.15471 195.27295 197.55919 199.94143 202.40966 204.91290 207.02414 208.88938
 210.53861 211.70685 211.95909 212.21033 212.17057 211.89880 211.55504 211.20828
 210.84852 210.58176 210.41299 210.30023 210.25147 210.60571 211.01495 211.42718
 212.24342 213.44466 214.71790 216.52414 218.47537 220.54161 222.65985 224.76609
 226.84933 228.95656 231.07680 233.20604 235.35828 237.55352 239.83275 242.22599
 244.87023 247.14447 249.16971 250.95794 252.39818 253.54442 254.38966 254.72890
 254.78913 254.58637 253.96961 252.94085 251.57009 249.75432 247.68656 245.54280
 243.35704 241.18428 239.02751 236.88975 234.77299 232.66323 230.71247 228.89270
 227.19894 225.69418 224.34742 223.14265 222.04789 221.03113 220.15837 219.32261
 218.58784 217.79108 216.91232 216.29956 215.77280 214.05307 210.00641 209.42244
 210.35207 210.60301 211.77870 215.11096 219.23737 224.02393 229.82043 234.88091
 238.78357 242.91078 247.33183 251.77766 255.64774 258.82336 261.50284 263.97559
 266.55182 269.01932 271.41727 273.75259 275.50342 276.95721 278.58334 280.50620
 282.52609 284.29553 285.82220 287.17316 288.34076 289.37082 290.30945 291.15842
 291.92307 292.60709 293.20557 293.94684
 366.78100 356.35787 345.81273 334.70160 323.12746 311.34433 299.23719 287.06306
 274.79792 262.71779 250.74965 240.07352 230.21838 221.34525 213.55011 206.57498
 200.43184 195.39271 191.99757 190.06244 189.12230 189.20917 190.06703 191.39790
 193.14576 195.26363 197.54949 199.93136 202.39922 204.90209 207.01295 208.87782
 210.52668 211.69455 211.94641 212.19728 212.15714 211.88501 211.54087 211.19374
 210.83360 210.56647 210.39733 210.28420 210.23506 210.58893 210.99779 211.40966
 212.22552 213.42639 214.69925 216.50512 218.45598 220.52185 222.63971 224.74558
 226.82844 228.93531 231.05517 233.18404 235.33590 237.53077 239.80963 242.20250
 244.84636 247.12023 249.14509 250.93296 252.37282 253.51869 254.36355 254.70242
 254.76228 254.55915 253.94201 252.91288 251.54174 249.72561 247.65747 245.51334
 243.32720 241.15407 238.99693 236.85880 234.74166 232.63153 230.68039 228.86026
 227.16612 225.66099 224.31385 223.10872 222.01358 220.99645 220.12331 219.28718
 218.55204 217.75491 216.87577 216.26264 215.73550 214.04611 210.06924 209.42278
 210.55676 210.67944 211.61111 215.06020 219.16763 223.93553 229.76543 234.81728
 238.71959 242.85660 247.27638 251.71489 255.58932 258.79916 261.51788 264.00156
 266.56506 269.01035 271.37656 273.69858 275.46664 276.93454 278.54974 280.45453
 282.46207 284.22693 285.74664 287.08902 288.25369 289.27112 290.20624 291.05399
 291.81573 292.49133 293.00589 293.70691
 366.78100 356.35655 345.81010 334.69765 323.12219 311.33774 299.22929 287.05384
 274.78739 262.70594 250.73649 240.05904 230.20258 221.32813 213.53168 206.55523
 200.41078 195.37033 191.97388 190.03742 189.09597 189.18152 190.03807 191.36762
 193.11417 195.23072 197.51527 199.89581 202.36236 204.86391 206.97346 208.83701
 210.48456 211.65111 211.90165 212.15120 212.10975 211.83630 211.49085 211.14240
 210.78095 210.51250 210.34204 210.22759 210.17714 210.52969 210.93724 211.34779
 212.16234 213.36188 214.63343 216.43798 218.38753 220.45208 222.56863 224.67318
 226.75473 228.86027 230.97882 233.10637 235.25692 237.45047 239.72802 242.11957
 244.76211 247.03466 249.05821 250.84476 252.28331 253.42786 254.27141 254.60896
 254.66750 254.46305 253.84460 252.81415 251.44170 249.62425 247.55480 245.40934
 243.22189 241.04744 238.88899 236.74954 234.63109 232.51964 230.56719 228.74573
 227.05028 225.54383 224.19538 222.98893 221.89248 220.87403 219.99957 219.16212
 218.42567 217.62722 216.74677 216.13232 215.60387 213.99420 210.20276 209.39691
 210.56927 210.80200 211.62740 214.98584 219.10843 223.89212 229.71729 234.75145
 238.65648 242.80867 247.22603 251.65508 255.53806 258.78250 261.53082 264.02036
 266.55920 268.98538 271.32794 273.61868 275.41098 276.90335 278.51459 280.40372
 282.39877 284.15884 285.67599 287.01120 288.17587 289.17587 290.09247 290.94269
 291.70413 292.37869 292.79370 293.45242
 366.78100 356.35582 345.80864 334.69546 323.11928 311.33409 299.22491 287.04873
 274.78155 262.69937 250.72919 240.05101 230.19383 221.31864 213.52146 206.54428
 200.39910 195.35792 191.96074 190.02356 189.08138 189.16620 190.02201 191.35083
 193.09665 195.21247 197.49629 199.87611 202.34193 204.84275 206.95157 208.81438
 210.46120 211.62702 211.87684 212.12566 212.08348 211.80930 211.46312 211.11393
 210.75175 210.48257 210.31139 210.19621 210.14503 210.49685 210.90367 211.31349
 212.12730 213.32612 214.59694 216.40076 218.34958 220.41340 222.52922 224.63304
 226.71385 228.81867 230.93649 233.06331 235.21313 237.40595 239.68277 242.07359
 244.71541 246.98722 249.01004 250.79586 252.23368 253.37750 254.22032 254.55714
 254.61496 254.40978 253.79059 252.75941 251.38623 249.56805 247.49787 245.35169
 243.16351 240.98833 238.82914 236.68896 234.56978 232.45760 230.50442 228.68224
 226.98606 225.47888 224.12970 222.92251 221.82533 220.80615 219.93097 219.09279
 218.35561 217.55643 216.67525 216.06006 215.53088 213.97218 210.29948 209.43974
 210.50415 210.84827 211.76239 214.94331 219.04086 223.85652 229.66493 234.68736
 238.60287 242.77208 247.18935 251.60748 255.50317 258.78391 261.55759 264.03928
 266.53516 268.93857 271.26312 273.51566 275.33841 276.87314 278.49319 280.35916
 282.32663 284.08307 285.60226 286.93561 288.09601 289.08914 289.99326 290.84497
 291.61923 292.26071 292.60056 293.14835
 366.78100 356.35559 345.80818 334.69477 323.11836 311.33295 299.22354 287.04714
 274.77973 262.69732 250.72691 240.04850 230.19109 221.31568 213.51827 206.54086
 200.39545 195.35404 191.95663 190.01922 189.07681 189.16141 190.01700 191.34559
 193.09118 195.20677 197.49036 199.86995 202.33554 204.83613 206.94472 208.80731
 210.45390 211.61949 211.86908 212.11768 212.07527 211.80086 211.45445 211.10504
 210.74263 210.47322 210.30181 210.18640 210.13499 210.48658 210.89317 211.30276
 212.11635 213.31495 214.58554 216.38913 218.33772 220.40131 222.51690 224.62049
 226.70108 228.80567 230.92326 233.04985 235.19944 237.39203 239.66862 242.05922
 244.70081 246.97240 248.99499 250.78058 252.21817 253.36176 254.20435 254.54094
 254.59853 254.39312 253.77371 252.74230 251.36889 249.55049 247.48008 245.33367
 243.14526 240.96985 238.81044 236.67003 234.55062 232.43821 230.48480 228.66239
 226.96598 225.45857 224.10916 222.90176 221.80435 220.78494 219.90953 219.07112
 218.33371 217.53430 216.65289 216.03748 215.50807 213.97655 210.36700 209.51080
 210.46735 210.85963 211.88281 214.93332 218.96045 223.79684 229.60873 234.62770
 238.55028 242.73138 247.14793 251.55403 255.45650 258.77194 261.58600 264.07877
 266.54706 268.91214 271.21228 273.42801 275.25342 276.81024 278.44705 280.31427
 282.27020 284.02005 285.52875 286.85684 288.01184 289.00317 289.89392 290.74905
 291.53537 292.15073 292.48517 292.92905
 366.78100 356.35530 345.80760 334.69390 323.11720 311.33150 299.22180 287.04510
 274.77741 262.69471 250.72401 240.04531 230.18761 221.31191 213.51421 206.53651
 200.39081 195.34911 191.95141 190.01371 189.07101 189.15531 190.01061 191.33891
 193.08422 195.19952 197.48282 199.86212 202.32742 204.82772 206.93602 208.79832
 210.44462 211.60992 211.85922 212.10752 212.06482 211.79012 211.44342 211.09373
 210.73103 210.46133 210.28963 210.17393 210.12223 210.47353 210.87983 211.28913
 212.10243 213.30073 214.57103 216.37433 218.32263 220.38593 222.50124 224.60454
 226.68484 228.78914 230.90644 233.03274 235.18204 237.37434 239.65064 242.04094
 244.68224 246.95354 248.97584 250.76114 252.19844 253.34174 254.18405 254.52035
 254.57765 254.37195 253.75225 252.72055 251.34685 249.52815 247.45745 245.31075
 243.12205 240.94635 238.78665 236.64595 234.52625 232.41356 230.45986 228.63716
 226.94046 225.43276 224.08306 222.87536 221.77766 220.75796 219.88226 219.04356
 218.30586 217.50616 216.62446 216.00876 215.47906 213.98630 210.47670 209.52374
 210.45039 210.88330 211.97858 214.96796 218.90622 223.71681 229.53706 234.55569
 238.47055 242.67181 247.08841 251.47461 255.38634 258.73761 261.59210 264.11301
 266.56064 268.91391 271.15891 273.37427 275.22610 276.80405 278.43298 280.26489
 282.18204 283.91595 285.42215 286.75085 287.89218 288.88229 289.81036 290.69312
 291.41919 291.80603 291.94989 292.09644
 366.78100 356.35500 345.80700 334.69300 323.11600 311.33000 299.22000 287.04301
 274.77501 262.69201 250.72101 240.04201 230.18401 221.30801 213.51001 206.53201
 200.38601 195.34401 191.94601 190.00802 189.06502 189.14902 190.00402 191.33202
 193.07702 195.19202 197.47502 199.85402 202.31902 204.81902 206.92702 208.78903
 210.43503 211.60003 211.84903 212.09703 212.05403 211.77903 211.43203 211.08203
 210.71903 210.44903 210.27703 210.16104 210.10904 210.46004 210.86604 211.27504
 212.08804 213.28604 214.55604 216.35904 218.30704 220.37004 222.48504 224.58804
 226.66805 228.77205 230.88905 233.01505 235.16405 237.35605 239.63205 242.02205
 244.66305 246.93405 248.95605 250.74105 252.17806 253.32106 254.16306 254.49906
 254.55606 254.35006 253.73006 252.69806 251.32406 249.50506 247.43406 245.28706
 243.09807 240.92207 238.76207 236.62107 234.50107 232.38807 230.43407 228.61107
 226.91407 225.40607 224.05607 222.84807 221.75007 220.73008 219.85408 219.01508
 218.27708 217.47708 216.59508 215.97908 215.44908 214.01033 210.65056 209.56610
 210.35509 210.83655 212.10419 215.01472 218.83981 223.60651 229.44165 234.46112
 238.37181 242.60667 247.02992 251.39632 255.33188 258.73877 261.65054 264.21939
 266.64502 268.96597 271.23865 273.33072 275.09952 276.66846 278.30298 280.18216
 282.13992 283.88962 285.36325 286.67874 287.79874 288.74640 289.64426 290.45245
 291.17786 291.85870 292.45346 293.21140
 366.78100 356.34914 345.79528 334.67542 323.09256 311.30070 299.18484 287.00198
 274.72812 262.63926 250.66240 239.97754 230.11368 221.23182 213.42797 206.44411
 200.29225 195.24439 191.84053 189.89667 188.94781 189.02595 189.87509 191.19723
 192.93637 195.04551 197.32265 199.69579 202.15493 204.64907 206.75121 208.60735
 210.24749 211.40663 211.64977 211.89191 211.84305 211.56219 211.20933 210.85347
 210.48461 210.20876 210.03090 209.90904 209.85118 210.19632 210.59646 210.99960
 211.80674 212.99888 214.26302 216.06016 218.00230 220.05944 222.16858 224.26572
 226.33986 228.43800 230.54914 232.66928 234.81242 236.99856 239.26870 241.65284
 244.28798 246.55312 248.56926 250.34840 251.77955 252.91669 253.75283 254.08297
 254.13411 253.92225 253.29639 252.25853 250.87867 249.05381 246.97695 244.82409
 242.62923 240.44737 238.28151 236.13465 234.00879 231.88993 229.93007 228.10121
 226.39835 224.88449 223.52863 222.31477 221.21091 220.18505 219.30319 218.45834
 217.71448 216.90862 216.02076 215.39890 214.86304 213.73817 211.11052 209.80540
 210.05347 210.48483 211.97807 214.89825 218.73628 223.51309 229.39401 234.43085
 238.34834 242.60843 247.04230 251.40678 255.39124 258.84818 261.76483 264.29660
 266.71500 268.74338 271.16507 273.51117 275.36316 276.87115 278.35324 280.05557
 281.90442 283.65253 285.06207 286.36676 287.54242 288.59534 289.58823 290.51266
 291.34406 292.08444 292.73120 293.55545
 366.78100 356.34091 345.77882 334.65074 323.05965 311.25956 299.13547 286.94438
 274.66229 262.56521 250.58012 239.88703 230.01494 221.12485 213.31276 206.32068
 200.16059 195.10450 191.69241 189.74032 188.78324 188.85315 189.69406 191.00797
 192.73888 194.83979 197.10871 199.47362 201.92453 204.41044 206.50435 208.35226
 209.98418 211.13509 211.37000 211.60391 211.54682 211.25774 210.89665 210.53256
 210.15547 209.87138 209.68529 209.55521 209.48912 209.82603 210.21794 210.61285
 211.41176 212.59568 213.85159 215.64050 217.57441 219.62332 221.72424 223.81315
 225.87906 227.96897 230.07188 232.18379 234.31871 236.49662 238.75853 241.13444
 243.76135 246.01826 248.02618 249.79709 251.22000 252.34891 253.17682 253.49874
 253.54165 253.32156 252.68747 251.64138 250.25329 248.42021 246.33512 244.17403
 241.97094 239.78085 237.60676 235.45168 233.31759 231.19050 229.22241 227.38532
 225.67424 224.15215 222.78806 221.56597 220.45388 219.41979 218.52971 217.67662
 216.92453 216.11044 215.21435 214.58426 214.04018 213.33328 211.60236 210.15193
 209.85666 210.22520 211.91495 214.90395 218.77226 223.54361 229.45110 234.46719
 238.42366 242.69846 247.14980 251.52669 255.55276 259.06689 262.00806 264.49011
 266.68484 268.82938 271.19196 273.56454 275.49026 277.01538 278.42816 280.04877
 281.79520 283.18094 284.61908 286.06183 287.46890 288.71378 289.84955 290.87848
 291.80389 292.62799 293.34790 294.26532
 366.78100 356.34048 345.77796 334.64944 323.05792 311.25740 299.13288 286.94136
 274.65884 262.56132 250.57579 239.88227 230.00975 221.11923 213.30671 206.31419
 200.15367 195.09715 191.68463 189.73211 188.77459 188.84407 189.68455 190.99803
 192.72851 194.82899 197.09747 199.46195 201.91243 204.39790 206.49138 208.33886
 209.97034 211.12082 211.35530 211.58878 211.53126 211.24174 210.88022 210.51570
 210.13818 209.85366 209.66714 209.53662 209.47010 209.80658 210.19806 210.59254
 211.39102 212.57449 213.82997 215.61845 217.55193 219.60041 221.70089 223.78937
 225.85485 227.94433 230.04681 232.15829 234.29277 236.47025 238.73173 241.10721
 243.73369 245.99017 247.99765 249.76813 251.19060 252.31908 253.14656 253.46804
 253.51052 253.29000 252.65548 251.60896 250.22044 248.38692 246.30140 244.13988
 241.93636 239.74584 237.57132 235.41580 233.28128 231.15376 229.18524 227.34771
 225.63619 224.11367 222.74915 221.52663 220.41411 219.37959 218.48907 217.63555
 216.88303 216.06851 215.17199 214.54147 213.99695 213.31519 211.64827 210.35426
 209.99304 210.28641 211.86763 214.78728 218.60339 223.41745 229.34291 234.37117
 238.35522 242.65836 247.11244 251.50679 255.58359 259.17743 262.20581 264.73331
 266.96228 269.13495 271.41376 273.67273 275.58725 277.09863 278.47015 280.02014
 281.61145 283.17331 284.92081 286.65762 288.16074 289.49057 290.70386 291.80301
 292.79156 293.67191 294.44092 295.42096
 366.78100 356.34881 345.79463 334.67444 323.09125 311.29906 299.18288 286.99969
 274.72550 262.63631 250.65913 239.97394 230.10975 221.22756 213.42338 206.43919
 200.28700 195.23881 191.83463 189.89044 188.94125 189.01906 189.86788 191.18969
 192.92850 195.03732 197.31413 199.68694 202.14575 204.63957 206.74138 208.59719
 210.23700 211.39582 211.63863 211.88044 211.83125 211.55007 211.19688 210.84069
 210.47150 210.19532 210.01713 209.89494 209.83675 210.18157 210.58138 210.98419
 211.79101 212.98282 214.24663 216.04344 217.98526 220.04207 222.15088 224.24769
 226.32151 228.41932 230.53013 232.64994 234.79276 236.97857 239.24838 241.63219
 244.26701 246.53182 248.54763 250.32645 251.75726 252.89407 253.72988 254.05970
 254.11051 253.89832 253.27213 252.23395 250.85376 249.02857 246.95138 244.79820
 242.60301 240.42082 238.25463 236.10745 233.98126 231.86207 229.90188 228.07270
 226.36951 224.85532 223.49914 222.28495 221.18076 220.15457 219.27239 218.42720
 217.68301 216.87682 215.98864 215.36645 214.83026 213.72791 211.23352 210.39752
 210.52666 210.77365 211.97952 214.65277 218.43480 223.23732 228.98367 234.06456
 238.03053 242.33775 246.77841 251.12029 255.12094 258.69388 261.81131 264.54355
 267.04306 269.44650 271.81760 274.10138 276.12308 277.75900 279.16479 280.53558
 281.94467 283.44540 285.01120 286.53293 288.02060 289.33679 290.53763 291.62549
 292.60391 293.47522 294.23636 295.20636
 366.78100 356.35891 345.81482 334.70473 323.13164 311.34955 299.24346 287.07037
 274.80628 262.72719 250.76010 240.08501 230.23093 221.35884 213.56475 206.59066
 200.44857 195.41048 192.01639 190.08230 189.14321 189.23112 190.09003 191.42194
 193.17085 195.28976 197.57667 199.95958 202.42849 204.93240 207.04431 208.91022
 210.56013 211.72904 211.98195 212.23386 212.19478 211.92369 211.58060 211.23451
 210.87542 210.60933 210.44124 210.32915 210.28106 210.63597 211.04588 211.45879
 212.27570 213.47761 214.75152 216.55843 218.51034 220.57725 222.69616 224.80307
 226.88698 228.99489 231.11580 233.24571 235.39863 237.59454 239.87445 242.26836
 244.91327 247.18818 249.21409 251.00300 252.44391 253.59082 254.43673 254.77664
 254.83755 254.63546 254.01937 252.99128 251.62119 249.80610 247.73901 245.59592
 243.41083 241.23874 239.08265 236.94556 234.82948 232.72039 230.77030 228.95121
 227.25812 225.75403 224.40794 223.20385 222.10976 221.09367 220.22158 219.38649
 218.65240 217.85631 216.97822 216.36613 215.84004 214.29453 210.79410 210.01056
 210.86023 211.39844 212.44460 214.83688 218.43074 223.11815 228.79112 233.83148
 237.77588 242.05354 246.43466 250.68555 254.59315 258.09952 261.20874 264.01721
 266.67697 269.26752 271.78366 274.14349 276.22687 278.00674 279.56488 280.99799
 282.36288 283.78253 285.28400 286.68182 287.93036 289.16080 290.30795 291.34720
 292.28186 293.11423 293.84134 294.76794
 366.78100 356.36057 345.81815 334.70972 323.13829 311.35787 299.25344 287.08201
 274.81959 262.74216 250.77673 240.10331 230.25088 221.38045 213.58803 206.61560
 200.47517 195.43875 192.04632 190.11389 189.17647 189.26604 190.12661 191.46019
 193.21076 195.33133 197.61991 200.00448 202.47505 204.98063 207.09420 208.96177
 210.61335 211.78392 212.03849 212.29207 212.25464 211.98521 211.64379 211.29936
 210.94193 210.67751 210.51108 210.40065 210.35423 210.71080 211.12237 211.53695
 212.35552 213.55909 214.83467 216.64324 218.59681 220.66539 222.78596 224.89453
 226.98011 229.08968 231.21225 233.34383 235.49840 237.69597 239.97755 242.37312
 245.01969 247.29627 249.32384 251.11441 252.55699 253.70556 254.55313 254.89471
 254.95728 254.75685 254.14243 253.11600 251.74757 249.93415 247.86872 245.72729
 243.54387 241.37344 239.21901 237.08359 234.96916 232.86173 230.91331 229.09588
 227.40445 225.90203 224.55760 223.35517 222.26275 221.24832 220.37789 219.54447
 218.81204 218.01761 217.14119 216.53076 216.00633 214.43495 210.80280 209.73557
 210.64226 211.49817 212.72479 215.06357 218.53349 223.14897 228.85921 233.81819
 237.80807 242.06467 246.43065 250.67566 254.58305 258.05017 261.07706 263.79440
 266.40295 268.98438 271.50189 273.85553 275.93646 277.76956 279.43497 281.02454
 282.54504 284.00165 285.43915 286.81253 288.01639 289.10944 290.11145 290.90280
 291.58893 292.19992 292.73370 293.41391
 366.78100 356.35366 345.80432 334.68898 323.11064 311.32330 299.21195 287.03361
 274.76427 262.67993 250.70759 240.02725 230.16791 221.29057 213.49123 206.51189
 200.36455 195.32120 191.92186 189.98252 189.03818 189.12084 189.97450 191.30116
 193.04482 195.15848 197.44014 199.81780 202.28146 204.78011 206.88677 208.74743
 210.39209 211.55575 211.80341 212.05007 212.00573 211.72939 211.38105 211.02971
 210.66536 210.39402 210.22068 210.10334 210.05000 210.39966 210.80432 211.21198
 212.02364 213.22030 214.48896 216.29061 218.23727 220.29893 222.41259 224.51425
 226.59291 228.69557 230.81123 232.93589 235.08355 237.27421 239.54886 241.93752
 244.57718 246.84684 248.86750 250.65116 252.08682 253.22848 254.06914 254.40380
 254.45946 254.25211 253.63077 252.59743 251.22209 249.40175 247.32941 245.18107
 242.99073 240.81339 238.65205 236.50971 234.38837 232.27402 230.31868 228.49434
 226.79600 225.28666 223.93532 222.72598 221.62664 220.60530 219.72796 218.88762
 218.14827 217.34693 216.46359 215.84625 215.31491 214.05109 211.07928 210.13222
 210.51323 211.13493 212.48366 214.98740 218.47278 223.10130 228.92674 233.80164
 237.87521 242.13811 246.53780 250.84544 254.84369 258.37381 261.38715 263.98212
 266.43369 268.86679 271.24075 273.46637 275.46249 277.27209 279.01389 280.73151
 282.40936 283.97867 285.42917 286.75534 287.92920 288.97510 289.91928 290.73135
 291.38162 291.87219 292.09991 292.33093
 366.78100 356.34893 345.79486 334.67480 323.09173 311.29966 299.18359 287.00052
 274.72645 262.63739 250.66032 239.97525 230.11118 221.22911 213.42504 206.44098
 200.28891 195.24084 191.83677 189.89270 188.94364 189.02157 189.87050 191.19243
 192.93136 195.04029 197.31723 199.69016 202.14909 204.64302 206.74495 208.60089
 210.24082 211.39975 211.64268 211.88461 211.83554 211.55448 211.20141 210.84534
 210.47627 210.20020 210.02213 209.90007 209.84200 210.18693 210.58686 210.98979
 211.79673 212.98866 214.25259 216.04952 217.99145 220.04838 222.15732 224.25425
 226.32818 228.42611 230.53704 232.65698 234.79991 236.98584 239.25577 241.63970
 244.27463 246.53957 248.55550 250.33443 251.76536 252.90229 253.73822 254.06816
 254.11909 253.90702 253.28095 252.24288 250.86282 249.03775 246.96068 244.80761
 242.61254 240.43047 238.26441 236.11734 233.99127 231.87220 229.91213 228.08307
 226.38000 224.86593 223.50986 222.29579 221.19172 220.16566 219.28359 218.43852
 217.69445 216.88838 216.00031 215.37825 214.84218 213.77637 211.26067 210.51791
 210.63489 210.98268 212.26970 214.78107 218.22520 222.90674 228.80638 233.68690
 237.79175 242.07623 246.50647 250.85957 254.92764 258.53589 261.58978 264.15552
 266.54822 268.90070 271.18973 273.36658 275.30142 277.03275 278.71783 280.42456
 282.16428 283.80408 285.29276 286.61166 287.75372 288.78467 289.74915 290.57632
 291.15442 291.60583 291.93646 291.93323
 366.78100 356.34867 345.79434 334.67401 323.09068 311.29835 299.18202 286.99869
 274.72436 262.63503 250.65770 239.97237 230.10804 221.22571 213.42138 206.43705
 200.28472 195.23639 191.83206 189.88773 188.93840 189.01608 189.86475 191.18642
 192.92509 195.03376 197.31043 199.68310 202.14177 204.63544 206.73711 208.59278
 210.23245 211.39112 211.63379 211.87546 211.82613 211.54480 211.19147 210.83514
 210.46581 210.18948 210.01115 209.88882 209.83049 210.17516 210.57483 210.97750
 211.78417 212.97584 214.23951 216.03618 217.97785 220.03452 222.14319 224.23986
 226.31353 228.41120 230.52187 232.64154 234.78421 236.96989 239.23956 241.62323
 244.25790 246.52257 248.53824 250.31691 251.74758 252.88425 253.71992 254.04959
 254.10026 253.88793 253.26160 252.22327 250.84294 249.01761 246.94028 244.78695
 242.59162 240.40929 238.24296 236.09563 233.96930 231.84997 229.88964 228.06031
 226.35698 224.84265 223.48632 222.27199 221.16766 220.14133 219.25900 218.41367
 217.66934 216.86301 215.97468 215.35235 214.81602 213.76324 211.27879 210.63763
 210.88304 211.08690 212.26239 214.65991 218.00468 222.73981 228.69263 233.59100
 237.69884 241.99121 246.42702 250.78882 254.88309 258.52289 261.59561 264.16821
 266.57245 268.91861 271.19031 273.36591 275.29230 277.00153 278.66913 280.36826
 282.11179 283.75092 285.22037 286.50629 287.60800 288.63315 289.63928 290.49750
 291.00940 291.35513 291.60068 291.70993
 366.78100 356.34712 345.79124 334.66937 323.08449 311.29061 299.17273 286.98785
 274.71197 262.62110 250.64222 239.95534 230.08946 221.20558 213.39971 206.41383
 200.25995 195.21007 191.80419 189.85831 188.90744 188.98356 189.83068 191.15080
 192.88792 194.99504 197.27017 199.64129 202.09841 204.59053 206.69065 208.54478
 210.18290 211.34002 211.58114 211.82126 211.77038 211.48751 211.13263 210.77475
 210.40387 210.12599 209.94612 209.82224 209.76236 210.10548 210.50360 210.90472
 211.70985 212.89997 214.16209 215.95721 217.89733 219.95245 222.05958 224.15470
 226.22682 228.32294 230.43206 232.55019 234.69131 236.87543 239.14355 241.52567
 244.15879 246.42192 248.43604 250.21316 251.64228 252.77740 253.61153 253.93965
 253.98877 253.77489 253.14701 252.10713 250.72526 248.89838 246.81950 244.66462
 242.46774 240.28386 238.11599 235.96711 233.83923 231.71835 229.75647 227.92560
 226.22072 224.70484 223.34696 222.13108 221.02520 219.99733 219.11345 218.26657
 217.52069 216.71281 215.82294 215.19906 214.66118 213.71458 211.49484 210.60907
 210.71080 211.30328 212.45432 214.60133 217.91805 222.63800 228.62291 233.59349
 237.61354 241.93086 246.34999 250.70505 254.81190 258.47299 261.55872 264.15298
 266.55795 268.90314 271.18549 273.35718 275.27454 276.96783 278.61276 280.31662
 282.04938 283.69586 285.16962 286.44623 287.53424 288.54630 289.46533 290.20670
 290.92007 291.63165 292.26340 293.06845
 366.78100 356.34300 345.78301 334.65701 323.06801 311.27001 299.14802 286.95902
 274.67902 262.58402 250.60103 239.91003 230.04003 221.15203 213.34204 206.35204
 200.19404 195.14005 191.73005 189.78005 188.82505 188.89706 189.74006 191.05606
 192.78906 194.89207 197.16307 199.53007 201.98307 204.47108 206.56708 208.41708
 210.05109 211.20409 211.44109 211.67709 211.62210 211.33510 210.97610 210.61410
 210.23911 209.95711 209.77311 209.64512 209.58112 209.92012 210.31412 210.71113
 211.51213 212.69813 213.95613 215.74714 217.68314 219.73414 221.83714 223.92815
 225.99615 228.08815 230.19316 232.30716 234.44416 236.62416 238.88817 241.26617
 243.89517 246.15417 248.16418 249.93718 251.36218 252.49318 253.32319 253.64719
 253.69219 253.47420 252.84220 251.79820 250.41220 248.58121 246.49821 244.33921
 242.13821 239.95022 237.77822 235.62522 233.49322 231.36823 229.40223 227.56723
 225.85824 224.33824 222.97624 221.75624 220.64625 219.61425 218.72625 217.87525
 217.12526 216.31326 215.41926 214.79126 214.24927 213.54518 211.87123 210.62424
 210.38631 211.14651 212.46494 214.58966 217.93855 222.63470 228.58307 233.62492
 237.59714 241.91446 246.32616 250.68456 254.81236 258.50540 261.60181 264.20462
 266.59042 268.89206 271.16412 273.32364 275.20709 276.88361 278.52887 280.22476
 281.95782 283.58740 285.02869 286.32837 287.51761 288.61188 289.68649 290.66351
 291.54221 292.32468 293.00824 293.87936
 366.78100 356.34517 345.78734 334.66351 323.07668 311.28085 299.16102 286.97419
 274.69636 262.60353 250.62270 239.93387 230.06604 221.18021 213.37238 206.38455
 200.22872 195.17689 191.76906 189.82123 188.86840 188.94257 189.78774 191.10591
 192.84108 194.94625 197.21942 199.58860 202.04377 204.53394 206.63211 208.48428
 210.12045 211.27562 211.51479 211.75296 211.70013 211.41530 211.05847 210.69864
 210.32581 210.04598 209.86415 209.73832 209.67649 210.01766 210.41383 210.81300
 211.61617 212.80434 214.06451 215.85768 217.79585 219.84902 221.95419 224.04736
 226.11753 228.21170 230.31887 232.43504 234.57421 236.75638 239.02255 241.40272
 244.03389 246.29506 248.30723 250.08240 251.50957 252.64274 253.47491 253.80108
 253.84825 253.63242 253.00259 251.96076 250.57693 248.74810 246.66727 244.51044
 242.31161 240.12579 237.95596 235.80513 233.67530 231.55247 229.58864 227.75581
 226.04898 224.53115 223.17132 221.95349 220.84566 219.81583 218.93000 218.08117
 217.33334 216.52351 215.63168 215.00585 214.46602 213.68652 211.85660 210.73111
 210.51767 211.24924 212.57300 214.63455 217.95206 222.64461 228.58330 233.59418
 237.57393 241.88641 246.29314 250.65742 254.80968 258.52975 261.65820 264.28879
 266.67593 268.97949 271.25049 273.38486 275.24191 276.92258 278.57153 280.28128
 281.98230 283.61273 285.19598 286.68774 288.08444 289.32019 290.44760 291.46899
 292.38757 293.20560 293.92023 294.83090
 366.78100 356.35190 345.80080 334.68370 323.10360 311.31450 299.20140 287.02130
 274.75020 262.66410 250.69000 240.00790 230.14680 221.26770 213.46660 206.48550
 200.33640 195.29130 191.89020 189.94910 189.00300 189.08390 189.93580 191.26070
 193.00260 195.11450 197.39440 199.77030 202.23220 204.72910 206.83400 208.69290
 210.33580 211.49770 211.74360 211.98850 211.94240 211.66430 211.31420 210.96110
 210.59500 210.32190 210.14680 210.02770 209.97260 210.32050 210.72340 211.12930
 211.93920 213.13410 214.40100 216.20090 218.14580 220.20570 222.31760 224.41750
 226.49440 228.59530 230.70920 232.83210 234.97800 237.16690 239.43980 241.82670
 244.46460 246.73250 248.75140 250.53331 251.96721 253.10711 253.94601 254.27891
 254.33281 254.12371 253.50061 252.46551 251.08841 249.26631 247.19221 245.04211
 242.85001 240.67091 238.50781 236.36371 234.24061 232.12451 230.16741 228.34131
 226.64121 225.13011 223.77701 222.56591 221.46481 220.44171 219.56261 218.72051
 217.97941 217.17631 216.29121 215.67211 215.13901 214.05721 211.58804 210.65738
 210.77078 211.49159 212.69872 214.61612 217.87000 222.57068 228.46017 233.47488
 237.43802 241.74080 246.12773 250.49231 254.67984 258.41830 261.53326 264.17297
 266.63690 269.02097 271.38080 273.64127 275.56592 277.21323 278.81265 280.44485
 282.09409 283.79840 285.37329 286.81262 288.17969 289.42249 290.55637 291.58356
 292.50742 293.33011 294.04883 294.96472
 366.78100 356.35202 345.80105 334.68407 323.10409 311.31512 299.20214 287.02216
 274.75119 262.66521 250.69124 240.00926 230.14828 221.26931 213.46833 206.48735
 200.33838 195.29340 191.89242 189.95145 189.00547 189.08649 189.93852 191.26354
 193.00556 195.11759 197.39761 199.77364 202.23566 204.73268 206.83771 208.69673
 210.33975 211.50178 211.74780 211.99282 211.94685 211.66887 211.31889 210.96592
 210.59994 210.32696 210.15199 210.03301 209.97803 210.32606 210.72908 211.13511
 211.94513 213.14015 214.40718 216.20720 218.15222 220.21225 222.32427 224.42429
 226.50132 228.60234 230.71636 232.83939 234.98541 237.17443 239.44746 241.83448
 244.47251 246.74053 248.75955 250.54158 251.97560 253.11562 253.95465 254.28767
 254.34169 254.13272 253.50974 252.47476 251.09779 249.27581 247.20183 245.05186
 242.85988 240.68091 238.51793 236.37395 234.25098 232.13500 230.17802 228.35205
 226.65207 225.14109 223.78812 222.57714 221.47616 220.45319 219.57421 218.73223
 217.99126 217.18828 216.30330 215.68433 215.15135 214.07947 211.58389 210.58115
 210.72270 211.50568 212.85272 214.73781 217.85271 222.46507 228.37135 233.35371
 237.32977 241.61159 245.98743 250.31851 254.45290 258.15039 261.26520 263.93008
 266.42487 268.87814 271.29980 273.60086 275.60068 277.33533 278.98465 280.66840
 282.32864 283.89081 285.36749 286.73492 287.93207 289.01181 290.02203 290.97162
 291.84305 292.61905 293.29697 294.16089
 366.78100 356.34728 345.79156 334.66984 323.08512 311.29140 299.17369 286.98897
 274.71325 262.62253 250.64381 239.95709 230.09137 221.20765 213.40193 206.41621
 200.26249 195.21278 191.80706 189.86134 188.91062 188.98690 189.83418 191.15446
 192.89174 194.99902 197.27430 199.64559 202.10287 204.59515 206.69543 208.54971
 210.18799 211.34527 211.58655 211.82683 211.77611 211.49339 211.13868 210.78096
 210.41024 210.13252 209.95280 209.82908 209.76936 210.11264 210.51092 210.91220
 211.71748 212.90777 214.17005 215.96533 217.90561 219.96089 222.06817 224.16345
 226.23573 228.33201 230.44129 232.55958 234.70086 236.88514 239.15342 241.53570
 244.16898 246.43226 248.44654 250.22382 251.65310 252.78838 253.62267 253.95095
 254.00023 253.78651 253.15879 252.11907 250.73735 248.91063 246.83191 244.67719
 242.48047 240.29676 238.12904 235.98032 233.85260 231.73188 229.77016 227.93944
 226.23472 224.71900 223.36128 222.14557 221.03985 220.01213 219.12841 218.28169
 217.53597 216.72825 215.83853 215.21481 214.67709 213.84378 211.87729 210.60873
 210.53856 211.53934 212.98874 214.83997 217.85257 222.41606 228.35042 233.27272
 237.28134 241.55658 245.93375 250.26018 254.43266 258.16650 261.27591 263.88766
 266.34201 268.78192 271.19138 273.49564 275.47150 277.16696 278.83325 280.55069
 282.24527 283.81906 285.26025 286.60388 287.78873 288.84955 289.83133 290.72095
 291.52069 292.25571 292.91052 293.74500
 366.78100 356.34535 345.78770 334.66405 323.07740 311.28175 299.16210 286.97545
 274.69780 262.60515 250.62450 239.93585 230.06820 221.18255 213.37490 206.38725
 200.23160 195.17995 191.77230 189.82465 188.87200 188.94635 189.79170 191.11005
 192.84540 194.95075 197.22410 199.59345 202.04880 204.53915 206.63750 208.48985
 210.12620 211.28155 211.52090 211.75925 211.70660 211.42195 211.06530 210.70565
 210.33300 210.05335 209.87170 209.74605 209.68440 210.02575 210.42210 210.82145
 211.62480 212.81315 214.07350 215.86685 217.80520 219.85855 221.96390 224.05725
 226.12760 228.22196 230.32931 232.44566 234.58501 236.76736 239.03371 241.41406
 244.04541 246.30676 248.31911 250.09446 251.52181 252.65516 253.48751 253.81386
 253.86121 253.64556 253.01591 251.97426 250.59061 248.76196 246.68131 244.52466
 242.32601 240.14036 237.97071 235.82006 233.69041 231.56776 229.60411 227.77146
 226.06481 224.54716 223.18751 221.96986 220.86221 219.83256 218.94691 218.09826
 217.35061 216.54096 215.64931 215.02366 214.48401 213.76588 212.06192 210.65967
 210.38748 211.45303 212.96184 214.86510 217.90996 222.43620 228.30392 233.26459
 237.23126 241.52107 245.89149 250.22540 254.40573 258.15610 261.28101 263.90509
 266.36002 268.79010 271.20828 273.51001 275.47159 277.15256 278.79672 280.50348
 282.20242 283.77057 285.26178 286.62845 287.82141 288.89609 289.89206 290.81329
 291.66986 292.45047 293.13242 294.00146
 366.78100 356.34862 345.79425 334.67387 323.09049 311.29812 299.18174 286.99837
 274.72399 262.63461 250.65724 239.97186 230.10748 221.22511 213.42073 206.43636
 200.28398 195.23560 191.83123 189.88685 188.93747 189.01510 189.86372 191.18535
 192.92397 195.03259 197.30922 199.68184 202.14046 204.63409 206.73571 208.59133
 210.23096 211.38958 211.63221 211.87383 211.82445 211.54308 211.18970 210.83332
 210.46395 210.18757 210.00920 209.88682 209.82844 210.17307 210.57269 210.97531
 211.78194 212.97356 214.23719 216.03381 217.97543 220.03206 222.14068 224.23730
 226.31093 228.40855 230.51918 232.63880 234.78142 236.96705 239.23667 241.62029
 244.25492 246.51954 248.53516 250.31379 251.74441 252.88104 253.71666 254.04628
 254.09691 253.88453 253.25815 252.21978 250.83940 249.01403 246.93665 244.78327
 242.58790 240.40552 238.23914 236.09177 233.96539 231.84602 229.88564 228.05626
 226.35289 224.83851 223.48213 222.26776 221.16338 220.13700 219.25463 218.40925
 217.66488 216.85850 215.97012 215.34775 214.81137 213.93945 211.88716 210.85114
 210.47792 211.35750 212.88792 214.80510 217.88016 222.43858 228.31302 233.24785
 237.21959 241.50334 245.86224 250.17760 254.36804 258.13123 261.26331 263.88342
 266.35367 268.80090 271.21561 273.53165 275.50525 277.19049 278.82959 280.52008
 282.19647 283.76114 285.20770 286.54227 287.72028 288.79541 289.80389 290.69443
 291.41602 291.90732 292.29688 292.79330
 366.78100 356.35022 345.79743 334.67865 323.09687 311.30608 299.19130 287.00952
 274.73673 262.64895 250.67317 239.98938 230.12660 221.24582 213.44303 206.46025
 200.30947 195.26268 191.85990 189.91712 188.96933 189.04855 189.89877 191.22198
 192.96220 195.07242 197.35063 199.72485 202.18507 204.68029 206.78350 208.64072
 210.28194 211.44215 211.68637 211.92959 211.88180 211.60202 211.25024 210.89545
 210.52767 210.25289 210.07610 209.95532 209.89854 210.24475 210.64597 211.05019
 211.85840 213.05162 214.31684 216.11505 218.05827 220.11649 222.22670 224.32492
 226.40014 228.49935 230.61157 232.73279 234.87700 237.06422 239.33544 241.72065
 244.35687 246.62309 248.64030 250.42052 251.85274 252.99095 253.82817 254.15939
 254.21160 254.00082 253.37604 252.33925 250.96047 249.13669 247.06090 244.90912
 242.71534 240.53455 238.36977 236.22399 234.09920 231.98142 230.02264 228.19486
 226.49307 224.98029 223.62551 222.41272 221.30994 220.28516 219.40437 218.56059
 217.81781 217.01302 216.12624 215.50546 214.97067 214.03175 211.81345 210.93369
 210.63571 211.42670 212.81827 214.64124 217.73897 222.38988 228.30748 233.17802
 237.19647 241.48299 245.83681 250.14311 254.36641 258.15961 261.27875 263.84824
 266.32437 268.77686 271.18658 273.55200 275.45923 276.99918 278.58148 280.31149
 282.09604 283.72604 285.16235 286.42493 287.55399 288.62405 289.61996 290.43591
 291.02682 291.47000 291.78830 292.11169
 366.78100 356.34977 345.79653 334.67730 323.09506 311.30383 299.18859 287.00636
 274.73312 262.64489 250.66865 239.98442 230.12118 221.23995 213.43672 206.45348
 200.30225 195.25501 191.85178 189.90854 188.96031 189.03907 189.88884 191.21160
 192.95137 195.06113 197.33890 199.71267 202.17243 204.66720 206.76996 208.62673
 210.26749 211.42726 211.67102 211.91379 211.86555 211.58532 211.23308 210.87785
 210.50961 210.23438 210.05715 209.93591 209.87868 210.22444 210.62521 211.02897
 211.83674 213.02950 214.29427 216.09203 218.03480 220.09256 222.20233 224.30010
 226.37486 228.47363 230.58539 232.70616 234.84992 237.03669 239.30745 241.69222
 244.32798 246.59375 248.61051 250.39028 251.82205 252.95981 253.79658 254.12734
 254.17911 253.96787 253.34264 252.30540 250.92617 249.10193 247.02570 244.87346
 242.67923 240.49800 238.33276 236.18653 234.06129 231.94306 229.98382 228.15559
 226.45335 224.94012 223.58488 222.37165 221.26841 220.24318 219.36194 218.51771
 217.77448 216.96924 216.08201 215.46077 214.92554 214.05229 212.00319 210.86595
 210.62613 211.27608 212.69293 214.71809 217.88216 222.42325 228.22827 233.20676
 237.16035 241.45999 245.81978 250.14255 254.31976 258.08701 261.23883 263.90601
 266.38544 268.79648 271.19080 273.46011 275.38638 277.02176 278.59268 280.24719
 281.91635 283.48599 284.91022 286.24149 287.41470 288.46280 289.44513 290.39276
 291.27731 292.06503 292.75314 293.63007
 366.78100 356.35411 345.80522 334.69033 323.11244 311.32555 299.21466 287.03677
 274.76788 262.68399 250.71210 240.03221 230.17332 221.29643 213.49754 206.51865
 200.37176 195.32888 191.92999 189.99110 189.04721 189.13032 189.98443 191.31154
 193.05565 195.16976 197.45187 199.82998 202.29409 204.79320 206.90031 208.76142
 210.40653 211.57064 211.81875 212.06586 212.02197 211.74608 211.39819 211.04730
 210.68341 210.41252 210.23963 210.12274 210.06985 210.41996 210.82507 211.23318
 212.04529 213.24241 214.51152 216.31363 218.26074 220.32285 222.43696 224.53907
 226.61818 228.72129 230.83740 232.96251 235.11062 237.30173 239.57684 241.96595
 244.60606 246.87617 248.89728 250.68139 252.11750 253.25961 254.10072 254.43583
 254.49194 254.28505 253.66416 252.63127 251.25638 249.43649 247.36460 245.21671
 243.02682 240.84994 238.68905 236.54716 234.42627 232.31238 230.35749 228.53360
 226.83571 225.32682 223.97593 222.76704 221.66815 220.64726 219.77037 218.93048
 218.19159 217.39070 216.50781 215.89092 215.36003 214.34108 211.96074 210.71541
 210.92502 211.64183 212.80820 214.68542 217.86998 222.38240 228.12018 233.06212
 237.04463 241.35359 245.71057 250.05095 254.25865 258.02216 261.17917 263.91754
 266.49847 268.99313 271.42542 273.69730 275.64319 277.30289 278.85635 280.42014
 282.00977 283.53003 285.09106 286.54385 287.91470 289.14880 290.27469 291.29471
 292.21207 293.02899 293.74265 294.65210
 366.78100 356.35622 345.80945 334.69667 323.12090 311.33612 299.22735 287.05157
 274.78480 262.70302 250.73325 240.05547 230.19870 221.32392 213.52715 206.55037
 200.40560 195.36482 191.96805 190.03127 189.08950 189.17472 190.03095 191.36017
 193.10640 195.22262 197.50685 199.88707 202.35330 204.85452 206.96375 208.82697
 210.47420 211.64042 211.89065 212.13987 212.09810 211.82432 211.47855 211.12977
 210.76799 210.49922 210.32844 210.21367 210.16289 210.51512 210.92234 211.33257
 212.14679 213.34602 214.61724 216.42147 218.37069 220.43492 222.55114 224.65537
 226.73659 228.84182 230.96004 233.08727 235.23749 237.43072 239.70794 242.09917
 244.74139 247.01362 249.03684 250.82307 252.26129 253.40552 254.24874 254.58597
 254.64419 254.43942 253.82064 252.78987 251.41709 249.59932 247.52954 245.38377
 243.19599 241.02121 238.86244 236.72266 234.60389 232.49211 230.53934 228.71756
 227.02179 225.51501 224.16624 222.95946 221.86269 220.84391 219.96914 219.13136
 218.39459 217.59581 216.71504 216.10026 215.57149 214.47368 211.90977 210.62346
 211.00514 211.74524 212.86671 214.68013 217.77678 222.28833 227.98689 232.92821
 236.88411 241.16757 245.52791 249.85440 253.98550 257.68930 260.86856 263.68542
 266.37625 268.99182 271.55878 273.98877 276.06677 277.80835 279.36627 280.84851
 282.31631 283.74362 285.23267 286.61234 287.83875 288.98651 290.08792 291.08572
 291.98312 292.78229 293.48041 294.37006
 366.78100 356.35630 345.80961 334.69691 323.12121 311.33651 299.22782 287.05212
 274.78542 262.70372 250.73403 240.05633 230.19963 221.32494 213.52824 206.55154
 200.40684 195.36615 191.96945 190.03275 189.09105 189.17636 190.03266 191.36196
 193.10826 195.22457 197.50887 199.88917 202.35548 204.85678 206.96608 208.82938
 210.47669 211.64299 211.89329 212.14259 212.10090 211.82720 211.48150 211.13281
 210.77111 210.50241 210.33171 210.21702 210.16632 210.51862 210.92592 211.33623
 212.15053 213.34983 214.62113 216.42544 218.37474 220.43904 222.55535 224.65965
 226.74095 228.84625 230.96456 233.09186 235.24216 237.43546 239.71277 242.10407
 244.74637 247.01868 249.04198 250.82828 252.26658 253.41089 254.25419 254.59149
 254.64979 254.44510 253.82640 252.79570 251.42300 249.60531 247.53561 245.38991
 243.20222 241.02752 238.86882 236.72912 234.61043 232.49873 230.54603 228.72433
 227.02864 225.52194 224.17324 222.96655 221.86985 220.85115 219.97645 219.13876
 218.40206 217.60336 216.72266 216.10797 215.57927 214.46095 211.83406 210.75345
 211.17685 211.64207 212.90289 214.79002 217.71765 222.19299 227.99873 232.83342
 236.82413 241.09299 245.45599 249.76894 253.89983 257.62161 260.81812 263.61713
 266.25775 268.82932 271.32730 273.68445 275.76788 277.60123 279.31821 280.96402
 282.50943 283.94424 285.29031 286.58246 287.76404 288.81976 289.79382 290.68860
 291.50760 292.26138 292.92282 293.76572
 366.78100 356.35540 345.80779 334.69419 323.11759 311.33198 299.22238 287.04577
 274.77817 262.69557 250.72496 240.04636 230.18876 221.31315 213.51555 206.53794
 200.39234 195.35074 191.95313 190.01553 189.07293 189.15732 190.01272 191.34112
 193.08651 195.20191 197.48530 199.86470 202.33010 204.83049 206.93889 208.80129
 210.44768 211.61308 211.86247 212.11087 212.06827 211.79366 211.44706 211.09746
 210.73485 210.46525 210.29365 210.17804 210.12644 210.47783 210.88423 211.29363
 212.10702 213.30542 214.57582 216.37921 218.32761 220.39101 222.50640 224.60980
 226.69019 228.79459 230.91199 233.03838 235.18778 237.38018 239.65657 242.04697
 244.68836 246.95976 248.98216 250.76755 252.20495 253.34835 254.19074 254.52714
 254.58454 254.37893 253.75933 252.72772 251.35412 249.53552 247.46491 245.31831
 243.12971 240.95410 238.79450 236.65389 234.53429 232.42169 230.46808 228.64548
 226.94888 225.44127 224.09167 222.88407 221.78646 220.76686 219.89125 219.05265
 218.31505 217.51544 216.63384 216.01824 215.48863 214.44563 211.99521 210.71027
 211.13872 211.55399 212.75342 214.82352 217.84946 222.20438 227.91045 232.80365
 236.75800 241.06093 245.44698 249.78397 253.93730 257.70346 260.95303 263.77966
 266.40036 268.90588 271.33295 273.65051 275.68576 277.43134 279.04584 280.62732
 282.19720 283.70129 285.14685 286.51486 287.70340 288.76892 289.75217 290.65540
 291.51114 292.27594 292.94409 293.79553
 366.78100 356.35318 345.80337 334.68755 323.10873 311.32091 299.20910 287.03028
 274.76046 262.67564 250.70283 240.02201 230.16219 221.28437 213.48456 206.50474
 200.35692 195.31310 191.91329 189.97347 189.02865 189.11083 189.96402 191.29020
 193.03338 195.14656 197.42775 199.80493 202.26811 204.76629 206.87248 208.73266
 210.37684 211.54003 211.78721 212.03339 211.98857 211.71176 211.36294 211.01112
 210.64630 210.37449 210.20067 210.08285 210.02903 210.37822 210.78240 211.18958
 212.00076 213.19695 214.46513 216.26631 218.21249 220.27368 222.38686 224.48804
 226.56622 228.66841 230.78359 232.90777 235.05495 237.24514 239.51932 241.90750
 244.54668 246.81587 248.83605 250.61923 252.05442 253.19560 254.03578 254.36996
 254.42515 254.21733 253.59551 252.56169 251.18588 249.36506 247.29224 245.14342
 242.95261 240.77479 238.61297 236.47015 234.34834 232.23352 230.27770 228.45288
 226.75407 225.24425 223.89243 222.68261 221.58280 220.56098 219.68316 218.84234
 218.10253 217.30071 216.41689 215.79908 215.26726 214.36977 212.23923 210.69144
 210.83025 211.45326 212.76076 214.90359 217.97726 222.24272 227.84775 232.75267
 236.70215 241.01300 245.40263 249.74933 253.90758 257.67371 260.92169 263.77573
 266.46396 269.00116 271.44257 273.81821 275.89008 277.60892 279.16745 280.68839
 282.20331 283.66821 285.11627 286.48059 287.67822 288.75497 289.77252 290.73221
 291.59534 292.36395 293.03540 293.89108
 366.78100 356.35278 345.80256 334.68635 323.10713 311.31891 299.20669 287.02747
 274.75725 262.67204 250.69882 240.01760 230.15738 221.27916 213.47894 206.49873
 200.35051 195.30629 191.90607 189.96585 189.02063 189.10242 189.95520 191.28098
 193.02376 195.13654 197.41732 199.79411 202.25689 204.75467 206.86045 208.72023
 210.36402 211.52680 211.77358 212.01936 211.97414 211.69692 211.34771 210.99549
 210.63027 210.35805 210.18383 210.06561 210.01140 210.36018 210.76396 211.17074
 211.98152 213.17730 214.44509 216.24587 218.19165 220.25243 222.36521 224.46600
 226.54378 228.64556 230.76034 232.88412 235.03090 237.22069 239.49447 241.88225
 244.52103 246.78981 248.80959 250.59238 252.02716 253.16794 254.00772 254.34150
 254.39628 254.18807 253.56585 252.53163 251.15541 249.33419 247.26097 245.11176
 242.92054 240.74232 238.58010 236.43688 234.31467 232.19945 230.24323 228.41801
 226.71879 225.20857 223.85636 222.64614 221.54592 220.52370 219.64548 218.80426
 218.06405 217.26183 216.37761 215.75939 215.22717 214.34866 212.27213 210.79622
 210.69647 211.54306 212.93604 214.98927 217.99643 222.22523 227.84526 232.68745
 236.64435 240.93279 245.31024 249.62849 253.74203 257.45679 260.68829 263.57184
 266.31473 268.94614 271.46768 273.88885 276.03439 277.83505 279.41190 280.89191
 282.34464 283.76086 285.14462 286.47742 287.66302 288.72083 289.69876 290.60291
 291.43698 292.19662 292.86023 293.70590
 366.78100 356.35449 345.80598 334.69147 323.11396 311.32745 299.21694 287.03942
 274.77091 262.68740 250.71589 240.03638 230.17787 221.30136 213.50285 206.52434
 200.37783 195.33532 191.93681 189.99829 189.05478 189.13827 189.99276 191.32025
 193.06474 195.17923 197.46172 199.84021 202.30470 204.80419 206.91168 208.77316
 210.41865 211.58314 211.83163 212.07912 212.03561 211.76010 211.41259 211.06208
 210.69857 210.42806 210.25555 210.13904 210.08652 210.43701 210.84250 211.25099
 212.06348 213.26097 214.53046 216.33295 218.28044 220.34293 222.45742 224.55991
 226.63939 228.74288 230.85937 232.98486 235.13335 237.32484 239.60033 241.98982
 244.63031 246.90080 248.92229 250.70678 252.14326 253.28575 254.12724 254.46273
 254.51922 254.31271 253.69220 252.65969 251.28518 249.46567 247.39416 245.24665
 243.05713 240.88062 238.72011 236.57860 234.45809 232.34458 230.39007 228.56656
 226.86905 225.36054 224.01003 222.80152 221.70301 220.68249 219.80598 218.96647
 218.22796 217.42745 216.54494 215.92843 215.39792 214.43283 212.15268 210.95639
 210.65204 211.58876 213.08405 214.97557 217.88918 222.14583 227.85196 232.60089
 236.60275 240.87369 245.25873 249.57878 253.69449 257.38757 260.57657 263.41977
 266.16724 268.80359 271.33054 273.80484 276.00821 277.83075 279.41675 280.89023
 282.35684 283.78680 285.14783 286.40460 287.54340 288.58011 289.53772 290.41516
 291.18939 291.79330 292.29510 292.87515
 366.78100 356.35731 345.81162 334.69994 323.12525 311.34156 299.23387 287.05919
 274.79350 262.71281 250.74412 240.06743 230.21175 221.33806 213.54237 206.56668
 200.42300 195.38331 191.98762 190.05193 189.11124 189.19756 190.05487 191.38518
 193.13249 195.24981 197.53512 199.91643 202.38374 204.88605 206.99637 208.86068
 210.50899 211.67630 211.92762 212.17793 212.13724 211.86455 211.51986 211.17218
 210.81149 210.54380 210.37411 210.26043 210.21074 210.56405 210.97236 211.38367
 212.19899 213.39930 214.67161 216.47692 218.42724 220.49255 222.60986 224.71517
 226.79748 228.90380 231.02311 233.15142 235.30273 237.49705 239.77536 242.16767
 244.81098 247.08429 249.10861 250.89592 252.33523 253.48054 254.32486 254.66317
 254.72248 254.51879 253.90110 252.87142 251.49973 249.68304 247.61435 245.46967
 243.28298 241.10929 238.95160 236.81291 234.69523 232.58454 230.63285 228.81216
 227.11747 225.61179 224.26410 223.05841 221.96272 220.94504 220.07135 219.23466
 218.49897 217.70128 216.82160 216.20791 215.68022 214.59645 212.04083 211.04706
 210.71292 211.57069 213.09454 214.90440 217.80414 222.08844 227.79443 232.57874
 236.55432 240.83386 245.23212 249.56848 253.68903 257.39215 260.59796 263.45355
 266.19116 268.79819 271.29010 273.75308 275.95526 277.79834 279.39734 280.86978
 282.30606 283.71463 285.06815 286.32312 287.43698 288.44534 289.37119 290.21048
 290.90536 291.31873 291.63773 292.04422
 366.78100 356.35983 345.81667 334.70750 323.13533 311.35417 299.24900 287.07683
 274.81366 262.73550 250.76933 240.09516 230.24200 221.37083 213.57766 206.60450
 200.46333 195.42616 192.03300 190.09983 189.16166 189.25050 190.11033 191.44316
 193.19299 195.31283 197.60066 199.98449 202.45433 204.95916 207.07199 208.93883
 210.58966 211.75949 212.01333 212.26616 212.22799 211.95783 211.61566 211.27049
 210.91232 210.64716 210.47999 210.36882 210.32166 210.67749 211.08832 211.50216
 212.31999 213.52282 214.79766 216.60549 218.55832 220.62616 222.74599 224.85382
 226.93865 229.04749 231.16932 233.30015 235.45399 237.65082 239.93165 242.32649
 244.97232 247.24815 249.27499 251.06482 252.50665 253.65449 254.50132 254.84215
 254.90398 254.70282 254.08765 253.06048 251.69132 249.87715 247.81098 245.66882
 243.48465 241.31348 239.15832 237.02215 234.90698 232.79882 230.84965 229.03148
 227.33931 225.83615 224.49098 223.28781 222.19465 221.17948 220.30831 219.47415
 218.74098 217.94581 217.06865 216.45748 215.93231 214.75816 212.00487 210.94838
 210.91612 211.61148 212.94516 214.82309 217.77745 222.07191 227.73976 232.56357
 236.50714 240.79076 245.19362 249.53873 253.65894 257.36621 260.58899 263.47147
 266.22156 268.82047 271.31192 273.76630 275.97452 277.84406 279.46967 280.95163
 282.36646 283.73758 285.06973 286.29187 287.36841 288.38507 289.34485 290.22778
 291.07285 291.88077 292.58658 293.48602
 366.78100 356.35985 345.81670 334.70754 323.13539 311.35424 299.24909 287.07694
 274.81378 262.73563 250.76948 240.09533 230.24218 221.37102 213.57787 206.60472
 200.46357 195.42642 192.03327 190.10011 189.16196 189.25081 190.11066 191.44351
 193.19335 195.31320 197.60105 199.98490 202.45475 204.95959 207.07244 208.93929
 210.59014 211.75999 212.01383 212.26668 212.22853 211.95838 211.61623 211.27107
 210.91292 210.64777 210.48062 210.36947 210.32232 210.67816 211.08901 211.50286
 212.32071 213.52356 214.79840 216.60625 218.55910 220.62695 222.74680 224.85464
 226.93949 229.04834 231.17019 233.30104 235.45488 237.65173 239.93258 242.32743
 244.97328 247.24912 249.27597 251.06582 252.50767 253.65552 254.50237 254.84321
 254.90506 254.70391 254.08876 253.06161 251.69245 249.87830 247.81215 245.67000
 243.48585 241.31469 239.15954 237.02339 234.90824 232.80009 230.85093 229.03278
 227.34063 225.83748 224.49233 223.28917 222.19602 221.18087 220.30972 219.47557
 218.74242 217.94726 217.07011 216.45896 215.93381 214.77856 212.05318 210.77458
 211.03967 211.69197 212.96324 214.92232 217.80045 222.03163 227.71315 232.49153
 236.45201 240.71440 245.11617 249.45747 253.57436 257.26929 260.49405 263.39606
 266.20273 268.83832 271.31125 273.79602 276.03476 277.90796 279.52725 281.02014
 282.44040 283.79926 285.09512 286.31458 287.43475 288.47086 289.43497 290.32623
 291.14960 291.90289 292.58786 293.46075
 366.78100 356.35802 345.81305 334.70207 323.12809 311.34511 299.23814 287.06416
 274.79918 262.71921 250.75123 240.07525 230.22028 221.34730 213.55232 206.57734
 200.43437 195.39539 192.00041 190.06544 189.12546 189.21248 190.07051 191.40153
 193.14955 195.26757 197.55360 199.93562 202.40364 204.90667 207.01769 208.88271
 210.53174 211.69976 211.95178 212.20280 212.16283 211.89085 211.54687 211.19990
 210.83992 210.57294 210.40396 210.29099 210.24201 210.59603 211.00506 211.41708
 212.23310 213.43413 214.70715 216.51317 218.46419 220.53022 222.64824 224.75426
 226.83729 228.94431 231.06433 233.19336 235.34538 237.54040 239.81942 242.21245
 244.85647 247.13049 249.15552 250.94354 252.38356 253.52958 254.37461 254.71363
 254.77365 254.57068 253.95370 252.92472 251.55375 249.73777 247.66979 245.52581
 243.33984 241.16686 239.00988 236.87191 234.75493 232.64495 230.69398 228.87400
 227.18002 225.67504 224.32807 223.12309 222.02811 221.01114 220.13816 219.30218
 218.56721 217.77023 216.89125 216.27827 215.75130 214.69791 212.20917 210.70834
 210.85814 211.70013 213.17099 215.10976 217.86011 222.00276 227.67679 232.42271
 236.39272 240.63550 245.02901 249.35559 253.44649 257.10349 260.31213 263.24292
 266.12582 268.80338 271.28137 273.81323 276.08185 277.96240 279.53683 280.96744
 282.36548 283.72495 285.02982 286.24533 287.33273 288.36966 289.33270 290.21484
 291.01236 291.67191 292.15823 292.76730
 366.78100 356.35772 345.81243 334.70115 323.12687 311.34359 299.23630 287.06202
 274.79674 262.71646 250.74817 240.07189 230.21661 221.34333 213.54804 206.57276
 200.42948 195.39019 191.99491 190.05963 189.11935 189.20606 190.06378 191.39450
 193.14222 195.25993 197.54565 199.92737 202.39509 204.89780 207.00852 208.87324
 210.52195 211.68967 211.94139 212.19211 212.15182 211.87954 211.53526 211.18798
 210.82769 210.56041 210.39113 210.27785 210.22856 210.58228 210.99100 211.40271
 212.21843 213.41915 214.69187 216.49758 218.44830 220.51402 222.63174 224.73745
 226.82017 228.92689 231.04661 233.17532 235.32704 237.52176 239.80047 242.19319
 244.83691 247.11063 249.13534 250.92306 252.36278 253.50850 254.35321 254.69193
 254.75165 254.54837 253.93108 252.90180 251.53052 249.71423 247.64595 245.50167
 243.31539 241.14210 238.98482 236.84654 234.72926 232.61897 230.66769 228.84741
 227.15313 225.64784 224.30056 223.09528 221.99999 220.98271 220.10943 219.27315
 218.53786 217.74058 216.86130 216.24802 215.72073 214.69431 212.26926 210.81845
 210.63005 211.60680 213.28423 215.17984 217.91685 222.03268 227.66496 232.43680
 236.36909 240.62050 245.00314 249.31297 253.36304 256.97852 260.16983 263.11960
 266.02658 268.72379 271.23499 273.78345 276.07501 277.99152 279.58789 281.00638
 282.36926 283.69751 284.97815 286.17688 287.25388 288.25967 289.20328 290.06537
 290.83948 291.41162 291.75681 292.16254
 366.78100 356.35956 345.81612 334.70669 323.13425 311.35281 299.24737 287.07493
 274.81149 262.73306 250.76662 240.09218 230.23874 221.36730 213.57387 206.60043
 200.45899 195.42155 192.02811 190.09467 189.15624 189.24480 190.10436 191.43692
 193.18648 195.30605 197.59361 199.97717 202.44673 204.95129 207.06385 208.93042
 210.58098 211.75054 212.00410 212.25666 212.21823 211.94779 211.60535 211.25991
 210.90147 210.63603 210.46860 210.35716 210.30972 210.66528 211.07584 211.48941
 212.30697 213.50953 214.78409 216.59165 218.54421 220.61178 222.73134 224.83890
 226.92346 229.03202 231.15359 233.28415 235.43771 237.63427 239.91483 242.30939
 244.95496 247.23052 249.25708 251.04664 252.48820 253.63577 254.48233 254.82289
 254.88445 254.68301 254.06757 253.04014 251.67070 249.85626 247.78982 245.64738
 243.46295 241.29151 239.13607 236.99963 234.88419 232.77575 230.82632 229.00788
 227.31544 225.81200 224.46656 223.26313 222.16969 221.15425 220.28281 219.44837
 218.71493 217.91950 217.04206 216.43062 215.90518 214.79346 212.16687 210.94075
 210.65482 211.56926 213.22076 215.08505 217.88422 222.04341 227.69258 232.43820
 236.38623 240.63922 245.03371 249.35013 253.38715 256.97580 260.13412 263.04926
 265.93689 268.60422 271.12137 273.70309 275.99109 277.91794 279.53882 280.97891
 282.36066 283.68643 284.95602 286.14386 287.19110 288.15475 289.06717 289.93289
 290.71606 291.35471 291.74261 292.18945
 366.78100 356.35905 345.81510 334.70515 323.13220 311.35025 299.24430 287.07135
 274.80740 262.72845 250.76150 240.08655 230.23260 221.36065 213.56670 206.59275
 200.45080 195.41285 192.01890 190.08494 189.14599 189.23404 190.09309 191.42514
 193.17419 195.29324 197.58029 199.96334 202.43239 204.93644 207.04849 208.91454
 210.56459 211.73364 211.98669 212.23874 212.19979 211.92884 211.58589 211.23994
 210.88099 210.61504 210.44709 210.33514 210.28719 210.64224 211.05229 211.46534
 212.28239 213.48444 214.75849 216.56554 218.51759 220.58464 222.70369 224.81074
 226.89479 229.00283 231.12388 233.25393 235.40698 237.60303 239.88308 242.27713
 244.92218 247.19723 249.22328 251.01233 252.45338 253.60043 254.44648 254.78653
 254.84758 254.64563 254.02968 253.00173 251.63178 249.81683 247.74988 245.60693
 243.42198 241.25003 239.09408 236.95713 234.84118 232.73223 230.78228 228.96333
 227.27038 225.76643 224.42048 223.21653 222.12258 221.10663 220.23467 219.39972
 218.66577 217.86982 216.99187 216.37992 215.85397 214.79276 212.28798 210.78746
 210.75003 211.72107 213.12570 214.94443 217.79323 222.01482 227.64864 232.44104
 236.33186 240.61205 245.02335 249.35992 253.40446 257.00110 260.16135 263.06360
 265.88196 268.51010 271.01379 273.53564 275.84235 277.79675 279.42477 280.85852
 282.21445 283.52277 284.77777 285.95178 287.02487 288.02243 288.93512 289.77658
 290.52319 291.18030 291.75436 292.48596
 366.78100 356.35912 345.81524 334.70536 323.13248 311.35060 299.24472 287.07184
 274.80796 262.72908 250.76221 240.08733 230.23345 221.36157 213.56769 206.59381
 200.45193 195.41405 192.02017 190.08629 189.14741 189.23553 190.09465 191.42677
 193.17589 195.29501 197.58213 199.96525 202.43437 204.93850 207.05062 208.91674
 210.56686 211.73598 211.98910 212.24122 212.20234 211.93146 211.58858 211.24270
 210.88382 210.61794 210.45006 210.33818 210.29030 210.64542 211.05554 211.46867
 212.28579 213.48791 214.76203 216.56915 218.52127 220.58839 222.70751 224.81463
 226.89875 229.00687 231.12799 233.25811 235.41123 237.60735 239.88747 242.28159
 244.92671 247.20183 249.22796 251.01708 252.45820 253.60532 254.45144 254.79156
 254.85268 254.65080 254.03492 253.00704 251.63716 249.82228 247.75540 245.61252
 243.42764 241.25576 239.09988 236.96300 234.84712 232.73825 230.78837 228.96949
 227.27661 225.77273 224.42685 223.22297 222.12909 221.11321 220.24133 219.40645
 218.67257 217.87669 216.99881 216.38693 215.86105 214.84601 212.43243 210.65807
 210.70200 211.58357 213.04936 215.05289 217.96768 222.12109 227.61684 232.43236
 236.30190 240.58034 244.99530 249.33276 253.36996 256.97299 260.16339 263.11923
 265.93109 268.52673 271.03574 273.50516 275.76248 277.69031 279.30984 280.73013
 282.08588 283.39572 284.62497 285.87033 287.07083 288.19824 289.36887 290.42938
 291.38318 292.23254 292.97455 293.92014
 366.78100 356.35937 345.81574 334.70610 323.13347 311.35184 299.24621 287.07358
 274.80994 262.73131 250.76468 240.09005 230.23641 221.36478 213.57115 206.59752
 200.45589 195.41825 192.02462 190.09099 189.15236 189.24073 190.10009 191.43246
 193.18183 195.30120 197.58856 199.97193 202.44130 204.94567 207.05804 208.92440
 210.57477 211.74414 211.99751 212.24988 212.21124 211.94061 211.59798 211.25235
 210.89372 210.62808 210.46045 210.34882 210.30119 210.65655 211.06692 211.48029
 212.29766 213.50003 214.77439 216.58176 218.53413 220.60150 222.72087 224.82823
 226.91260 229.02097 231.14234 233.27270 235.42607 237.62244 239.90281 242.29718
 244.94254 247.21791 249.24428 251.03365 252.47502 253.62238 254.46875 254.80912
 254.87049 254.66886 254.05322 253.02559 251.65596 249.84133 247.77469 245.63206
 243.44743 241.27580 239.12017 236.98353 234.86790 232.75927 230.80964 228.99101
 227.29837 225.79474 224.44911 223.24548 222.15184 221.13621 220.26458 219.42995
 218.69632 217.90068 217.02305 216.41142 215.88579 214.88139 212.48030 210.61491
 210.60976 211.69090 213.24989 215.18457 218.04211 222.16516 227.60477 232.38512
 236.24792 240.51660 244.93468 249.27359 253.29327 256.86292 260.05557 263.06271
 265.95566 268.62543 271.18088 273.68674 275.97473 277.92615 279.51596 280.82169
 282.02390 283.31039 284.75446 286.13269 287.37073 288.61334 289.80698 290.88834
 291.86090 292.72696 293.48355 294.44772
 366.78100 356.35678 345.81056 334.69835 323.12313 311.33891 299.23069 287.05547
 274.78925 262.70804 250.73882 240.06160 230.20538 221.33116 213.53494 206.55873
 200.41451 195.37429 191.97807 190.04185 189.10063 189.18642 190.04320 191.37298
 193.11976 195.23654 197.52132 199.90211 202.36889 204.87067 206.98045 208.84423
 210.49201 211.65880 211.90958 212.15936 212.11814 211.84492 211.49970 211.15149
 210.79027 210.52205 210.35183 210.23761 210.18739 210.54018 210.94796 211.35874
 212.17352 213.37330 214.64508 216.44987 218.39965 220.46443 222.58121 224.68599
 226.76777 228.87356 230.99234 233.12012 235.27090 237.46468 239.74246 242.13425
 244.77703 247.04981 249.07359 250.86037 252.29915 253.44394 254.28772 254.62550
 254.68428 254.48006 253.86184 252.83163 251.45941 249.64219 247.57297 245.42775
 243.24053 241.06632 238.90810 236.76888 234.65066 232.53944 230.58722 228.76601
 227.07079 225.56457 224.21635 223.01013 221.91391 220.89570 220.02148 219.18426
 218.44804 217.64982 216.76960 216.15539 215.62717 214.71318 212.54971 210.82246
 210.42979 211.54787 213.28833 215.24612 218.05743 222.13467 227.62212 232.33824
 236.21828 240.46181 244.84692 249.13303 253.08736 256.60580 259.77814 262.78665
 265.70935 268.50684 271.17191 273.71820 276.05884 278.11279 279.85675 281.29730
 282.49295 283.56995 284.65659 285.81232 286.92984 287.93295 288.86334 289.71353
 290.49280 291.19724 291.81259 292.59683
 366.78100 356.35628 345.80956 334.69684 323.12113 311.33641 299.22769 287.05197
 274.78525 262.70353 250.73382 240.05610 230.19938 221.32466 213.52794 206.55122
 200.40651 195.36579 191.96907 190.03235 189.09063 189.17591 190.03220 191.36148
 193.10776 195.22404 197.50832 199.88860 202.35489 204.85617 206.96545 208.82873
 210.47601 211.64229 211.89258 212.14186 212.10014 211.82642 211.48070 211.13198
 210.77027 210.50155 210.33083 210.21611 210.16539 210.51767 210.92496 211.33524
 212.14952 213.34880 214.62008 216.42436 218.37365 220.43793 222.55421 224.65849
 226.73977 228.84505 230.96333 233.09062 235.24090 237.43418 239.71146 242.10274
 244.74502 247.01731 249.04059 250.82687 252.26515 253.40943 254.25271 254.59000
 254.64828 254.44356 253.82484 252.79412 251.42140 249.60369 247.53397 245.38825
 243.20053 241.02581 238.86709 236.72738 234.60866 232.49694 230.54422 228.72250
 227.02678 225.52007 224.17135 222.96463 221.86791 220.84919 219.97447 219.13676
 218.40004 217.60132 216.72060 216.10588 215.57716 214.66078 212.49576 210.99046
 210.57841 211.36435 213.18314 215.24588 218.02325 222.07077 227.64136 232.26765
 236.20261 240.43825 244.84572 249.15532 253.11609 256.58960 259.68799 262.63492
 265.53156 268.28183 270.90652 273.47000 275.85840 277.98672 279.85181 281.42654
 282.73364 283.82843 284.80530 285.74469 286.69846 287.64459 288.49997 289.33493
 290.10876 290.79965 291.40216 292.13187
 366.78100 356.35694 345.81088 334.69882 323.12376 311.33970 299.23164 287.05658
 274.79052 262.70946 250.74040 240.06334 230.20728 221.33322 213.53717 206.56111
 200.41705 195.37699 191.98093 190.04487 189.10381 189.18975 190.04669 191.37663
 193.12357 195.24051 197.52545 199.90639 202.37333 204.87527 206.98521 208.84915
 210.49709 211.66403 211.91497 212.16491 212.12385 211.85079 211.50573 211.15767
 210.79661 210.52855 210.35850 210.24444 210.19438 210.54732 210.95526 211.36620
 212.18114 213.38108 214.65302 216.45796 218.40790 220.47284 222.58978 224.69472
 226.77666 228.88260 231.00154 233.12948 235.28042 237.47436 239.75230 242.14424
 244.78718 247.06012 249.08406 250.87100 252.30994 253.45488 254.29883 254.63677
 254.69571 254.49165 253.87359 252.84353 251.47147 249.65441 247.58535 245.44029
 243.25323 241.07917 238.92111 236.78205 234.66399 232.55293 230.60087 228.77981
 227.08475 225.57869 224.23063 223.02457 221.92851 220.91045 220.03639 219.19933
 218.46327 217.66521 216.78516 216.17110 215.64304 214.70229 212.47966 210.92247
 210.70322 211.32462 213.06499 215.26981 218.09033 222.10670 227.62978 232.28223
 236.18929 240.44777 244.86877 249.20209 253.18480 256.66010 259.73972 262.66010
 265.54492 268.26178 270.82236 273.34451 275.70721 277.82422 279.68948 281.29218
 282.64148 283.77896 284.75900 285.66843 286.58585 287.46716 288.31384 289.16452
 289.94760 290.64786 291.25824 292.01419
 366.78100 356.35579 345.80858 334.69538 323.11917 311.33396 299.22475 287.04854
 274.78133 262.69913 250.72892 240.05071 230.19350 221.31829 213.52109 206.54388
 200.39867 195.35746 191.96025 190.02304 189.08084 189.16563 190.02142 191.35021
 193.09600 195.21180 197.49559 199.87538 202.34117 204.84196 206.95075 208.81355
 210.46034 211.62613 211.87592 212.12471 212.08251 211.80830 211.46209 211.11288
 210.75067 210.48147 210.31026 210.19505 210.14384 210.49563 210.90242 211.31222
 212.12601 213.32480 214.59559 216.39938 218.34818 220.41197 222.52776 224.63155
 226.71234 228.81713 230.93493 233.06172 235.21151 237.40430 239.68109 242.07189
 244.71368 246.98547 249.00826 250.79405 252.23184 253.37564 254.21843 254.55522
 254.61301 254.40780 253.78860 252.75739 251.38418 249.56597 247.49576 245.34955
 243.16135 240.98614 238.82693 236.68672 234.56751 232.45531 230.50210 228.67989
 226.98368 225.47647 224.12726 222.92006 221.82285 220.80364 219.92843 219.09022
 218.35302 217.55381 216.67260 216.05739 215.52818 214.64706 212.56534 210.92387
 210.71883 211.28990 212.95976 215.24171 218.10617 222.12560 227.61577 232.27039
 236.16301 240.43335 244.86472 249.21254 253.19742 256.64764 259.69830 262.61365
 265.52148 268.24344 270.78387 273.29718 275.64786 277.74597 279.59030 281.18640
 282.53732 283.67679 284.63666 285.53137 286.44000 287.31107 288.23297 289.09357
 289.88129 290.58545 291.19815 291.96353
 366.78100 356.35391 345.80481 334.68972 323.11162 311.32453 299.21343 287.03534
 274.76624 262.68215 250.71005 240.02996 230.17086 221.29377 213.49468 206.51558
 200.36849 195.32539 191.92630 189.98720 189.04311 189.12601 189.97992 191.30682
 193.05073 195.16463 197.44654 199.82445 202.28835 204.78726 206.89416 208.75507
 210.39997 211.56388 211.81178 212.05869 212.01459 211.73850 211.39040 211.03931
 210.67522 210.40412 210.23103 210.11393 210.06084 210.41074 210.81565 211.22355
 212.03546 213.23236 214.50127 216.30317 218.25008 220.31199 222.42589 224.52780
 226.60670 228.70961 230.82551 232.95042 235.09832 237.28923 239.56413 241.95304
 244.59294 246.86285 248.88376 250.66766 252.10357 253.24547 254.08638 254.42128
 254.47719 254.27009 253.64900 252.61590 251.24081 249.42071 247.34862 245.20053
 243.01043 240.83334 238.67224 236.53015 234.40905 232.29496 230.33986 228.51577
 226.81767 225.30858 223.95748 222.74839 221.64930 220.62820 219.75111 218.91101
 218.17192 217.37082 216.48773 215.87063 215.33954 214.54753 212.67630 210.95888
 210.72316 211.26299 212.91245 215.23152 218.10207 222.12434 227.60124 232.23680
 236.12227 240.39317 244.83316 249.19229 253.17102 256.58575 259.60657 262.52667
 265.46054 268.19232 270.73178 273.25830 275.61832 277.72018 279.55762 281.14032
 282.46826 283.57974 284.49896 285.36395 286.27661 287.17575 288.10876 288.96448
 289.73657 290.42621 291.03308 291.81885
 366.78100 356.35338 345.80376 334.68815 323.10953 311.32191 299.21029 287.03167
 274.76206 262.67744 250.70482 240.02420 230.16458 221.28697 213.48735 206.50773
 200.36011 195.31649 191.91688 189.97726 189.03264 189.11502 189.96840 191.29479
 193.03817 195.15155 197.43293 199.81031 202.27370 204.77208 206.87846 208.73884
 210.38322 211.54661 211.79399 212.04037 211.99575 211.71913 211.37052 211.01890
 210.65428 210.38266 210.20904 210.09143 210.03781 210.38719 210.79157 211.19895
 212.01034 213.20672 214.47510 216.27648 218.22286 220.28425 222.39763 224.49901
 226.57739 228.67977 230.79516 232.91954 235.06692 237.25730 239.53168 241.92007
 244.55945 246.82883 248.84921 250.63259 252.06798 253.20936 254.04974 254.38412
 254.43950 254.23189 253.61027 252.57665 251.20103 249.38041 247.30780 245.15918
 242.96856 240.79094 238.62932 236.48671 234.36509 232.25047 230.29485 228.47023
 226.77162 225.26200 223.91038 222.70076 221.60114 220.57953 219.70191 218.86129
 218.12167 217.32005 216.43644 215.81882 215.28720 214.51912 212.70445 211.04138
 210.72121 211.20541 212.88667 215.24026 218.10033 222.13509 227.60690 232.22754
 236.09294 240.35876 244.80428 249.17070 253.14452 256.53384 259.53690 262.46701
 265.42114 268.15573 270.68600 273.20984 275.57635 277.68900 279.53122 281.10455
 282.40637 283.48511 284.35941 285.19952 286.11469 287.04794 287.97565 288.82895
 289.59668 290.28372 290.88678 291.66907
 366.78100 356.35367 345.80433 334.68900 323.11067 311.32334 299.21200 287.03367
 274.76434 262.68000 250.70767 240.02734 230.16800 221.29067 213.49134 206.51201
 200.36467 195.32134 191.92201 189.98267 189.03834 189.12101 189.97467 191.30134
 193.04501 195.15868 197.44034 199.81801 202.28168 204.78034 206.88701 208.74768
 210.39235 211.55601 211.80368 212.05035 212.00601 211.72968 211.38135 211.03001
 210.66568 210.39435 210.22102 210.10368 210.05035 210.40002 210.80468 211.21235
 212.02402 213.22069 214.48935 216.29102 218.23769 220.29935 222.41302 224.51469
 226.59335 228.69602 230.81169 232.93636 235.08402 237.27469 239.54936 241.93802
 244.57769 246.84736 248.86802 250.65169 252.08736 253.22903 254.06969 254.40436
 254.46003 254.25269 253.63136 252.59803 251.22270 249.40236 247.33003 245.18170
 242.99136 240.81403 238.65270 236.51036 234.38903 232.27470 230.31937 228.49503
 226.79670 225.28737 223.93603 222.72670 221.62737 220.60604 219.72870 218.88837
 218.14904 217.34770 216.46437 215.84704 215.31570 214.53250 212.68211 211.17258
 210.71078 211.15031 212.84666 215.21014 218.07733 222.14832 227.62076 232.23283
 236.07610 240.33806 244.78822 249.15729 253.12080 256.48294 259.47220 262.41513
 265.38812 268.12836 270.65002 273.15668 275.51511 277.63031 279.47687 281.04398
 282.32767 283.38608 284.23282 285.05649 285.97934 286.93085 287.83725 288.68530
 289.45538 290.14185 290.74530 291.52081
 366.78100 356.35298 345.80295 334.68693 323.10790 311.31988 299.20785 287.02883
 274.75880 262.67378 250.70075 240.01973 230.15970 221.28168 213.48165 206.50163
 200.35360 195.30958 191.90955 189.96953 189.02450 189.10648 189.95945 191.28543
 193.02840 195.14138 197.42235 199.79933 202.26230 204.76028 206.86625 208.72623
 210.37020 211.53318 211.78015 212.02613 211.98110 211.70408 211.35505 211.00303
 210.63800 210.36598 210.19195 210.07393 210.01990 210.36888 210.77285 211.17983
 211.99080 213.18678 214.45475 216.25573 218.20170 220.26268 222.37565 224.47663
 226.55460 228.65658 230.77155 232.89553 235.04250 237.23248 239.50645 241.89443
 244.53340 246.80238 248.82235 250.60533 252.04030 253.18128 254.02125 254.35523
 254.41020 254.20218 253.58015 252.54613 251.17010 249.34908 247.27605 245.12703
 242.93600 240.75798 238.59595 236.45293 234.33090 232.21588 230.25985 228.43483
 226.73581 225.22578 223.87376 222.66373 221.56371 220.54168 219.66366 218.82263
 218.08261 217.28058 216.39656 215.77853 215.24651 214.49629 212.72386 211.25308
 210.71141 211.14568 212.81293 215.14229 218.03876 222.14050 227.61720 232.21889
 236.06039 240.32681 244.78604 249.16107 253.11258 256.44382 259.41107 262.36023
 265.34274 268.08765 270.60693 273.09744 275.43909 277.54926 279.40125 280.97000
 282.24728 283.29358 284.11658 284.92776 285.87640 286.82068 287.71631 288.56442
 289.33517 290.02078 290.62576 291.39459
 366.78100 356.35109 345.79918 334.68127 323.10035 311.31044 299.19653 287.01562
 274.74371 262.65680 250.68189 239.99897 230.13706 221.25715 213.45524 206.47333
 200.32342 195.27751 191.87560 189.93368 188.98677 189.06686 189.91795 191.24204
 192.98313 195.09422 197.37330 199.74839 202.20948 204.70557 206.80966 208.66775
 210.30984 211.47092 211.71601 211.96010 211.91319 211.63428 211.28337 210.92946
 210.56254 210.28863 210.11272 209.99281 209.93690 210.28399 210.68608 211.09116
 211.90025 213.09434 214.36043 216.15952 218.10361 220.16270 222.27379 224.37287
 226.44896 228.54905 230.66214 232.78423 234.92932 237.11741 239.38949 241.77558
 244.41267 246.67976 248.69785 250.47894 251.91203 253.05111 253.88920 254.22129
 254.27438 254.06447 253.44056 252.40465 251.02673 249.20382 247.12891 244.97800
 242.78509 240.60518 238.44127 236.29635 234.17244 232.05553 230.09762 228.27071
 226.56980 225.05789 223.70398 222.49206 221.39015 220.36624 219.48633 218.64342
 217.90151 217.09760 216.21168 215.59177 215.05786 214.39894 212.84219 211.27098
 210.72415 211.16147 212.79099 215.07063 218.00005 222.11621 227.59647 232.18268
 236.04207 240.31447 244.78839 249.17508 253.12408 256.43182 259.37646 262.32065
 265.29742 268.03601 270.54971 273.02435 275.34097 277.42896 279.27243 280.83838
 282.12305 283.17963 284.02368 284.84790 285.77847 286.71689 287.62164 288.47070
 289.24371 289.93188 290.53574 291.31448
 366.78100 356.34951 345.79602 334.67652 323.09403 311.30254 299.18705 287.00455
 274.73106 262.64257 250.66608 239.98159 230.11809 221.23660 213.43311 206.44962
 200.29812 195.25063 191.84714 189.90365 188.95516 189.03366 189.88317 191.20568
 192.94519 195.05470 197.33220 199.70571 202.16522 204.65973 206.76223 208.61874
 210.25925 211.41876 211.66227 211.90477 211.85628 211.57579 211.22330 210.86780
 210.49931 210.22382 210.04633 209.92484 209.86734 210.21285 210.61336 211.01687
 211.82437 213.01688 214.28139 216.07890 218.02141 220.07891 222.18842 224.28593
 226.36044 228.45894 230.57045 232.69096 234.83447 237.02098 239.29148 241.67599
 244.31150 246.57701 248.59351 250.37302 251.80453 252.94204 253.77855 254.10905
 254.16056 253.94907 253.32358 252.28609 250.90659 249.08210 247.00561 244.85312
 242.65862 240.47713 238.31164 236.16515 234.03966 231.92116 229.96167 228.13318
 226.43069 224.91719 223.56170 222.34821 221.24472 220.21923 219.33773 218.49324
 217.74975 216.94426 216.05676 215.43527 214.89978 214.31546 212.93494 211.32182
 210.74820 211.14291 212.74786 215.01360 217.96912 222.09360 227.57562 232.14888
 236.02641 240.30145 244.78740 249.18684 253.13925 256.43640 259.36749 262.30701
 265.27002 267.99460 270.49414 272.94910 275.23495 277.28500 279.09702 280.63663
 281.90454 282.94409 283.79834 284.66861 285.68832 286.69110 287.62778 288.48526
 289.26221 289.95721 290.57181 291.39127
 366.78100 356.34920 345.79539 334.67559 323.09278 311.30098 299.18517 287.00237
 274.72857 262.63976 250.66296 239.97815 230.11435 221.23254 213.42874 206.44494
 200.29313 195.24533 191.84152 189.89772 188.94892 189.02711 189.87631 191.19850
 192.93770 195.04689 197.32409 199.69729 202.15648 204.65068 206.75287 208.60907
 210.24926 211.40846 211.65166 211.89385 211.84505 211.56424 211.21144 210.85563
 210.48683 210.21103 210.03322 209.91142 209.85361 210.19881 210.59900 211.00220
 211.80940 213.00159 214.26579 216.06298 218.00518 220.06238 222.17157 224.26877
 226.34296 228.44116 230.55235 232.67255 234.81575 237.00194 239.27214 241.65633
 244.29153 246.55672 248.57292 250.35212 251.78331 252.92051 253.75670 254.08690
 254.13809 253.92629 253.30049 252.26268 250.88288 249.05807 246.98127 244.82847
 242.63366 240.45186 238.28605 236.13925 234.01344 231.89464 229.93484 228.10603
 226.40323 224.88942 223.53362 222.31981 221.21601 220.19021 219.30840 218.46360
 217.71979 216.91399 216.02618 215.40438 214.86858 214.29578 212.94252 211.43806
 210.80702 211.11073 212.66643 214.94438 217.92369 222.07663 227.56192 232.13412
 236.01820 240.28804 244.78156 249.18665 253.13939 256.43250 259.36469 262.31122
 265.26450 267.97388 270.45493 272.87875 275.11914 277.11469 278.88437 280.39316
 281.63513 282.64838 283.52646 284.48755 285.56390 286.59058 287.53864 288.40463
 289.19379 289.90411 290.52124 291.31772
 366.78100 356.34934 345.79567 334.67601 323.09334 311.30168 299.18602 287.00335
 274.72969 262.64102 250.66436 239.97969 230.11603 221.23437 213.43070 206.44704
 200.29537 195.24771 191.84405 189.90038 188.95172 189.03005 189.87939 191.20172
 192.94106 195.05040 197.32773 199.70107 202.16040 204.65474 206.75708 208.61341
 210.25375 211.41308 211.65642 211.89875 211.85009 211.56943 211.21676 210.86110
 210.49243 210.21677 210.03911 209.91744 209.85978 210.20511 210.60545 211.00878
 211.81612 213.00846 214.27279 216.07013 218.01246 220.06980 222.17914 224.27647
 226.35081 228.44914 230.56048 232.68081 234.82415 237.01049 239.28082 241.66516
 244.30049 246.56583 248.58217 250.36150 251.79284 252.93017 253.76651 254.09684
 254.14818 253.93652 253.31085 252.27319 250.89352 249.06886 246.99220 244.83953
 242.64487 240.46320 238.29754 236.15087 234.02521 231.90655 229.94688 228.11822
 226.41555 224.90189 223.54623 222.33256 221.22890 220.20323 219.32157 218.47690
 217.73324 216.92758 216.03991 215.41825 214.88258 214.30774 212.94963 211.52191
 210.90779 211.12225 212.55019 214.85280 217.87639 222.06317 227.52745 232.14357
 235.99641 240.27794 244.76910 249.16838 253.10780 256.41208 259.37283 262.34177
 265.28604 268.00104 270.47641 272.84985 275.02765 276.94897 278.64450 280.10019
 281.31070 282.32071 283.24731 284.31198 285.47720 286.52402 287.48456 288.36566
 289.17300 289.90579 290.60510 291.51218
 366.78100 356.34767 345.79234 334.67100 323.08667 311.29334 299.17601 286.99168
 274.71634 262.62601 250.64768 239.96135 230.09601 221.21268 213.40735 206.42202
 200.26869 195.21935 191.81402 189.86869 188.91836 188.99503 189.84269 191.16336
 192.90103 195.00870 197.28437 199.65603 202.11370 204.60637 206.70704 208.56170
 210.20037 211.35804 211.59971 211.84038 211.79004 211.50771 211.15338 210.79605
 210.42572 210.14838 209.96905 209.84572 209.78639 210.13006 210.52872 210.93039
 211.73606 212.92673 214.18939 215.98506 217.92573 219.98140 222.08907 224.18473
 226.25740 228.35407 230.46374 232.58241 234.72407 236.90874 239.17741 241.56008
 244.19375 246.45741 248.47208 250.24975 251.67942 252.81508 253.64975 253.97842
 254.02809 253.81476 253.18742 252.14809 250.76676 248.94043 246.86210 244.70776
 242.51143 240.32810 238.16077 236.01244 233.88510 231.76477 229.80344 227.97311
 226.26878 224.75344 223.39611 222.18078 221.07545 220.04811 219.16478 218.31845
 217.57312 216.76579 215.87645 215.25312 214.71579 214.24257 213.10185 211.54291
 210.91042 211.13954 212.42558 214.73611 217.86333 222.06645 227.48119 232.18411
 235.98756 240.27779 244.76036 249.13231 253.03801 256.36536 259.38654 262.38367
 265.31607 268.03772 270.54813 272.89218 275.01010 276.86929 278.49908 279.89658
 281.06558 282.06622 283.06552 284.20059 285.38669 286.44934 287.43311 288.40005
 289.34033 290.17764 290.90909 291.84125
 366.78100 356.34820 345.79341 334.67261 323.08881 311.29602 299.17922 286.99542
 274.72062 262.63083 250.65303 239.96723 230.10244 221.21964 213.41484 206.43005
 200.27725 195.22845 191.82365 189.87886 188.92906 189.00626 189.85447 191.17567
 192.91387 195.02208 197.29828 199.67048 202.12868 204.62189 206.72309 208.57829
 210.21750 211.37570 211.61790 211.85911 211.80931 211.52751 211.17371 210.81692
 210.44712 210.17032 209.99153 209.86873 209.80993 210.15414 210.55334 210.95554
 211.76175 212.95295 214.21615 216.01235 217.95356 220.00976 222.11796 224.21417
 226.28737 228.38457 230.49478 232.61398 234.75618 236.94138 239.21059 241.59379
 244.22799 246.49220 248.50740 250.28560 251.71581 252.85201 253.68721 254.01641
 254.06662 253.85382 253.22702 252.18823 250.80743 248.98163 246.90384 244.75004
 242.55424 240.37144 238.20465 236.05685 233.93005 231.81026 229.84946 228.01966
 226.31587 224.80107 223.44427 222.22948 221.12468 220.09788 219.21508 218.36929
 217.62449 216.81769 215.92890 215.30610 214.76930 214.28767 213.10228 211.68172
 210.91821 211.08492 212.41920 214.72195 217.89557 222.08908 227.48093 232.17819
 235.99425 240.28427 244.77167 249.13271 253.01071 256.31546 259.36060 262.38843
 265.34470 268.07257 270.59949 272.94241 275.03568 276.86642 278.46436 279.83734
 280.98352 282.01666 283.07468 284.42654 285.67538 286.95605 288.18118 289.29108
 290.28928 291.17822 291.95474 292.94437
 366.78100 356.34880 345.79461 334.67441 323.09122 311.29902 299.18282 286.99963
 274.72543 262.63624 250.65904 239.97384 230.10965 221.22745 213.42326 206.43906
 200.28687 195.23867 191.83447 189.89028 188.94108 189.01889 189.86769 191.18949
 192.92830 195.03710 197.31391 199.68671 202.14551 204.63932 206.74112 208.59693
 210.23673 211.39553 211.63834 211.88014 211.83095 211.54975 211.19655 210.84036
 210.47116 210.19497 210.01677 209.89457 209.83638 210.18118 210.58099 210.98379
 211.79060 212.98240 214.24620 216.04301 217.98481 220.04162 222.15042 224.24722
 226.32103 228.41883 230.52964 232.64944 234.79224 236.97805 239.24785 241.63166
 244.26646 246.53126 248.54707 250.32587 251.75668 252.89348 253.72928 254.05909
 254.10989 253.89770 253.27150 252.23331 250.85311 249.02791 246.95072 244.79752
 242.60233 240.42013 238.25393 236.10674 233.98054 231.86135 229.90115 228.07195
 226.36876 224.85456 223.49837 222.28417 221.17997 220.15378 219.27158 218.42639
 217.68219 216.87599 215.98780 215.36560 214.82941 214.32243 213.08369 211.73235
 211.04820 211.09650 212.31508 214.63049 217.85103 222.07939 227.49606 232.20316
 236.02122 240.30478 244.79391 249.15387 253.01350 256.27631 259.29700 262.33929
 265.29791 268.01816 270.53964 272.89429 274.98093 276.79001 278.38211 279.74588
 280.89429 281.95059 283.21747 284.59351 285.85632 287.10309 288.26520 289.31799
 290.26486 291.10806 291.84467 292.78339
 366.78100 356.34826 345.79352 334.67279 323.08905 311.29631 299.17957 286.99584
 274.72110 262.63136 250.65362 239.96788 230.10315 221.22041 213.41567 206.43093
 200.27820 195.22946 191.82472 189.87998 188.93024 189.00751 189.85577 191.17703
 192.91529 195.02356 197.29982 199.67208 202.13034 204.62360 206.72487 208.58013
 210.21939 211.37765 211.61992 211.86118 211.81144 211.52970 211.17596 210.81923
 210.44949 210.17275 209.99401 209.87128 209.81254 210.15680 210.55606 210.95832
 211.76459 212.95585 214.21911 216.01537 217.95664 220.01290 222.12116 224.21742
 226.29068 228.38795 230.49821 232.61747 234.75973 236.94500 239.21426 241.59752
 244.23178 246.49604 248.51131 250.28957 251.71983 252.85609 253.69136 254.02062
 254.07088 253.85814 253.23140 252.19267 250.81193 248.98619 246.90845 244.75472
 242.55898 240.37624 238.20950 236.06176 233.93503 231.81529 229.85455 228.02481
 226.32108 224.80634 223.44960 222.23486 221.13012 220.10339 219.22065 218.37491
 217.63017 216.82344 215.93470 215.31196 214.77522 214.27750 213.08928 211.90811
 211.09663 210.88237 212.10651 214.53014 217.78757 222.04910 227.49368 232.21667
 236.04178 240.32616 244.79179 249.12912 252.98361 256.27878 259.30286 262.31891
 265.24448 267.95023 270.43561 272.71985 274.73431 276.47620 278.03610 279.44775
 280.71686 281.89517 283.08026 284.37827 285.56830 286.64590 287.66592 288.65475
 289.55820 290.36273 291.06555 291.96121
 366.78100 356.34808 345.79316 334.67224 323.08833 311.29541 299.17849 286.99457
 274.71965 262.62973 250.65181 239.96590 230.10098 221.21806 213.41314 206.42822
 200.27530 195.22638 191.82147 189.87655 188.92663 189.00371 189.85179 191.17287
 192.91095 195.01904 197.29512 199.66720 202.12528 204.61836 206.71944 208.57452
 210.21361 211.37169 211.61377 211.85485 211.80493 211.52301 211.16909 210.81218
 210.44226 210.16534 209.98642 209.86350 209.80458 210.14866 210.54774 210.94983
 211.75591 212.94699 214.21007 216.00615 217.94723 220.00331 222.11140 224.20748
 226.28056 228.37764 230.48772 232.60680 234.74888 236.93397 239.20305 241.58613
 244.22021 246.48429 248.49937 250.27745 251.70754 252.84362 253.67870 254.00778
 254.05786 253.84494 253.21802 252.17911 250.79819 248.97227 246.89435 244.74043
 242.54451 240.36159 238.19468 236.04676 233.91984 231.79992 229.83900 228.00908
 226.30516 224.79025 223.43333 222.21841 221.11349 220.08657 219.20365 218.35773
 217.61282 216.80590 215.91698 215.29406 214.75714 214.26030 213.08276 212.00261
 211.34404 210.92285 211.95126 214.40947 217.69203 221.96574 227.44553 232.15118
 236.01631 240.30695 244.77856 249.12440 252.97835 256.27081 259.29507 262.34100
 265.28058 267.98056 270.44775 272.69858 274.65173 276.30582 277.79041 279.15253
 280.38156 281.53888 282.71954 284.01456 285.19861 286.25534 287.24033 288.14880
 289.01965 289.82281 290.52444 291.41861
 366.78100 356.34718 345.79136 334.66955 323.08473 311.29091 299.17309 286.98827
 274.71245 262.62164 250.64282 239.95600 230.09018 221.20636 213.40054 206.41473
 200.26091 195.21109 191.80527 189.85945 188.90864 188.98482 189.83200 191.15218
 192.88936 194.99654 197.27173 199.64291 202.10009 204.59227 206.69245 208.54663
 210.18482 211.34200 211.58318 211.82336 211.77254 211.48972 211.13491 210.77709
 210.40627 210.12845 209.94863 209.82482 209.76500 210.10818 210.50636 210.90754
 211.71272 212.90291 214.16509 215.96027 217.90045 219.95563 222.06281 224.15800
 226.23018 228.32636 230.43554 232.55372 234.69491 236.87909 239.14727 241.52945
 244.16263 246.42581 248.44000 250.21718 251.64636 252.78154 253.61572 253.94390
 253.99309 253.77927 253.15145 252.11163 250.72981 248.90299 246.82418 244.66936
 242.47254 240.28872 238.12090 235.97209 233.84427 231.72345 229.76163 227.93081
 226.22599 224.71018 223.35236 222.13654 221.03072 220.00290 219.11908 218.27227
 217.52645 216.71863 215.82881 215.20499 214.66718 214.23174 213.18135 211.95390
 211.36180 210.91866 211.86221 214.35970 217.70122 221.96529 227.40843 232.16235
 236.00925 240.30934 244.78433 249.11852 252.96021 256.25125 259.31104 262.37024
 265.30560 267.99524 270.44879 272.67480 274.56448 276.13226 277.56863 278.92249
 280.18024 281.35767 282.56476 283.82492 285.01825 286.10126 287.13831 288.16238
 289.08347 289.90366 290.62018 291.53333
 366.78100 356.34768 345.79236 334.67104 323.08671 311.29339 299.17607 286.99175
 274.71643 262.62611 250.64779 239.96146 230.09614 221.21282 213.40750 206.42218
 200.26886 195.21954 191.81421 189.86889 188.91857 188.99525 189.84293 191.16361
 192.90129 195.00896 197.28464 199.65632 202.11400 204.60668 206.70736 208.56204
 210.20071 211.35839 211.60007 211.84075 211.79043 211.50811 211.15379 210.79646
 210.42614 210.14882 209.96950 209.84618 209.78686 210.13054 210.52921 210.93089
 211.73657 212.92725 214.18993 215.98561 217.92629 219.98196 222.08964 224.18532
 226.25800 228.35468 230.46436 232.58304 234.72471 236.90939 239.17807 241.56075
 244.19443 246.45811 248.47279 250.25046 251.68014 252.81582 253.65050 253.97918
 254.02886 253.81554 253.18821 252.14889 250.76757 248.94125 246.86293 244.70861
 242.51229 240.32896 238.16164 236.01332 233.88600 231.76568 229.80436 227.97404
 226.26971 224.75439 223.39707 222.18175 221.07643 220.04911 219.16579 218.31947
 217.57414 216.76682 215.87750 215.25418 214.71686 214.28329 213.20540 211.95790
 211.44429 211.03464 211.94749 214.38326 217.72501 221.97319 227.40796 232.15846
 236.02408 240.32260 244.80875 249.13969 252.97765 256.25745 259.34448 262.43521
 265.36383 268.03705 270.46533 272.61462 274.40317 275.90939 277.30499 278.64777
 279.90561 281.02835 282.51938 283.91949 285.24237 286.50302 287.65317 288.69516
 289.63229 290.46680 291.19583 292.12488
 366.78100 356.34731 345.79162 334.66993 323.08523 311.29154 299.17385 286.98916
 274.71347 262.62278 250.64408 239.95739 230.09170 221.20801 213.40232 206.41663
 200.26293 195.21324 191.80755 189.86186 188.91117 188.98748 189.83478 191.15509
 192.89240 194.99971 197.27502 199.64633 202.10364 204.59594 206.69625 208.55056
 210.18887 211.34618 211.58749 211.82779 211.77710 211.49441 211.13972 210.78203
 210.41134 210.13364 209.95395 209.83026 209.77057 210.11388 210.51219 210.91349
 211.71880 212.90911 214.17142 215.96673 217.90704 219.96235 222.06965 224.16496
 226.23727 228.33358 230.44289 232.56120 234.70250 236.88681 239.15512 241.53743
 244.17074 246.43405 248.44835 250.22566 251.65497 252.79028 253.62459 253.95290
 254.00220 253.78851 253.16082 252.12113 250.73944 248.91275 246.83406 244.67936
 242.48267 240.29898 238.13129 235.98260 233.85491 231.73421 229.77252 227.94183
 226.23714 224.72145 223.36376 222.14806 221.04237 220.01468 219.13099 218.28430
 217.53861 216.73091 215.84122 215.21753 214.67984 214.27274 213.25307 211.97078
 211.45834 211.12514 211.92938 214.26059 217.61049 221.91237 227.35754 232.13167
 236.01263 240.32002 244.81282 249.14001 252.95303 256.22687 259.33411 262.47922
 265.43698 268.12561 270.57080 272.72211 274.42078 275.76706 277.04895 278.32483
 279.56775 281.00949 282.53760 283.93079 285.21704 286.45914 287.59235 288.61899
 289.54233 290.36453 291.08282 291.99820
 366.78100 356.34631 345.78961 334.66692 323.08123 311.28654 299.16784 286.98215
 274.70546 262.61377 250.63407 239.94638 230.07969 221.19499 213.38830 206.40161
 200.24692 195.19622 191.78953 189.84284 188.89115 188.96645 189.81276 191.13207
 192.86837 194.97468 197.24899 199.61930 202.07560 204.56691 206.66622 208.51953
 210.15683 211.31314 211.55345 211.79275 211.74106 211.45737 211.10168 210.74298
 210.37129 210.09260 209.91191 209.78721 209.72652 210.06883 210.46613 210.86644
 211.67075 212.86006 214.12136 215.91567 217.85498 219.90929 222.01559 224.10990
 226.18121 228.27651 230.38482 232.50213 234.64244 236.82574 239.09305 241.47436
 244.10667 246.36897 248.38228 250.15859 251.58689 252.72120 253.55451 253.88182
 253.93012 253.71543 253.08674 252.04605 250.66335 248.83566 246.75597 244.60027
 242.40258 240.21789 238.04920 235.89950 233.77081 231.64912 229.68643 227.85473
 226.14904 224.63235 223.27365 222.05696 220.95027 219.92158 219.03688 218.18919
 217.44250 216.63381 215.74311 215.11842 214.57973 214.19537 213.27650 212.19872
 211.41440 210.96869 211.79541 214.10385 217.48210 221.82976 227.33018 232.09087
 236.01024 240.31508 244.76711 249.05478 252.86174 256.18750 259.31845 262.43466
 265.40216 268.11200 270.56516 272.71429 274.45126 275.82919 277.09357 278.37018
 279.62643 280.86252 282.20642 283.55859 284.75320 285.83047 286.83286 287.78021
 288.68414 289.48914 290.19232 291.08847
 366.78100 356.34568 345.78837 334.66505 323.07873 311.28342 299.16410 286.97778
 274.70047 262.60815 250.62783 239.93952 230.07220 221.18688 213.37957 206.39225
 200.23693 195.18562 191.77830 189.83098 188.87867 188.95335 189.79903 191.11772
 192.85340 194.95908 197.23277 199.60245 202.05813 204.54882 206.64750 208.50018
 210.13687 211.29255 211.53223 211.77092 211.71860 211.43428 211.07797 210.71865
 210.34633 210.06702 209.88570 209.76038 209.69907 210.04075 210.43743 210.83712
 211.64080 212.82948 214.09017 215.88385 217.82253 219.87622 221.98190 224.07558
 226.14627 228.24095 230.34863 232.46532 234.60500 236.78768 239.05437 241.43505
 244.06673 246.32842 248.34110 250.11678 251.54447 252.67815 253.51083 253.83752
 253.88520 253.66988 253.04057 251.99925 250.61593 248.78762 246.70730 244.55098
 242.35267 240.16735 237.99803 235.84772 233.71840 231.59608 229.63277 227.80045
 226.09413 224.57682 223.21750 222.00018 220.89287 219.86355 218.97823 218.12992
 217.38260 216.57328 215.68197 215.05665 214.51733 214.14528 213.26627 212.37764
 211.59557 210.97633 211.67731 213.97110 217.35069 221.73666 227.33301 231.99777
 235.97981 240.27592 244.73746 249.03261 252.82069 256.11679 259.24219 262.41061
 265.41138 268.11151 270.54871 272.69522 274.45334 275.83035 277.11072 278.42654
 279.71777 280.95850 282.19095 283.35815 284.45612 285.47720 286.42984 287.27786
 288.02545 288.70364 289.32700 290.15359
 366.78100 356.34612 345.78924 334.66636 323.08048 311.28560 299.16672 286.98084
 274.70396 262.61208 250.63220 239.94432 230.07744 221.19256 213.38568 206.39880
 200.24392 195.19304 191.78616 189.83928 188.88739 188.96251 189.80863 191.12775
 192.86387 194.96999 197.24411 199.61423 202.07035 204.56147 206.66059 208.51371
 210.15083 211.30695 211.54707 211.78619 211.73431 211.45043 211.09455 210.73567
 210.36379 210.08491 209.90403 209.77915 209.71827 210.06039 210.45751 210.85763
 211.66175 212.85087 214.11199 215.90611 217.84523 219.89935 222.00547 224.09959
 226.17071 228.26583 230.37394 232.49106 234.63118 236.81430 239.08142 241.46254
 244.09466 246.35678 248.36990 250.14602 251.57414 252.70826 253.54138 253.86850
 253.91662 253.70174 253.07286 252.03198 250.64910 248.82122 246.74134 244.58546
 242.38758 240.20270 238.03382 235.88394 233.75506 231.63318 229.67030 227.83842
 226.13254 224.61566 223.25678 222.03990 220.93302 219.90414 219.01926 218.17138
 217.42450 216.61561 215.72473 215.09985 214.56097 214.17523 213.26387 212.42792
 211.69144 211.00061 211.61916 213.96310 217.35423 221.72028 227.29541 231.96550
 235.93886 240.23354 244.68698 248.96323 252.71411 255.99773 259.16718 262.40671
 265.44135 268.15784 270.59482 272.74680 274.49072 275.85861 277.14890 278.50031
 279.83072 281.07971 282.26447 283.40009 284.44818 285.48904 286.45358 287.27689
 287.97153 288.64941 289.27689 290.11688
 366.78100 356.34617 345.78933 334.66650 323.08066 311.28583 299.16699 286.98116
 274.70432 262.61249 250.63265 239.94482 230.07798 221.19315 213.38631 206.39948
 200.24464 195.19381 191.78697 189.84014 188.88830 188.96347 189.80963 191.12880
 192.86497 194.97113 197.24530 199.61546 202.07163 204.56279 206.66196 208.51512
 210.15229 211.30845 211.54862 211.78778 211.73595 211.45211 211.09628 210.73744
 210.36561 210.08677 209.90594 209.78110 209.72027 210.06243 210.45960 210.85976
 211.66393 212.85310 214.11426 215.90843 217.84759 219.90176 222.00792 224.10209
 226.17325 228.26842 230.37658 232.49375 234.63391 236.81708 239.08424 241.46541
 244.09757 246.35974 248.37290 250.14907 251.57723 252.71140 253.54456 253.87173
 253.91990 253.70506 253.07623 252.03539 250.65256 248.82472 246.74489 244.58905
 242.39122 240.20638 238.03755 235.88771 233.75888 231.63704 229.67421 227.84237
 226.13654 224.61970 223.26087 222.04403 220.93720 219.90836 219.02353 218.17570
 217.42886 216.62003 215.72919 215.10436 214.56552 214.20132 213.33722 212.45917
 211.70711 211.02585 211.60399 213.88277 217.29398 221.68848 227.22595 232.00497
 235.90764 240.22293 244.65807 248.90115 252.64479 255.95457 259.15082 262.37091
 265.39621 268.11469 270.54193 272.65393 274.38068 275.82877 277.24121 278.69183
 280.09836 281.40695 282.65207 283.78879 284.88074 285.94516 286.92065 287.80740
 288.66705 289.45761 290.14822 291.02832
 366.78100 356.34373 345.78445 334.65918 323.07091 311.27364 299.15236 286.96409
 274.68482 262.59054 250.60827 239.91800 230.04873 221.16145 213.35218 206.36291
 200.20563 195.15236 191.74309 189.79382 188.83954 188.91227 189.75600 191.07272
 192.80645 194.91018 197.18191 199.54963 202.00336 204.49209 206.58881 208.43954
 210.07427 211.22800 211.46572 211.70245 211.64818 211.36191 211.00363 210.64236
 210.26809 209.98681 209.80354 209.67627 209.61300 209.95272 210.34745 210.74518
 211.54690 212.73363 213.99236 215.78409 217.72081 219.77254 221.87627 223.96799
 226.03672 228.12945 230.23518 232.34990 234.48763 236.66836 238.93308 241.31181
 243.94154 246.20127 248.21199 249.98572 251.41145 252.54317 253.37390 253.69863
 253.74436 253.52708 252.89581 251.85254 250.46726 248.63699 246.55472 244.39645
 242.19617 240.00890 237.83763 235.68535 233.55408 231.42981 229.46454 227.63026
 225.92199 224.40272 223.04144 221.82217 220.71290 219.68163 218.79435 217.94408
 217.19481 216.38353 215.49026 214.86299 214.32172 214.10452 213.54584 212.41748
 211.65303 210.91022 211.51826 213.84349 217.29202 221.70360 227.23169 232.05368
 235.93932 240.25021 244.68253 248.90323 252.64389 255.96922 259.19229 262.38507
 265.36642 268.04550 270.43042 272.46393 274.13815 275.66479 277.23868 278.84476
 280.38882 281.80420 283.10001 284.45007 285.67422 286.80551 287.92572 288.94052
 289.85324 290.66605 291.37607 292.28091
 366.78100 356.34092 345.77884 334.65076 323.05968 311.25960 299.13552 286.94444
 274.66236 262.56528 250.58020 239.88712 230.01504 221.12496 213.31288 206.32080
 200.16072 195.10465 191.69257 189.74049 188.78341 188.85333 189.69425 191.00817
 192.73909 194.84001 197.10893 199.47385 201.92477 204.41069 206.50461 208.35253
 209.98445 211.13537 211.37029 211.60421 211.54713 211.25805 210.89697 210.53289
 210.15581 209.87173 209.68565 209.55557 209.48949 209.82641 210.21833 210.61325
 211.41217 212.59610 213.85202 215.64094 217.57486 219.62378 221.72470 223.81362
 225.87954 227.96946 230.07238 232.18430 234.31922 236.49714 238.75906 241.13498
 243.76190 246.01882 248.02674 249.79766 251.22058 252.34950 253.17742 253.49934
 253.54226 253.32218 252.68810 251.64202 250.25394 248.42086 246.33578 244.17470
 241.97162 239.78155 237.60747 235.45239 233.31831 231.19123 229.22315 227.38607
 225.67499 224.15291 222.78883 221.56675 220.45467 219.42059 218.53051 217.67743
 216.92535 216.11127 215.21519 214.58511 214.04103 213.97481 213.72539 212.43478
 211.60516 210.88632 211.59737 213.95493 217.35634 221.72687 227.24567 232.04890
 235.93272 240.23322 244.66939 248.88898 252.62073 255.93678 259.17471 262.39948
 265.38419 268.03113 270.36557 272.33490 273.95096 275.51385 277.21851 278.95316
 280.55704 282.05090 283.54733 284.93539 286.18588 287.35870 288.43704 289.41394
 290.29254 291.07495 291.75845 292.62949
 366.78100 356.34168 345.78036 334.65304 323.06273 311.26341 299.14009 286.94977
 274.66845 262.57213 250.58782 239.89550 230.02418 221.13486 213.32354 206.33222
 200.17291 195.11759 191.70627 189.75495 188.79863 188.86931 189.71099 191.02568
 192.75736 194.85904 197.12872 199.49440 201.94608 204.43277 206.52745 208.37613
 210.00881 211.16049 211.39617 211.63085 211.57454 211.28622 210.92590 210.56258
 210.18626 209.90294 209.71763 209.58831 209.52299 209.86067 210.25335 210.64903
 211.44872 212.63340 213.89008 215.67976 217.61444 219.66412 221.76580 223.85549
 225.92217 228.01285 230.11653 232.22921 234.36489 236.54358 238.80626 241.18294
 243.81062 246.06830 248.07698 249.84867 251.27235 252.40203 253.23071 253.55339
 253.59707 253.37775 252.74444 251.69912 250.31180 248.47948 246.39516 244.23484
 242.03253 239.84321 237.66989 235.51557 233.38225 231.25593 229.28862 227.45230
 225.74198 224.22066 222.85734 221.63602 220.52470 219.49139 218.60207 217.74975
 216.99843 216.18511 215.28979 214.66048 214.11716 214.00575 213.69008 212.62604
 211.54509 210.78175 211.58841 213.97244 217.34505 221.69846 227.19116 232.00522
 235.87959 240.16110 244.56897 248.76147 252.48686 255.84134 259.13077 262.38092
 265.37079 268.02155 270.31839 272.21582 273.82480 275.45187 277.23703 279.06421
 280.78662 282.31238 283.78784 285.16647 286.37222 287.44876 288.48331 289.42050
 290.26343 291.01407 291.66980 292.50543
 366.78100 356.34196 345.78093 334.65389 323.06385 311.26482 299.14178 286.95174
 274.67070 262.57467 250.59063 239.89859 230.02756 221.13852 213.32748 206.33645
 200.17741 195.12237 191.71134 189.76030 188.80426 188.87522 189.71719 191.03215
 192.76411 194.86608 197.13604 199.50200 201.95397 204.44093 206.53589 208.38486
 210.01782 211.16978 211.40575 211.64071 211.58467 211.29663 210.93660 210.57356
 210.19752 209.91449 209.72945 209.60041 209.53538 209.87334 210.26630 210.66227
 211.46223 212.64719 213.90415 215.69412 217.62908 219.67904 221.78101 223.87097
 225.93793 228.02890 230.13286 232.24582 234.38179 236.56075 238.82371 241.20067
 243.82864 246.08660 248.09556 249.86753 251.29149 252.42145 253.25042 253.57338
 253.61734 253.39831 252.76527 251.72023 250.33320 248.50116 246.41712 244.25708
 242.05505 239.86601 237.69297 235.53894 233.40590 231.27986 229.31283 227.47679
 225.76675 224.24572 222.88268 221.66164 220.55060 219.51757 218.62853 217.77649
 217.02546 216.21242 215.31738 214.68835 214.14531 214.01891 213.68077 212.76318
 211.58217 210.75053 211.54546 213.94414 217.30739 221.65744 227.17241 231.98193
 235.85213 240.13309 244.52812 248.69562 252.39058 255.73500 259.04498 262.34995
 265.39246 268.03812 270.27222 272.03918 273.48154 275.09958 277.13721 279.19617
 280.95764 282.47101 283.92148 285.28677 286.49286 287.58795 288.65945 289.63019
 290.50323 291.28067 291.95987 292.82538
 366.78100 356.34247 345.78194 334.65540 323.06587 311.26734 299.14481 286.95527
 274.67474 262.57921 250.59568 239.90414 230.03361 221.14508 213.33455 206.34401
 200.18548 195.13095 191.72042 189.76988 188.81435 188.88582 189.72829 191.04375
 192.77622 194.87869 197.14916 199.51562 201.96809 204.45556 206.55103 208.40049
 210.03396 211.18643 211.42290 211.65836 211.60283 211.31530 210.95577 210.59323
 210.21770 209.93517 209.75064 209.62210 209.55757 209.89604 210.28951 210.68597
 211.48644 212.67191 213.92938 215.71985 217.65531 219.70578 221.80825 223.89872
 225.96618 228.05765 230.16212 232.27559 234.41205 236.59152 238.85499 241.23246
 243.86092 246.11939 248.12886 249.90133 251.32579 252.45626 253.28573 253.60920
 253.65366 253.43513 252.80260 251.75807 250.37153 248.54000 246.45647 244.29694
 242.09540 239.90687 237.73434 235.58081 233.44827 231.32274 229.35621 227.52068
 225.81114 224.29061 222.92808 221.70755 220.59701 219.56448 218.67595 217.82442
 217.07388 216.26135 215.36682 214.73829 214.19576 214.07602 213.69693 212.76501
 211.71664 210.96893 211.74063 214.03876 217.37177 221.65393 227.21655 231.98354
 235.85815 240.11945 244.50223 248.66457 252.38185 255.76073 259.04080 262.24896
 265.24335 267.91278 270.12997 271.84647 273.30972 274.89392 276.86243 279.01068
 280.91852 282.73166 284.37396 285.89838 287.21762 288.38480 289.44968 290.41440
 291.28204 292.05469 292.72964 293.58981
 366.78100 356.34535 345.78769 334.66404 323.07738 311.28173 299.16208 286.97542
 274.69777 262.60512 250.62446 239.93581 230.06815 221.18250 213.37485 206.38719
 200.23154 195.17988 191.77223 189.82458 188.87192 188.94627 189.79161 191.10996
 192.84531 194.95065 197.22400 199.59335 202.04869 204.53904 206.63738 208.48973
 210.12608 211.28142 211.52077 211.75911 211.70646 211.42181 211.06515 210.70550
 210.33284 210.05319 209.87154 209.74588 209.68423 210.02558 210.42192 210.82127
 211.62461 212.81296 214.07331 215.86665 217.80500 219.85834 221.96369 224.05704
 226.12738 228.22173 230.32907 232.44542 234.58477 236.76711 239.03346 241.41381
 244.04515 246.30650 248.31884 250.09419 251.52154 252.65488 253.48723 253.81357
 253.86092 253.64527 253.01561 251.97396 250.59031 248.76165 246.68100 244.52434
 242.32569 240.14004 237.97038 235.81973 233.69007 231.56742 229.60377 227.77111
 226.06446 224.54680 223.18715 221.96950 220.86184 219.83219 218.94654 218.09788
 217.35023 216.54057 215.64892 215.02327 214.48361 214.27878 213.64412 212.82924
 211.74495 210.79031 211.58626 214.02274 217.39217 221.71643 227.15132 231.98514
 235.87157 240.14386 244.48296 248.60370 252.37561 255.88454 259.22961 262.38519
 265.27466 267.77298 269.78040 271.34863 272.85089 274.58914 277.30276 280.55051
 283.36938 285.78561 287.87646 289.71237 291.30121 292.70691 293.98941 295.15125
 296.19623 297.12674 297.93964 298.97559
 366.78100 356.34553 345.78806 334.66459 323.07812 311.28266 299.16319 286.97672
 274.69925 262.60678 250.62631 239.93784 230.07037 221.18490 213.37743 206.38997
 200.23450 195.18303 191.77556 189.82809 188.87562 188.95015 189.79568 191.11421
 192.84975 194.95528 197.22881 199.59834 202.05387 204.54440 206.64293 208.49546
 210.13199 211.28752 211.52706 211.76559 211.71312 211.42865 211.07218 210.71271
 210.34024 210.06077 209.87930 209.75384 209.69237 210.03390 210.43043 210.82996
 211.63349 212.82202 214.08255 215.87608 217.81461 219.86815 221.97368 224.06721
 226.13774 228.23227 230.33980 232.45633 234.59586 236.77839 239.04493 241.42546
 244.05699 246.31852 248.33105 250.10658 251.53411 252.66764 253.50017 253.82671
 253.87424 253.65877 253.02930 251.98783 250.60436 248.77589 246.69542 244.53895
 242.34048 240.15502 237.98555 235.83508 233.70561 231.58314 229.61967 227.78720
 226.08073 224.56326 223.20380 221.98633 220.87886 219.84939 218.96392 218.11545
 217.36798 216.55851 215.66704 215.04157 214.50211 214.34805 213.65492 212.89815
 211.95654 210.91586 211.31494 213.77223 217.06834 221.66487 227.07005 231.91136
 235.82877 240.15048 244.55728 248.73724 252.56601 256.14990 259.57025 262.78940
 265.69998 268.17221 269.99228 271.05557 272.81229 276.32599 279.84369 282.98236
 285.70657 288.04166 290.06229 291.83652 293.37201 294.73050 295.96991 297.09274
 298.10260 299.00189 299.78748 300.78864
 366.78100 356.34366 345.78433 334.65899 323.07065 311.27331 299.15198 286.96364
 274.68430 262.58996 250.60763 239.91729 230.04795 221.16062 213.35128 206.36194
 200.20460 195.15127 191.74193 189.79259 188.83826 188.91092 189.75458 191.07124
 192.80491 194.90857 197.18023 199.54789 202.00156 204.49022 206.58688 208.43755
 210.07221 211.22587 211.46353 211.70020 211.64586 211.35952 211.00119 210.63985
 210.26551 209.98417 209.80084 209.67350 209.61016 209.94982 210.34449 210.74215
 211.54381 212.73048 213.98914 215.78080 217.71746 219.76913 221.87279 223.96445
 226.03312 228.12578 230.23144 232.34610 234.48377 236.66443 238.92909 241.30775
 243.93742 246.19708 248.20774 249.98141 251.40707 252.53873 253.36939 253.69406
 253.73972 253.52238 252.89105 251.84771 250.46237 248.63203 246.54970 244.39136
 242.19102 240.00368 237.83235 235.68001 233.54867 231.42434 229.45900 227.62466
 225.91632 224.39699 223.03565 221.81631 220.70697 219.67564 218.78830 217.93796
 217.18863 216.37729 215.48395 214.85661 214.31528 214.25308 213.76913 212.76433
 211.89383 211.05322 211.55893 213.81238 217.22629 221.40244 226.88631 231.73560
 235.65541 239.92929 244.23206 248.34232 252.21265 255.98596 259.66467 263.13763
 266.25131 268.90381 270.82501 272.05655 273.19669 275.71255 279.34500 282.74680
 285.69943 288.23029 290.42035 292.34335 294.00757 295.47995 296.82327 298.04025
 299.13480 300.10947 300.96094 302.04602
 366.78100 356.34324 345.78349 334.65773 323.06898 311.27122 299.14947 286.96071
 274.68096 262.58620 250.60345 239.91269 230.04294 221.15518 213.34543 206.35567
 200.19792 195.14416 191.73441 189.78465 188.82990 188.90214 189.74539 191.06163
 192.79488 194.89812 197.16937 199.53661 201.98986 204.47810 206.57434 208.42459
 210.05883 211.21208 211.44932 211.68557 211.63081 211.34406 210.98530 210.62355
 210.24879 209.96704 209.78328 209.65553 209.59177 209.93102 210.32526 210.72251
 211.52375 212.71000 213.96824 215.75949 217.69573 219.74698 221.85022 223.94147
 226.00971 228.10196 230.20720 232.32145 234.45869 236.63893 238.90318 241.28142
 243.91067 246.16991 248.18016 249.95340 251.37865 252.50989 253.34014 253.66438
 253.70963 253.49187 252.86012 251.81636 250.43061 248.59985 246.51710 244.35834
 242.15759 239.96983 237.79808 235.64532 233.51357 231.38881 229.42306 227.58830
 225.87955 224.35979 222.99803 221.77828 220.66852 219.63677 218.74901 217.89826
 217.14850 216.33675 215.44299 214.81524 214.27348 214.17735 213.82071 212.87859
 211.89830 211.22882 211.76784 213.89240 217.32677 221.59845 226.77531 231.71222
 235.57347 239.78410 244.00710 248.04509 251.83354 255.46521 259.01086 262.39523
 265.52414 268.32812 270.73285 272.66064 274.27237 275.81555 277.53354 279.64005
 281.76547 283.91580 285.83749 287.52487 288.98517 290.27713 291.45587 292.52371
 293.48413 294.33939 295.08652 296.03867
 366.78100 356.34272 345.78243 334.65615 323.06686 311.26858 299.14629 286.95701
 274.67673 262.58144 250.59816 239.90687 230.03659 221.14831 213.33802 206.34774
 200.18945 195.13517 191.72488 189.77460 188.81932 188.89103 189.73375 191.04946
 192.78218 194.88490 197.15561 199.52233 201.97504 204.46276 206.55847 208.40819
 210.04191 211.19462 211.43134 211.66705 211.61177 211.32448 210.96520 210.60292
 210.22763 209.94535 209.76106 209.63278 209.56850 209.90721 210.30093 210.69764
 211.49836 212.68407 213.94179 215.73251 217.66822 219.71894 221.82165 223.91237
 225.98009 228.07180 230.17652 232.29023 234.42695 236.60666 238.87038 241.24810
 243.87681 246.13553 248.14524 249.91796 251.34268 252.47339 253.30311 253.62682
 253.67154 253.45325 252.82097 251.77669 250.39040 248.55912 246.47583 244.31655
 242.11526 239.92698 237.75470 235.60141 233.46913 231.34384 229.37756 227.54228
 225.83299 224.31271 222.95042 221.73014 220.61985 219.58757 218.69929 217.84800
 217.09772 216.28543 215.39115 214.76287 214.22058 214.13385 213.85269 213.02509
 211.85010 211.06703 211.62329 213.92888 217.35080 221.66455 226.71109 231.73489
 235.60545 239.84468 244.11671 248.20346 251.98981 255.58327 259.06351 262.37119
 265.42700 268.10458 270.23633 271.94247 273.57913 275.37173 277.32614 279.26819
 281.28046 283.13614 284.85840 286.41135 287.75528 288.94434 290.02917 291.01193
 291.89584 292.68295 293.37057 294.24686
 366.78100 356.34446 345.78591 334.66137 323.07383 311.27728 299.15674 286.96920
 274.69066 262.59711 250.61557 239.92603 230.05748 221.17094 213.36240 206.37385
 200.21731 195.16477 191.75623 189.80768 188.85414 188.92760 189.77205 191.08951
 192.82397 194.92842 197.20088 199.56934 202.02380 204.51325 206.61071 208.46217
 210.09762 211.25208 211.49054 211.72799 211.67445 211.38891 211.03137 210.67082
 210.29728 210.01674 209.83419 209.70765 209.64511 209.98556 210.38102 210.77948
 211.58194 212.76939 214.02885 215.82131 217.75876 219.81122 221.91568 224.00813
 226.07759 228.17105 230.27751 232.39296 234.53142 236.71288 238.97833 241.35779
 243.98825 246.24870 248.26016 250.03462 251.46108 252.59353 253.42499 253.75045
 253.79690 253.58036 252.94982 251.90727 250.52273 248.69319 246.61165 244.45410
 242.25456 240.06802 237.89747 235.74593 233.61539 231.49184 229.52730 227.69376
 225.98622 224.46767 223.10713 221.88859 220.78004 219.74950 218.86296 218.01341
 217.26487 216.45433 215.56179 214.93524 214.39470 214.23935 213.83820 213.10243
 211.89413 210.95627 211.24908 213.85938 217.40448 221.61864 226.90356 231.72549
 235.62982 239.87521 244.17308 248.30051 252.13245 255.75433 259.22900 262.49725
 265.48605 268.07242 270.02316 271.55045 273.00366 274.75076 277.09564 279.60751
 281.97647 284.15823 286.04620 287.70398 289.13864 290.40796 291.56601 292.61514
 293.55869 294.39896 295.13297 296.06839
 366.78100 356.34687 345.79075 334.66862 323.08350 311.28937 299.17125 286.98612
 274.71000 262.61887 250.63975 239.95262 230.08650 221.20237 213.39624 206.41012
 200.25599 195.20587 191.79974 189.85362 188.90249 188.97837 189.82524 191.14512
 192.88199 194.98886 197.26374 199.63461 202.09149 204.58336 206.68324 208.53711
 210.17499 211.33186 211.57274 211.81261 211.76149 211.47836 211.12323 210.76511
 210.39398 210.11586 209.93573 209.81161 209.75148 210.09436 210.49223 210.89311
 211.69798 212.88786 214.14973 215.94460 217.88448 219.93935 222.04623 224.14110
 226.21298 228.30885 230.41773 232.53560 234.67648 236.86035 239.12822 241.51010
 244.14297 246.40585 248.41972 250.19660 251.62547 252.76035 253.59422 253.92210
 253.97097 253.75685 253.12872 252.08859 250.70647 248.87934 246.80022 244.64509
 242.44797 240.26384 238.09572 235.94659 233.81847 231.69734 229.73522 227.90409
 226.19896 224.68284 223.32471 222.10859 221.00246 219.97434 219.09021 218.24309
 217.49696 216.68884 215.79871 215.17458 214.63646 214.40117 213.83868 213.22423
 212.02722 210.45367 211.08141 213.81720 217.33633 221.64783 226.91029 231.74840
 235.65515 239.91191 244.22330 248.36931 252.24692 255.92195 259.41876 262.67902
 265.59534 268.03662 269.81781 271.09164 272.29507 274.89761 278.37054 281.60910
 284.42001 286.82941 288.91434 290.74509 292.32941 293.73114 295.01001 296.16858
 297.21057 298.13849 298.94907 299.98209
 366.78100 356.34570 345.78840 334.66510 323.07880 311.28350 299.16420 286.97790
 274.70060 262.60830 250.62800 239.93970 230.07241 221.18711 213.37981 206.39251
 200.23721 195.18591 191.77861 189.83131 188.87901 188.95371 189.79941 191.11811
 192.85381 194.95951 197.23321 199.60291 202.05861 204.54931 206.64801 208.50071
 210.13741 211.29311 211.53281 211.77152 211.71922 211.43492 211.07862 210.71932
 210.34702 210.06772 209.88642 209.76112 209.69982 210.04152 210.43822 210.83792
 211.64162 212.83032 214.09102 215.88472 217.82342 219.87712 221.98282 224.07652
 226.14722 228.24192 230.34962 232.46633 234.60603 236.78873 239.05543 241.43613
 244.06783 246.32953 248.34223 250.11793 251.54563 252.67933 253.51203 253.83873
 253.88643 253.67113 253.04183 252.00053 250.61723 248.78893 246.70863 244.55233
 242.35403 240.16873 237.99944 235.84914 233.71984 231.59754 229.63424 227.80194
 226.09564 224.57834 223.21904 222.00174 220.89444 219.86514 218.97984 218.13154
 217.38424 216.57494 215.68364 215.05834 214.51904 214.41393 213.87480 213.26653
 212.33713 210.82906 210.92557 213.62468 217.06732 221.48927 226.76251 231.62918
 235.55499 239.83580 244.18211 248.36464 252.29190 256.05997 259.67499 263.02975
 266.04861 268.54657 270.30908 271.29642 273.25604 277.62003 281.58911 285.13052
 288.20432 290.83905 293.11896 295.12088 296.85336 298.38620 299.78467 301.05157
 302.19101 303.20569 304.09210 305.22174
 366.78100 356.34515 345.78731 334.66346 323.07661 311.28076 299.16092 286.97407
 274.69622 262.60338 250.62253 239.93368 230.06583 221.17999 213.37214 206.38429
 200.22844 195.17660 191.76875 189.82090 188.86806 188.94221 189.78736 191.10551
 192.84067 194.94582 197.21897 199.58813 202.04328 204.53343 206.63158 208.48374
 210.11989 211.27504 211.51419 211.75235 211.69950 211.41465 211.05781 210.69796
 210.32511 210.04526 209.86342 209.73757 209.67572 210.01688 210.41303 210.81218
 211.61533 212.80349 214.06364 215.85679 217.79495 219.84810 221.95325 224.04640
 226.11656 228.21071 230.31786 232.43401 234.57317 236.75532 239.02147 241.40163
 244.03278 246.29393 248.30608 250.08124 251.50839 252.64154 253.47370 253.79985
 253.84700 253.63115 253.00131 251.95946 250.57561 248.74676 246.66592 244.50907
 242.31022 240.12438 237.95453 235.80368 233.67383 231.55099 229.58714 227.75429
 226.04745 224.52960 223.16975 221.95190 220.84406 219.81421 218.92836 218.07952
 217.33167 216.52182 215.62997 215.00413 214.46428 214.39679 213.92485 213.13963
 212.29141 211.08069 211.25929 213.55884 217.08109 221.27417 226.61365 231.44701
 235.35507 239.59647 243.86426 247.96207 251.89403 255.77029 259.55179 263.14999
 266.50208 269.44418 271.69211 272.87698 274.09259 277.71762 281.55573 284.98029
 287.95267 290.50046 292.70514 294.64099 296.31635 297.79858 299.15091 300.37601
 301.47784 302.45905 303.31622 304.40857
 366.78100 356.34507 345.78714 334.66321 323.07629 311.28036 299.16043 286.97350
 274.69557 262.60264 250.62171 239.93279 230.06486 221.17893 213.37100 206.38307
 200.22714 195.17521 191.76729 189.81936 188.86643 188.94050 189.78557 191.10364
 192.83872 194.94379 197.21686 199.58593 202.04100 204.53107 206.62914 208.48122
 210.11729 211.27236 211.51143 211.74950 211.69657 211.41164 211.05472 210.69479
 210.32186 210.04193 209.86000 209.73407 209.67214 210.01322 210.40929 210.80836
 211.61143 212.79950 214.05957 215.85264 217.79072 219.84379 221.94886 224.04193
 226.11200 228.20607 230.31314 232.42922 234.56829 236.75036 239.01643 241.39650
 244.02757 246.28865 248.30072 250.07579 251.50286 252.63593 253.46800 253.79407
 253.84115 253.62522 252.99529 251.95336 250.56943 248.74050 246.65957 244.50265
 242.30372 240.11779 237.94786 235.79693 233.66700 231.54407 229.58015 227.74722
 226.04029 224.52236 223.16243 221.94450 220.83657 219.80665 218.92072 218.07179
 217.32386 216.51393 215.62200 214.99607 214.45615 214.35588 213.96434 213.10628
 212.16771 211.05153 211.54922 213.90846 217.38953 221.50360 226.66298 231.46196
 235.34018 239.53247 243.74953 247.78769 251.62218 255.35571 258.98907 262.43250
 265.63281 268.53159 271.08444 273.23004 275.09552 276.90942 279.13892 281.53967
 283.90527 285.93292 287.68753 289.22821 290.56155 291.74121 292.81744 293.79245
 294.66937 295.45026 296.13245 297.00180
 366.78100 356.34530 345.78760 334.66390 323.07720 311.28150 299.16180 286.97510
 274.69741 262.60471 250.62401 239.93531 230.06761 221.18191 213.37421 206.38651
 200.23081 195.17911 191.77141 189.82371 188.87101 188.94531 189.79061 191.10891
 192.84422 194.94952 197.22282 199.59212 202.04742 204.53772 206.63602 208.48832
 210.12462 211.27992 211.51922 211.75752 211.70482 211.42012 211.06342 210.70373
 210.33103 210.05133 209.86963 209.74393 209.68223 210.02353 210.41983 210.81913
 211.62243 212.81073 214.07103 215.86433 217.80263 219.85593 221.96124 224.05454
 226.12484 228.21914 230.32644 232.44274 234.58204 236.76434 239.03064 241.41094
 244.04224 246.30354 248.31584 250.09114 251.51844 252.65174 253.48405 253.81035
 253.85765 253.64195 253.01225 251.97055 250.58685 248.75815 246.67745 244.52075
 242.32205 240.13635 237.96665 235.81595 233.68625 231.56356 229.59986 227.76716
 226.06046 224.54276 223.18306 221.96536 220.85766 219.82796 218.94226 218.09356
 217.34586 216.53616 215.64446 215.01876 214.47906 214.34264 213.96819 213.24802
 212.11328 211.05656 211.39955 213.73245 217.29567 221.61998 226.54984 231.52840
 235.37770 239.58852 243.82579 247.91508 251.78273 255.50774 259.10583 262.48245
 265.59616 268.36334 270.74689 272.80164 274.66248 276.49957 278.38446 280.17212
 281.57346 283.20984 284.95761 286.49225 287.82037 288.99542 290.06747 291.03867
 291.91217 292.69000 293.36954 294.23547
 366.78100 356.34653 345.79005 334.66758 323.08210 311.28763 299.16915 286.98368
 274.70720 262.61573 250.63625 239.94878 230.08230 221.19783 213.39135 206.40488
 200.25040 195.19993 191.79345 189.84698 188.89550 188.97103 189.81755 191.13708
 192.87360 194.98013 197.25465 199.62518 202.08170 204.57323 206.67276 208.52628
 210.16381 211.32033 211.56086 211.80038 211.74891 211.46543 211.10996 210.75148
 210.38001 210.10153 209.92106 209.79658 209.73611 210.07863 210.47616 210.87668
 211.68121 212.87073 214.13226 215.92678 217.86631 219.92083 222.02736 224.12188
 226.19341 228.28893 230.39746 232.51498 234.65551 236.83904 239.10656 241.48809
 244.12061 246.38314 248.39666 250.17319 251.60171 252.73624 253.56976 253.89729
 253.94581 253.73134 253.10286 252.06239 250.67991 248.85244 246.77296 244.61749
 242.42001 240.23554 238.06706 235.91759 233.78911 231.66764 229.70516 227.87369
 226.16821 224.65174 223.29327 222.07679 220.97032 219.94184 219.05737 218.20989
 217.46342 216.65494 215.76447 215.13999 214.60152 214.40280 213.93219 213.37910
 212.15910 211.03728 211.27974 213.59402 217.19084 221.53290 226.47820 231.48459
 235.34251 239.56540 243.82118 247.93883 251.83475 255.60004 259.23535 262.62448
 265.74368 268.51050 270.82120 272.75415 274.47968 276.24063 278.09106 279.87421
 281.32336 282.90140 284.62643 286.19641 287.55508 288.75717 289.85388 290.84744
 291.74103 292.53677 293.23190 294.11780
 366.78100 356.34628 345.78956 334.66685 323.08113 311.28641 299.16769 286.98198
 274.70526 262.61354 250.63382 239.94610 230.07939 221.19467 213.38795 206.40123
 200.24652 195.19580 191.78908 189.84236 188.89064 188.96593 189.81221 191.13149
 192.86777 194.97406 197.24834 199.61862 202.07490 204.56619 206.66547 208.51875
 210.15603 211.31231 211.55260 211.79188 211.74016 211.45644 211.10073 210.74201
 210.37029 210.09157 209.91085 209.78614 209.72542 210.06770 210.46498 210.86527
 211.66955 212.85883 214.12011 215.91439 217.85368 219.90796 222.01424 224.10852
 226.17981 228.27509 230.38337 232.50065 234.64093 236.82422 239.09150 241.47278
 244.10506 246.36735 248.38063 250.15691 251.58519 252.71948 253.55276 253.88004
 253.92832 253.71360 253.08489 252.04417 250.66145 248.83373 246.75402 244.59830
 242.40058 240.21586 238.04714 235.89743 233.76871 231.64699 229.68427 227.85256
 226.14684 224.63012 223.27140 222.05468 220.94797 219.91925 219.03453 218.18681
 217.44010 216.63138 215.74066 215.11594 214.57722 214.40654 213.97737 213.37799
 212.24837 211.06537 211.27809 213.57805 217.13370 221.45070 226.42708 231.42825
 235.28735 239.51105 243.77086 247.89487 251.80144 255.59627 259.26520 262.67102
 265.80673 268.59351 270.89853 272.79504 274.46463 276.16235 277.97229 279.74414
 281.25607 282.93658 284.66632 286.24814 287.61703 288.82819 289.93317 290.93420
 291.83453 292.63629 293.33667 294.22922
 366.78100 356.34486 345.78672 334.66258 323.07544 311.27930 299.15915 286.97201
 274.69387 262.60073 250.61959 239.93045 230.06231 221.17617 213.36803 206.37989
 200.22374 195.17160 191.76346 189.81532 188.86218 188.93604 189.78090 191.09876
 192.83362 194.93848 197.21134 199.58019 202.03505 204.52491 206.62277 208.47463
 210.11049 211.26535 211.50421 211.74207 211.68893 211.40379 211.04664 210.68650
 210.31336 210.03322 209.85108 209.72494 209.66280 210.00366 210.39952 210.79838
 211.60123 212.78909 214.04895 215.84181 217.77967 219.83253 221.93739 224.03025
 226.10011 228.19397 230.30083 232.41668 234.55554 236.73740 239.00326 241.38312
 244.01398 246.27484 248.28670 250.06156 251.48842 252.62128 253.45313 253.77899
 253.82585 253.60971 252.97957 251.93743 250.55329 248.72415 246.64301 244.48587
 242.28672 240.10058 237.93044 235.77930 233.64916 231.52602 229.56188 227.72874
 226.02160 224.50346 223.14332 221.92517 220.81703 219.78689 218.90075 218.05161
 217.30347 216.49333 215.60119 214.97505 214.43491 214.34946 214.08560 213.37128
 212.25621 211.02066 211.31763 213.66745 217.12041 221.39211 226.43068 231.37399
 235.24167 239.46732 243.72678 247.84944 251.74925 255.55396 259.24307 262.66312
 265.80118 268.59515 270.94720 272.85193 274.52731 276.16260 277.95477 279.71286
 281.25021 282.93622 284.55508 286.05573 287.35944 288.51288 289.56522 290.51855
 291.37601 292.13956 292.80655 293.65662
 366.78100 356.34459 345.78618 334.66176 323.07435 311.27794 299.15753 286.97012
 274.69170 262.59829 250.61688 239.92747 230.05905 221.17264 213.36423 206.37582
 200.21941 195.16699 191.75858 189.81017 188.85676 188.93035 189.77493 191.09252
 192.82711 194.93170 197.20429 199.57287 202.02746 204.51705 206.61464 208.46623
 210.10181 211.25640 211.49499 211.73258 211.67916 211.39375 211.03634 210.67593
 210.30252 210.02210 209.83969 209.71328 209.65087 209.99146 210.38704 210.78563
 211.58822 212.77581 214.03540 215.82798 217.76557 219.81816 221.92275 224.01534
 226.08492 228.17851 230.28510 232.40069 234.53927 236.72086 238.98645 241.36604
 243.99663 246.25721 248.26880 250.04339 251.46998 252.60257 253.43415 253.75974
 253.80633 253.58992 252.95951 251.91709 250.53268 248.70327 246.62186 244.46444
 242.26503 240.07862 237.90821 235.75680 233.62638 231.50297 229.53856 227.70515
 225.99774 224.47932 223.11891 221.90050 220.79209 219.76168 218.87526 218.02585
 217.27744 216.46703 215.57462 214.94820 214.40779 214.34114 214.13705 213.46103
 212.26842 210.84128 211.22864 213.72063 217.13194 221.35533 226.45107 231.34825
 235.21774 239.42931 243.68134 247.79619 251.68704 255.50107 259.20886 262.63547
 265.77838 268.58389 270.95929 272.91510 274.56641 276.14456 277.86478 279.58524
 281.14767 282.84641 284.44885 285.86560 287.16107 288.31705 289.37170 290.32715
 291.18646 291.95169 292.62015 293.47208
 366.78100 356.34563 345.78827 334.66490 323.07854 311.28317 299.16380 286.97744
 274.70007 262.60771 250.62734 239.93897 230.07161 221.18624 213.37888 206.39151
 200.23614 195.18478 191.77741 189.83005 188.87768 188.95232 189.79795 191.11658
 192.85222 194.95785 197.23149 199.60112 202.05675 204.54739 206.64602 208.49866
 210.13529 211.29092 211.53056 211.76919 211.71683 211.43246 211.07609 210.71673
 210.34436 210.06500 209.88363 209.75826 209.69690 210.03853 210.43517 210.83480
 211.63843 212.82707 214.08770 215.88134 217.81997 219.87360 221.97924 224.07287
 226.14351 228.23814 230.34578 232.46241 234.60204 236.78468 239.05131 241.43195
 244.06358 246.32521 248.33785 250.11348 251.54112 252.67475 253.50738 253.83402
 253.88165 253.66629 253.03692 251.99555 250.61219 248.78382 246.70346 244.54709
 242.34872 240.16336 237.99399 235.84363 233.71426 231.59189 229.62853 227.79616
 226.08980 224.57243 223.21306 221.99570 220.88833 219.85897 218.97360 218.12524
 217.37787 216.56850 215.67714 215.05177 214.51241 214.41591 214.14198 213.50859
 212.36520 210.84364 211.20737 213.73509 217.11191 221.31938 226.44714 231.29036
 235.18556 239.39781 243.64893 247.75639 251.64062 255.45784 259.16083 262.58981
 265.73047 268.54205 270.96774 273.00790 274.70691 276.24277 277.79944 279.39520
 280.90131 282.63943 284.27875 285.79193 287.12897 288.31192 289.39117 290.36890
 291.24826 292.03134 292.71542 293.58719
 366.78100 356.34720 345.79140 334.66960 323.08480 311.29100 299.17320 286.98840
 274.71260 262.62180 250.64301 239.95621 230.09041 221.20661 213.40081 206.41501
 200.26121 195.21141 191.80561 189.85981 188.90901 188.98521 189.83241 191.15261
 192.88981 194.99701 197.27221 199.64341 202.10061 204.59282 206.69302 208.54722
 210.18542 211.34262 211.58382 211.82402 211.77322 211.49042 211.13562 210.77782
 210.40702 210.12922 209.94942 209.82562 209.76582 210.10902 210.50722 210.90842
 211.71363 212.90383 214.16603 215.96123 217.90143 219.95663 222.06383 224.15903
 226.23123 228.32743 230.43663 232.55483 234.69603 236.88023 239.14843 241.53063
 244.16383 246.42703 248.44123 250.21843 251.64764 252.78284 253.61704 253.94524
 253.99444 253.78064 253.15284 252.11304 250.73124 248.90444 246.82564 244.67084
 242.47404 240.29024 238.12244 235.97364 233.84584 231.72504 229.76324 227.93245
 226.22765 224.71185 223.35405 222.13825 221.03245 220.00465 219.12085 218.27405
 217.52825 216.72045 215.83065 215.20685 214.66905 214.53149 214.14189 213.47353
 212.41170 210.93451 211.24532 213.72365 217.05698 221.25841 226.47861 231.26637
 235.15779 239.35957 243.60460 247.71132 251.62399 255.45465 259.15024 262.58051
 265.71683 268.51779 270.96289 273.06268 274.82266 276.32925 277.77081 279.19696
 281.22748 283.11896 284.98386 286.62137 288.03848 289.29227 290.43616 291.47247
 292.40448 293.23447 293.95950 294.88351
 366.78100 356.34729 345.79157 334.66986 323.08514 311.29143 299.17372 286.98900
 274.71329 262.62258 250.64386 239.95715 230.09143 221.20772 213.40201 206.41629
 200.26258 195.21286 191.80715 189.86144 188.91072 188.98701 189.83429 191.15458
 192.89187 194.99915 197.27444 199.64573 202.10301 204.59530 206.69558 208.54987
 210.18816 211.34544 211.58673 211.82701 211.77630 211.49359 211.13887 210.78116
 210.41044 210.13273 209.95302 209.82930 209.76959 210.11288 210.51116 210.91245
 211.71773 212.90802 214.17031 215.96559 217.90588 219.96116 222.06845 224.16374
 226.23602 228.33231 230.44160 232.55988 234.70117 236.88545 239.15374 241.53603
 244.16931 246.43260 248.44688 250.22417 251.65346 252.78874 253.62303 253.95131
 254.00060 253.78689 253.15917 252.11946 250.73775 248.91103 246.83232 244.67760
 242.48089 240.29718 238.12946 235.98075 233.85303 231.73232 229.77061 227.93989
 226.23518 224.71946 223.36175 222.14604 221.04032 220.01261 219.12890 218.28218
 217.53647 216.72875 215.83904 215.21533 214.67761 214.55405 214.19135 213.43384
 212.37019 211.00925 211.27596 213.69196 217.06033 221.29611 226.46796 231.26976
 235.16765 239.36826 243.60603 247.70381 251.60486 255.42566 259.12686 262.56445
 265.70297 268.52216 270.99814 273.15128 274.91168 276.37738 277.76300 279.18118
 280.98749 282.82901 284.52957 286.08997 287.44037 288.63513 289.72516 290.71265
 291.60077 292.39166 293.08258 293.96307
 366.78100 356.34641 345.78982 334.66723 323.08164 311.28706 299.16847 286.98288
 274.70629 262.61470 250.63511 239.94752 230.08093 221.19635 213.38976 206.40317
 200.24858 195.19799 191.79140 189.84481 188.89322 188.96863 189.81505 191.13446
 192.87087 194.97728 197.25169 199.62210 202.07851 204.56992 206.66934 208.52275
 210.16016 211.31657 211.55698 211.79639 211.74480 211.46121 211.10562 210.74704
 210.37545 210.09686 209.91627 209.79168 209.73109 210.07350 210.47091 210.87133
 211.67574 212.86515 214.12656 215.92097 217.86038 219.91479 222.02120 224.11562
 226.18703 228.28244 230.39085 232.50826 234.64867 236.83208 239.09949 241.48090
 244.11332 246.37573 248.38914 250.16555 251.59396 252.72837 253.56178 253.88919
 253.93761 253.72302 253.09443 252.05384 250.67125 248.84366 246.76407 244.60848
 242.41089 240.22631 238.05772 235.90813 233.77954 231.65795 229.69536 227.86377
 226.15818 224.64160 223.28301 222.06642 220.95983 219.93124 219.04665 218.19906
 217.45247 216.64388 215.75330 215.12871 214.59012 214.51495 214.28458 213.49429
 212.30086 210.91896 211.17984 213.58484 217.00951 221.26251 226.45901 231.23653
 235.13574 239.33374 243.56479 247.66316 251.56609 255.38446 259.09634 262.54361
 265.68375 268.50906 271.01013 273.18301 274.96606 276.41364 277.79398 279.19464
 280.66306 282.35547 283.96057 285.38348 286.61832 287.72406 288.73288 289.64679
 290.46875 291.20071 291.84015 292.65503
 366.78100 356.34596 345.78893 334.66589 323.07986 311.28482 299.16578 286.97975
 274.70271 262.61068 250.63064 239.94261 230.07557 221.19053 213.38350 206.39646
 200.24143 195.19039 191.78335 189.83632 188.88428 188.95925 189.80521 191.12417
 192.86014 194.96610 197.24007 199.61003 202.06599 204.55696 206.65592 208.50889
 210.14585 211.30182 211.54178 211.78074 211.72871 211.44467 211.08864 210.72960
 210.35756 210.07853 209.89749 209.77246 209.71142 210.05338 210.45035 210.85031
 211.65428 212.84324 214.10421 215.89817 217.83713 219.89110 221.99706 224.09103
 226.16199 228.25695 230.36492 232.48188 234.62185 236.80481 239.07177 241.45274
 244.08470 246.34667 248.35963 250.13559 251.56356 252.69752 253.53049 253.85745
 253.90542 253.69038 253.06134 252.02031 250.63727 248.80924 246.72920 244.57316
 242.37513 240.19009 238.02106 235.87102 233.74198 231.61995 229.65691 227.82488
 226.11884 224.60181 223.24277 222.02573 220.91870 219.88966 219.00463 218.15659
 217.40955 216.60052 215.70948 215.08445 214.54541 214.50684 214.36636 213.55190
 212.29021 210.86827 211.08690 213.46938 216.91685 221.18849 226.41908 231.18211
 235.09270 239.29234 243.52884 247.63550 251.55089 255.37811 259.09018 262.54480
 265.68869 268.51324 271.03027 273.26215 275.08670 276.52005 277.81500 279.18280
 280.59967 282.06100 283.41263 284.82388 286.06473 287.17789 288.20013 289.12622
 289.95914 290.70087 291.34882 292.17456
 366.78100 356.34533 345.78766 334.66400 323.07733 311.28166 299.16199 286.97533
 274.69766 262.60499 250.62432 239.93566 230.06799 221.18232 213.37465 206.38699
 200.23132 195.17965 191.77198 189.82432 188.87165 188.94598 189.79131 191.10964
 192.84498 194.95031 197.22364 199.59297 202.04831 204.53864 206.63697 208.48930
 210.12564 211.28097 211.52030 211.75863 211.70597 211.42130 211.06463 210.70496
 210.33230 210.05263 209.87096 209.74529 209.68363 210.02496 210.42129 210.82062
 211.62395 212.81229 214.07262 215.86595 217.80428 219.85762 221.96295 224.05628
 226.12661 228.22095 230.32828 232.44461 234.58394 236.76628 239.03261 241.41294
 244.04427 246.30561 248.31794 250.09327 251.52060 252.65393 253.48627 253.81260
 253.85993 253.64426 253.01460 251.97293 250.58926 248.76059 246.67993 244.52326
 242.32459 240.13892 237.96926 235.81859 233.68892 231.56625 229.60259 227.76992
 226.06325 224.54558 223.18591 221.96825 220.86058 219.83091 218.94524 218.09658
 217.34891 216.53924 215.64757 215.02191 214.48224 214.48854 214.45992 213.58798
 212.20702 210.74702 211.00890 213.41312 216.87801 221.16139 226.43570 231.16434
 235.09082 239.28857 243.52544 247.63530 251.55772 255.38422 259.09103 262.53897
 265.67252 268.49802 271.03644 273.32227 275.17365 276.59213 277.85834 279.15784
 280.58725 281.96988 283.15994 284.50189 285.70743 286.73184 287.72827 288.63168
 289.44421 290.16776 290.79984 291.60535
 366.78100 356.34486 345.78672 334.66258 323.07544 311.27929 299.15915 286.97201
 274.69387 262.60073 250.61959 239.93045 230.06231 221.17616 213.36802 206.37988
 200.22374 195.17160 191.76346 189.81532 188.86218 188.93603 189.78089 191.09875
 192.83361 194.93847 197.21133 199.58019 202.03505 204.52490 206.62276 208.47462
 210.11048 211.26534 211.50420 211.74206 211.68892 211.40377 211.04663 210.68649
 210.31335 210.03321 209.85107 209.72493 209.66279 210.00364 210.39950 210.79836
 211.60122 212.78908 214.04894 215.84180 217.77966 219.83251 221.93737 224.03023
 226.10009 228.19395 230.30081 232.41667 234.55553 236.73738 239.00324 241.38310
 244.01396 246.27482 248.28668 250.06154 251.48840 252.62125 253.45311 253.77897
 253.82583 253.60969 252.97955 251.93741 250.55327 248.72412 246.64298 244.48584
 242.28670 240.10056 237.93042 235.77928 233.64914 231.52599 229.56185 227.72871
 226.02157 224.50343 223.14329 221.92515 220.81701 219.78686 218.90072 218.05158
 217.30344 216.49330 215.60116 214.97502 214.43488 214.47823 214.54459 213.65001
 212.23158 210.63518 210.90152 213.37234 216.84436 221.13199 226.43871 231.14255
 235.08295 239.27469 243.50827 247.61551 251.53853 255.36353 259.07184 262.51669
 265.64136 268.46603 271.03345 273.36411 275.24884 276.65561 277.88193 279.15732
 280.53342 281.87900 283.03949 284.30688 285.46600 286.17831 287.13535 288.06873
 288.90823 289.65579 290.30887 291.14111
 366.78100 356.34655 345.79011 334.66766 323.08221 311.28777 299.16932 286.98388
 274.70743 262.61598 250.63654 239.94909 230.08264 221.19820 213.39175 206.40531
 200.25086 195.20041 191.79397 189.84752 188.89607 188.97163 189.81818 191.13774
 192.87429 194.98084 197.25540 199.62595 202.08250 204.57406 206.67361 208.52716
 210.16472 211.32127 211.56183 211.80138 211.74993 211.46649 211.11104 210.75259
 210.38115 210.10270 209.92226 209.79781 209.73736 210.07992 210.47747 210.87802
 211.68258 212.87213 214.13369 215.92824 217.86779 219.92235 222.02890 224.12345
 226.19501 228.29056 230.39911 232.51667 234.65722 236.84078 239.10833 241.48988
 244.12244 246.38499 248.39854 250.17510 251.60365 252.73821 253.57176 253.89931
 253.94787 253.73342 253.10497 252.06453 250.68208 248.85463 246.77519 244.61974
 242.42230 240.23785 238.06940 235.91996 233.79151 231.67006 229.70762 227.87617
 226.17073 224.65428 223.29583 222.07939 220.97294 219.94449 219.06005 218.21260
 217.46616 216.65771 215.76726 215.14282 214.60437 214.58286 214.50189 213.73892
 212.23862 210.55243 210.82649 213.35687 216.83617 221.12512 226.42628 231.15071
 235.07317 239.26588 243.49886 247.60530 251.52318 255.34717 259.05472 262.49713
 265.61566 268.43951 271.02771 273.40616 275.29095 276.71722 277.94080 279.17166
 280.49246 281.77960 282.84415 283.99033 285.19922 286.26282 287.23984 288.13626
 288.94247 289.66043 290.28760 291.08685
 366.78100 356.34862 345.79424 334.67386 323.09048 311.29810 299.18172 286.99834
 274.72396 262.63457 250.65719 239.97181 230.10743 221.22505 213.42067 206.43629
 200.28391 195.23553 191.83115 189.88677 188.93739 189.01501 189.86363 191.18525
 192.92387 195.03249 197.30911 199.68172 202.14034 204.63396 206.73558 208.59120
 210.23082 211.38944 211.63206 211.87368 211.82430 211.54292 211.18954 210.83316
 210.46378 210.18740 210.00902 209.88664 209.82826 210.17287 210.57249 210.97511
 211.78173 212.97335 214.23697 216.03359 217.97521 220.03183 222.14045 224.23707
 226.31069 228.40831 230.51893 232.63855 234.78117 236.96679 239.23641 241.62002
 244.25464 246.51926 248.53488 250.31350 251.74412 252.88074 253.71636 254.04598
 254.09660 253.88422 253.25784 252.21946 250.83908 249.01370 246.93632 244.78294
 242.58755 240.40517 238.23879 236.09141 233.96503 231.84565 229.88527 228.05589
 226.35251 224.83813 223.48175 222.26737 221.16299 220.13661 219.25423 218.40885
 217.66447 216.85809 215.96970 215.34732 214.81094 214.70062 214.42851 213.84927
 212.29623 210.49542 210.71542 213.30638 216.83127 221.13271 226.45525 231.16205
 235.09155 239.28271 243.51245 247.61206 251.52126 255.33182 259.03320 262.47296
 265.58801 268.41318 271.01633 273.39423 275.31683 276.78674 278.00699 279.21680
 280.48346 281.68359 282.65979 283.63959 284.80801 285.86761 286.82437 287.72241
 288.53012 289.24939 289.87772 290.67844
 366.78100 356.34910 345.79520 334.67530 323.09240 311.30050 299.18460 287.00170
 274.72780 262.63890 250.66200 239.97710 230.11320 221.23130 213.42739 206.44349
 200.29159 195.24369 191.83979 189.89589 188.94699 189.02509 189.87419 191.19629
 192.93539 195.04449 197.32159 199.69469 202.15379 204.64789 206.74999 208.60609
 210.24619 211.40529 211.64839 211.89049 211.84159 211.56069 211.20779 210.85189
 210.48299 210.20708 210.02918 209.90728 209.84938 210.19448 210.59458 210.99768
 211.80478 212.99688 214.26098 216.05808 218.00018 220.05728 222.16638 224.26348
 226.33758 228.43568 230.54678 232.66688 234.80998 236.99608 239.26618 241.65028
 244.28538 246.55048 248.56658 250.34568 251.77677 252.91387 253.74997 254.08007
 254.13117 253.91927 253.29337 252.25547 250.87557 249.05067 246.97377 244.82087
 242.62597 240.44407 238.27817 236.13127 234.00537 231.88647 229.92657 228.09767
 226.39477 224.88087 223.52497 222.31107 221.20717 220.18127 219.29937 218.45446
 217.71056 216.90466 216.01676 215.39486 214.85896 214.73616 214.44119 213.89813
 212.43184 210.49492 210.58055 213.19896 216.78214 221.10542 226.46965 231.14056
 235.09471 239.28302 243.51187 247.60754 251.51073 255.30722 259.00418 262.44391
 265.55750 268.38342 270.98837 273.34943 275.28909 276.80658 278.06549 279.25366
 280.50128 281.64673 282.55508 283.24216 284.06448 285.14520 286.11716 286.95789
 287.75797 288.47043 289.09283 289.88599
 366.78100 356.34900 345.79501 334.67501 323.09202 311.30002 299.18402 287.00103
 274.72703 262.63804 250.66104 239.97604 230.11205 221.23005 213.42606 206.44206
 200.29006 195.24207 191.83807 189.89408 188.94508 189.02308 189.87209 191.19409
 192.93309 195.04210 197.31910 199.69211 202.15111 204.64511 206.74712 208.60312
 210.24313 211.40213 211.64513 211.88714 211.83814 211.55715 211.20415 210.84815
 210.47916 210.20316 210.02517 209.90317 209.84517 210.19018 210.59018 210.99319
 211.80019 212.99219 214.25620 216.05320 217.99521 220.05221 222.16121 224.25822
 226.33222 228.43023 230.54123 232.66123 234.80424 236.99024 239.26025 241.64425
 244.27925 246.54426 248.56026 250.33927 251.77027 252.90727 253.74328 254.07328
 254.12428 253.91229 253.28629 252.24830 250.86830 249.04330 246.96631 244.81331
 242.61832 240.43632 238.27032 236.12333 233.99733 231.87834 229.91834 228.08934
 226.38635 224.87235 223.51636 222.30236 221.19836 220.17237 219.29037 218.44538
 217.70138 216.89538 216.00739 215.38539 214.84940 214.74446 214.49547 213.87338
 212.57280 210.49661 210.46245 213.09726 216.73799 221.08200 226.46651 231.11301
 235.08517 239.27266 243.50549 247.60324 251.50360 255.29286 258.98792 262.43182
 265.54526 268.36847 270.96667 273.32159 275.27579 276.80704 278.08514 279.27939
 280.48010 281.55338 282.36453 283.00424 283.80612 284.87463 285.85663 286.38837
 287.18039 287.91702 288.56049 289.38055
 366.78100 356.34909 345.79518 334.67527 323.09236 311.30045 299.18454 287.00163
 274.72772 262.63880 250.66189 239.97698 230.11307 221.23116 213.42725 206.44334
 200.29143 195.24352 191.83961 189.89570 188.94679 189.02488 189.87397 191.19606
 192.93515 195.04424 197.32132 199.69441 202.15350 204.64759 206.74968 208.60577
 210.24586 211.40495 211.64804 211.89013 211.84122 211.56031 211.20740 210.85149
 210.48258 210.20667 210.02876 209.90684 209.84893 210.19402 210.59411 210.99720
 211.80429 212.99638 214.26047 216.05756 217.99965 220.05674 222.16583 224.26292
 226.33701 228.43510 230.54619 232.66627 234.80936 236.99545 239.26554 241.64963
 244.28472 246.54981 248.56590 250.34499 251.77608 252.91317 253.74926 254.07935
 254.13044 253.91853 253.29262 252.25471 250.87479 249.04988 246.97297 244.82006
 242.62515 240.44324 238.27733 236.13042 234.00451 231.88560 229.92569 228.09678
 226.39387 224.87996 223.52405 222.31014 221.20623 220.18031 219.29840 218.45349
 217.70958 216.90367 216.01576 215.39385 214.85794 214.76277 214.53793 213.81473
 212.75719 210.49310 210.29092 212.98349 216.71361 221.06848 226.45947 231.09143
 235.07382 239.26187 243.49927 247.60019 251.49893 255.28424 258.97787 262.42667
 265.53925 268.35693 270.94534 273.29626 275.25888 276.80502 278.09412 279.28604
 280.44424 281.43588 282.13922 282.73315 283.55066 284.61896 285.62753 286.32422
 286.88821 287.61761 288.26575 289.09171
 366.78100 356.34930 345.79560 334.67590 323.09320 311.30150 299.18580 287.00310
 274.72940 262.64070 250.66400 239.97930 230.11561 221.23391 213.43021 206.44651
 200.29481 195.24711 191.84341 189.89971 188.95101 189.02931 189.87861 191.20091
 192.94021 195.04951 197.32681 199.70011 202.15941 204.65371 206.75601 208.61231
 210.25261 211.41191 211.65521 211.89752 211.84882 211.56812 211.21542 210.85972
 210.49102 210.21532 210.03762 209.91592 209.85822 210.20352 210.60382 211.00712
 211.81442 213.00672 214.27102 216.06832 218.01062 220.06792 222.17722 224.27452
 226.34882 228.44712 230.55843 232.67873 234.82203 237.00833 239.27863 241.66293
 244.29823 246.56353 248.57983 250.35913 251.79043 252.92773 253.76403 254.09433
 254.14563 253.93393 253.30823 252.27053 250.89083 249.06613 246.98943 244.83673
 242.64203 240.46034 238.29464 236.14794 234.02224 231.90354 229.94384 228.11514
 226.41244 224.89874 223.54304 222.32934 221.22564 220.19994 219.31824 218.47354
 217.72984 216.92414 216.03644 215.41474 214.87904 214.78819 214.57356 213.77614
 212.82913 210.50211 210.16412 212.90524 216.71059 221.06479 226.44537 231.07950
 235.06017 239.25111 243.49260 247.59810 251.49724 255.27831 258.96646 262.41733
 265.52594 268.33707 270.91589 273.25818 275.22385 276.79346 278.10397 279.29901
 280.42276 281.33014 281.94431 282.48471 283.31992 284.35379 285.35550 286.25259
 287.03320 287.73849 288.36514 289.16379
 366.78100 356.34979 345.79659 334.67738 323.09518 311.30397 299.18877 287.00656
 274.73336 262.64515 250.66895 239.98474 230.12154 221.24033 213.43713 206.45392
 200.30272 195.25551 191.85231 189.90910 188.96090 189.03969 189.88949 191.21228
 192.95208 195.06187 197.33967 199.71346 202.17326 204.66805 206.77085 208.62764
 210.26844 211.42823 211.67203 211.91482 211.86662 211.58641 211.23421 210.87900
 210.51080 210.23559 210.05839 209.93718 209.87998 210.22577 210.62657 211.03036
 211.83816 213.03095 214.29575 216.09354 218.03634 220.09413 222.20393 224.30172
 226.37652 228.47531 230.58711 232.70790 234.85170 237.03849 239.30929 241.69408
 244.32988 246.59567 248.61247 250.39226 251.82406 252.96185 253.79865 254.12944
 254.18124 253.97003 253.34483 252.30762 250.92842 249.10421 247.02801 244.87580
 242.68160 240.50039 238.33519 236.18898 234.06378 231.94557 229.98637 228.15816
 226.45596 224.94275 223.58755 222.37434 221.27114 220.24593 219.36473 218.52052
 217.77732 216.97211 216.08491 215.46370 214.92850 214.82454 214.57892 213.79320
 212.81393 210.51048 210.10295 212.86768 216.70486 221.05388 226.42688 231.06505
 235.04819 239.24474 243.49225 247.60324 251.50140 255.27579 258.95627 262.40729
 265.50970 268.31161 270.87796 273.20377 275.17151 276.77539 278.12210 279.32999
 280.44046 281.30609 281.86340 282.30960 282.98865 283.94992 284.93185 285.82425
 286.60782 287.30789 287.93774 288.74045
 366.78100 356.35059 345.79819 334.67978 323.09838 311.30797 299.19356 287.01216
 274.73975 262.65235 250.67694 239.99353 230.13113 221.25072 213.44831 206.46591
 200.31550 195.26910 191.86669 189.92428 188.97688 189.05647 189.90707 191.23066
 192.97125 195.08185 197.36044 199.73504 202.19563 204.69122 206.79482 208.65241
 210.29401 211.45460 211.69919 211.94279 211.89538 211.61598 211.26457 210.91016
 210.54276 210.26835 210.09194 209.97154 209.91513 210.26173 210.66332 211.06791
 211.87651 213.07010 214.33570 216.13429 218.07788 220.13648 222.24707 224.34567
 226.42126 228.52085 230.63345 232.75504 234.89964 237.08723 239.35882 241.74442
 244.38101 246.64761 248.66520 250.44579 251.87839 253.01698 253.85457 254.18617
 254.23876 254.02836 253.40395 252.36754 250.98914 249.16573 247.09033 244.93892
 242.74551 240.56511 238.40070 236.25530 234.13089 232.01348 230.05508 228.22767
 226.52627 225.01386 223.65945 222.44705 221.34464 220.32023 219.43983 218.59642
 217.85402 217.04961 216.16320 215.54280 215.00839 214.87259 214.55173 213.83971
 212.80080 210.52119 210.10207 212.83505 216.66605 221.01529 226.39844 231.03793
 235.03239 239.23790 243.49306 247.60756 251.50111 255.26682 258.94202 262.39740
 265.49509 268.28735 270.83759 273.14316 275.11139 276.74844 278.12244 279.33701
 280.44724 281.27707 281.79071 282.19598 282.80771 283.48227 284.25861 285.16580
 286.01450 286.74292 287.38770 288.21442
 366.78100 356.35122 345.79944 334.68166 323.10088 311.31110 299.19733 287.01655
 274.74477 262.65799 250.68321 240.00043 230.13865 221.25887 213.45709 206.47531
 200.32553 195.27976 191.87798 189.93620 188.98942 189.06964 189.92086 191.24508
 192.98630 195.09752 197.37674 199.75196 202.21319 204.70941 206.81363 208.67185
 210.31407 211.47529 211.72051 211.96473 211.91795 211.63917 211.28839 210.93462
 210.56784 210.29406 210.11828 209.99850 209.94272 210.28994 210.69216 211.09738
 211.90660 213.10082 214.36705 216.16627 218.11049 220.16971 222.28093 224.38015
 226.45637 228.55659 230.66981 232.79203 234.93725 237.12548 239.39770 241.78392
 244.42114 246.68836 248.70658 250.48780 251.92102 253.06024 253.89846 254.23068
 254.28391 254.07413 253.45035 252.41457 251.03679 249.21401 247.13923 244.98845
 242.79567 240.61589 238.45211 236.30734 234.18356 232.06678 230.10900 228.28222
 226.58144 225.06966 223.71588 222.50410 221.40232 220.37854 219.49877 218.65599
 217.91421 217.11043 216.22465 215.60487 215.07109 214.91301 214.53952 213.85806
 212.82237 210.53380 210.10733 212.80615 216.60635 220.96321 226.35718 231.01013
 235.01190 239.22688 243.49008 247.60625 251.49568 255.25319 258.92328 262.38553
 265.48148 268.26880 270.80447 273.08313 275.04910 276.71381 278.11096 279.33072
 280.42480 281.17215 281.56940 281.92438 282.54785 283.29352 284.16180 285.05716
 285.89661 286.62775 287.26669 288.09131
 366.78100 356.35130 345.79960 334.68190 323.10119 311.31149 299.19779 287.01709
 274.74539 262.65869 250.68398 240.00128 230.13958 221.25988 213.45818 206.47648
 200.32677 195.28107 191.87937 189.93767 188.99097 189.07127 189.92257 191.24686
 192.98816 195.09946 197.37876 199.75406 202.21536 204.71165 206.81595 208.67425
 210.31655 211.47785 211.72315 211.96744 211.92074 211.64204 211.29134 210.93764
 210.57094 210.29724 210.12153 210.00183 209.94613 210.29343 210.69573 211.10103
 211.91032 213.10462 214.37092 216.17022 218.11452 220.17382 222.28511 224.38441
 226.46071 228.56101 230.67431 232.79661 234.94191 237.13020 239.40250 241.78880
 244.42610 246.69340 248.71170 250.49299 251.92629 253.06559 253.90389 254.23619
 254.28949 254.07978 253.45608 252.42038 251.04268 249.21998 247.14528 244.99458
 242.80187 240.62217 238.45847 236.31377 234.19007 232.07337 230.11566 228.28896
 226.58826 225.07656 223.72286 222.51116 221.40945 220.38575 219.50605 218.66335
 217.92165 217.11795 216.23225 215.61254 215.07884 214.92612 214.56526 213.83913
 212.84509 210.53864 210.07639 212.78534 216.55144 220.91971 226.31931 230.99837
 234.99352 239.22086 243.48935 247.60695 251.49345 255.24374 258.90585 262.37299
 265.46906 268.25049 270.76666 273.01068 274.96793 276.65671 278.08853 279.32373
 280.37823 281.04446 281.39813 281.76974 282.37912 283.13986 284.02393 284.90933
 285.73529 286.47739 287.13126 287.96539
 366.78100 356.35114 345.79927 334.68141 323.10054 311.31068 299.19681 287.01595
 274.74408 262.65722 250.68236 239.99949 230.13763 221.25776 213.45590 206.47403
 200.32417 195.27831 191.87644 189.93458 188.98771 189.06785 189.91898 191.24312
 192.98425 195.09539 197.37453 199.74966 202.21080 204.70693 206.81107 208.66920
 210.31134 211.47248 211.71761 211.96175 211.91488 211.63602 211.28515 210.93129
 210.56442 210.29056 210.11470 209.99483 209.93897 210.28610 210.68824 211.09337
 211.90251 213.09664 214.36278 216.16192 218.10605 220.16519 222.27632 224.37546
 226.45159 228.55173 230.66487 232.78700 234.93214 237.12027 239.39241 241.77854
 244.41568 246.68281 248.70095 250.48209 251.91522 253.05436 253.89249 254.22463
 254.27776 254.06790 253.44404 252.40817 251.03031 249.20744 247.13258 244.98171
 242.78885 240.60898 238.44512 236.30026 234.17639 232.05953 230.10166 228.27480
 226.57393 225.06207 223.70820 222.49634 221.39448 220.37061 219.49075 218.64788
 217.90602 217.10215 216.21629 215.59643 215.06256 214.92566 214.60220 213.81946
 212.85947 210.53734 210.03094 212.76131 216.50410 220.88507 226.29016 230.99298
 234.97867 239.21779 243.49091 247.60846 251.49167 255.23521 258.89130 262.36234
 265.45752 268.22717 270.71701 272.92407 274.87299 276.58365 278.04764 279.29254
 280.30469 280.93652 281.28125 281.64056 282.24081 283.02081 283.92484 284.80585
 285.62402 286.37607 287.05084 287.91074
 366.78100 356.35104 345.79909 334.68113 323.10018 311.31022 299.19626 287.01531
 274.74335 262.65640 250.68144 239.99848 230.13653 221.25657 213.45462 206.47266
 200.32270 195.27675 191.87479 189.93284 188.98588 189.06593 189.91697 191.24101
 192.98206 195.09310 197.37215 199.74719 202.20823 204.70428 206.80832 208.66637
 210.30841 211.46945 211.71450 211.95854 211.91159 211.63263 211.28167 210.92772
 210.56076 210.28681 210.11085 209.99089 209.93494 210.28198 210.68403 211.08907
 211.89811 213.09216 214.35820 216.15725 218.10129 220.16034 222.27138 224.37042
 226.44647 228.54651 230.65956 232.78160 234.92664 237.11469 239.38673 241.77278
 244.40982 246.67686 248.69491 250.47595 251.90900 253.04804 253.88608 254.21813
 254.27117 254.06122 253.43726 252.40130 251.02335 249.20039 247.12544 244.97448
 242.78152 240.60157 238.43761 236.29266 234.16870 232.05174 230.09379 228.26683
 226.56588 225.05392 223.69997 222.48801 221.38605 220.36210 219.48214 218.63919
 217.89723 217.09327 216.20732 215.58736 215.05341 214.92775 214.63089 213.81400
 212.87335 210.53177 210.01093 212.73413 216.46149 220.85046 226.26054 230.98314
 234.96021 239.20966 243.48755 247.60545 251.48575 255.22484 258.87769 262.35315
 265.44711 268.20343 270.66611 272.83890 274.77725 276.50146 277.98328 279.22858
 280.21274 280.83807 281.17166 281.53961 282.16241 282.96851 283.90390 284.79135
 285.61926 286.38763 287.07623 287.95374
 366.78100 356.35101 345.79901 334.68102 323.10003 311.31003 299.19604 287.01505
 274.74306 262.65606 250.68107 239.99808 230.13608 221.25609 213.45410 206.47210
 200.32211 195.27612 191.87413 189.93213 188.98514 189.06515 189.91615 191.24016
 192.98117 195.09217 197.37118 199.74619 202.20720 204.70320 206.80721 208.66522
 210.30722 211.46823 211.71324 211.95724 211.91025 211.63126 211.28027 210.92627
 210.55928 210.28529 210.10929 209.98930 209.93331 210.28031 210.68232 211.08733
 211.89633 213.09034 214.35635 216.15536 218.09936 220.15837 222.26938 224.36838
 226.44439 228.54440 230.65740 232.77941 234.92442 237.11243 239.38443 241.77044
 244.40745 246.67445 248.69246 250.47347 251.90647 253.04548 253.88349 254.21550
 254.26850 254.05851 253.43452 252.39852 251.02053 249.19754 247.12254 244.97155
 242.77856 240.59857 238.43457 236.28958 234.16559 232.04859 230.09060 228.26361
 226.56261 225.05062 223.69663 222.48464 221.38264 220.35865 219.47866 218.63566
 217.89367 217.08968 216.20368 215.58369 215.04970 214.93102 214.65062 213.81653
 212.88383 210.53625 209.99686 212.70599 216.42046 220.81277 226.22986 230.96576
 234.93831 239.19740 243.48106 247.59975 251.47810 255.21507 258.86856 262.35019
 265.44385 268.18469 270.61758 272.75488 274.67740 276.40640 277.89948 279.14713
 280.12186 280.76346 281.11642 281.50055 282.14496 282.97748 283.94016 284.83655
 285.67258 286.45273 287.14212 288.02066
 366.78100 356.35100 345.79901 334.68101 323.10002 311.31002 299.19603 287.01503
 274.74303 262.65604 250.68104 239.99805 230.13605 221.25606 213.45406 206.47206
 200.32207 195.27607 191.87408 189.93208 188.98508 189.06509 189.91609 191.24010
 192.98110 195.09211 197.37111 199.74611 202.20712 204.70312 206.80713 208.66513
 210.30714 211.46814 211.71314 211.95715 211.91015 211.63116 211.28016 210.92617
 210.55917 210.28517 210.10918 209.98918 209.93319 210.28019 210.68219 211.08720
 211.89620 213.09021 214.35621 216.15522 218.09922 220.15822 222.26923 224.36823
 226.44424 228.54424 230.65725 232.77925 234.92425 237.11226 239.38426 241.77027
 244.40727 246.67428 248.69228 250.47328 251.90629 253.04529 253.88330 254.21530
 254.26830 254.05831 253.43431 252.39832 251.02032 249.19733 247.12233 244.97133
 242.77834 240.59834 238.43435 236.28935 234.16536 232.04836 230.09036 228.26337
 226.56237 225.05038 223.69638 222.48439 221.38239 220.35839 219.47840 218.63540
 217.89341 217.08941 216.20341 215.58342 215.04942 214.93552 214.66640 213.81924
 212.90294 210.54652 209.99350 212.67368 216.37927 220.77142 226.19327 230.94095
 234.91025 239.17941 243.46989 247.59102 251.46906 255.20708 258.86478 262.35278
 265.44583 268.16891 270.56808 272.66644 274.56836 276.30020 277.80753 279.07178
 280.06540 280.74820 281.13016 281.51282 282.16986 283.00494 283.96866 284.86536
 285.71277 286.50308 287.19592 288.07889
 366.78100 356.35085 345.79870 334.68054 323.09939 311.30924 299.19509 287.01394
 274.74179 262.65463 250.67948 239.99633 230.13418 221.25403 213.45187 206.46972
 200.31957 195.27342 191.87127 189.92911 188.98196 189.06181 189.91266 191.23651
 192.97736 195.08820 197.36705 199.74190 202.20275 204.69860 206.80244 208.66029
 210.30214 211.46299 211.70784 211.95168 211.90453 211.62538 211.27423 210.92008
 210.55293 210.27877 210.10262 209.98247 209.92632 210.27317 210.67501 211.07986
 211.88871 213.08256 214.34841 216.14725 218.09110 220.14995 222.26080 224.35965
 226.43550 228.53534 230.64819 232.77004 234.91489 237.10274 239.37458 241.76043
 244.39728 246.66413 248.68198 250.46283 251.89567 253.03452 253.87237 254.20422
 254.25707 254.04691 253.42276 252.38661 251.00846 249.18531 247.11015 244.95900
 242.76585 240.58570 238.42155 236.27640 234.15224 232.03509 230.07694 228.24979
 226.54864 225.03648 223.68233 222.47018 221.36803 220.34388 219.46372 218.62057
 217.87842 217.07427 216.18812 215.56797 215.03381 214.93243 214.69292 213.80972
 212.92345 210.57816 210.00156 212.64430 216.34012 220.72740 226.15302 230.91579
 234.87762 239.15865 243.45683 247.58150 251.46169 255.20238 258.86667 262.35837
 265.45117 268.15491 270.51474 272.57370 274.45651 276.19287 277.72079 279.01529
 280.02942 280.72580 281.08258 281.49817 282.19049 283.07010 284.03745 284.93289
 285.81137 286.61734 287.32141 288.21869
 366.78100 356.35077 345.79855 334.68032 323.09910 311.30887 299.19464 287.01342
 274.74119 262.65397 250.67874 239.99552 230.13329 221.25306 213.45084 206.46861
 200.31839 195.27216 191.86993 189.92771 188.98048 189.06026 189.91103 191.23480
 192.97558 195.08635 197.36513 199.73990 202.20068 204.69645 206.80022 208.65800
 210.29977 211.46055 211.70532 211.94909 211.90187 211.62264 211.27142 210.91719
 210.54997 210.27574 210.09951 209.97929 209.92306 210.26984 210.67161 211.07638
 211.88516 213.07893 214.34471 216.14348 218.08725 220.14603 222.25680 224.35558
 226.43135 228.53113 230.64390 232.76567 234.91045 237.09822 239.37000 241.75577
 244.39254 246.65932 248.67709 250.45787 251.89064 253.02941 253.86719 254.19896
 254.25174 254.04151 253.41729 252.38106 251.00283 249.17961 247.10438 244.95316
 242.75993 240.57970 238.41548 236.27025 234.14603 232.02880 230.07058 228.24335
 226.54212 225.02990 223.67567 222.46345 221.36122 220.33699 219.45677 218.61354
 217.87132 217.06709 216.18086 215.56064 215.02641 214.93201 214.70781 213.81647
 212.91501 210.59972 210.01955 212.61241 216.30579 220.68742 226.11209 230.88625
 234.84492 239.13756 243.44534 247.57297 251.45367 255.19710 258.86996 262.36838
 265.45877 268.14026 270.46207 272.48657 274.35226 276.09256 277.63910 278.94366
 279.93317 280.60187 280.97714 281.48026 282.20706 283.14835 284.11877 285.03195
 285.92310 286.73611 287.44635 288.35147
 366.78100 356.35071 345.79841 334.68012 323.09883 311.30853 299.19424 287.01295
 274.74065 262.65336 250.67807 239.99477 230.13248 221.25218 213.44989 206.46760
 200.31730 195.27101 191.86872 189.92642 188.97913 189.05884 189.90954 191.23325
 192.97396 195.08466 197.36337 199.73808 202.19878 204.69449 206.79820 208.65590
 210.29761 211.45832 211.70302 211.94673 211.89944 211.62014 211.26885 210.91455
 210.54726 210.27297 210.09667 209.97638 209.92009 210.26679 210.66850 211.07321
 211.88191 213.07562 214.34133 216.14003 218.08374 220.14245 222.25315 224.35186
 226.42757 228.52727 230.63998 232.76169 234.90639 237.09410 239.36581 241.75151
 244.38822 246.65492 248.67263 250.45334 251.88604 253.02475 253.86246 254.19416
 254.24687 254.03658 253.41228 252.37599 250.99770 249.17440 247.09911 244.94782
 242.75452 240.57423 238.40994 236.26464 234.14035 232.02306 230.06476 228.23747
 226.53617 225.02388 223.66959 222.45729 221.35500 220.33071 219.45041 218.60712
 217.86483 217.06053 216.17424 215.55395 215.01965 214.93056 214.71696 213.82866
 212.93642 210.60468 210.01915 212.59355 216.26546 220.63843 226.06927 230.84842
 234.81111 239.11385 243.43024 247.56042 251.44174 255.19012 258.87451 262.38245
 265.47202 268.13275 270.41705 272.40356 274.24835 275.99017 277.54721 278.83481
 279.77475 280.42117 280.88544 281.48499 282.27582 283.26999 284.24387 285.15741
 286.05267 286.86179 287.56860 288.46936
 366.78100 356.35042 345.79785 334.67927 323.09770 311.30712 299.19255 287.01097
 274.73839 262.65082 250.67524 239.99167 230.12909 221.24852 213.44594 206.46336
 200.31279 195.26621 191.86364 189.92106 188.97348 189.05291 189.90333 191.22676
 192.96718 195.07761 197.35603 199.73045 202.19088 204.68630 206.78973 208.64715
 210.28858 211.44900 211.69342 211.93685 211.88927 211.60970 211.25812 210.90355
 210.53597 210.26139 210.08482 209.96424 209.90767 210.25409 210.65552 211.05994
 211.86836 213.06179 214.32721 216.12564 218.06906 220.12749 222.23791 224.33633
 226.41176 228.51118 230.62361 232.74503 234.88945 237.07688 239.34830 241.73373
 244.37015 246.63658 248.65400 250.43442 251.86685 253.00527 253.84270 254.17412
 254.22655 254.01597 253.39139 252.35482 250.97624 249.15267 247.07709 244.92552
 242.73194 240.55136 238.38679 236.24121 234.11664 231.99906 230.04049 228.21291
 226.51133 224.99876 223.64418 222.43161 221.32903 220.30445 219.42388 218.58030
 217.83773 217.03315 216.14658 215.52600 214.99142 214.91811 214.74004 213.81961
 212.98633 210.64206 209.99829 212.53690 216.20961 220.58278 226.02330 230.80753
 234.77539 239.09277 243.42227 247.55627 251.43591 255.18839 258.88718 262.40649
 265.49036 268.12109 270.36270 272.31329 274.14029 275.87988 277.43890 278.70786
 279.62933 280.32056 280.86942 281.51367 282.42389 283.47882 284.47568 285.38974
 286.24319 287.00455 287.66965 288.51724
 366.78100 356.35010 345.79721 334.67831 323.09642 311.30552 299.19063 287.00873
 274.73584 262.64794 250.67204 239.98815 230.12525 221.24436 213.44146 206.45857
 200.30767 195.26078 191.85788 189.91498 188.96709 189.04619 189.89630 191.21940
 192.95951 195.06961 197.34771 199.72182 202.18192 204.67703 206.78013 208.63724
 210.27834 211.43845 211.68255 211.92565 211.87776 211.59786 211.24597 210.89107
 210.52318 210.24828 210.07139 209.95049 209.89359 210.23970 210.64080 211.04491
 211.85301 213.04612 214.31122 216.10933 218.05243 220.11053 222.22064 224.31874
 226.39385 228.49295 230.60506 232.72616 234.87027 237.05737 239.32847 241.71358
 244.34968 246.61579 248.63289 250.41300 251.84510 252.98321 253.82031 254.15141
 254.20352 253.99262 253.36773 252.33083 250.95194 249.12804 247.05214 244.90025
 242.70635 240.52546 238.36056 236.21467 234.08977 231.97188 230.01298 228.18508
 226.48319 224.97029 223.61540 222.40250 221.29961 220.27471 219.39382 218.54992
 217.80702 217.00213 216.11523 215.49434 214.95944 214.90393 214.76604 213.80069
 213.03011 210.73714 209.99332 212.41241 216.11267 220.53543 225.98871 230.77655
 234.74985 239.07790 243.41634 247.55589 251.43968 255.19688 258.90155 262.42255
 265.50446 268.11816 270.32309 272.23029 274.02435 275.75034 277.30362 278.56702
 279.51517 280.27310 280.93185 281.67587 282.53873 283.57040 284.55905 285.47180
 286.32034 287.07596 287.73605 288.57727
 366.78100 356.34983 345.79666 334.67748 323.09531 311.30414 299.18897 287.00680
 274.73363 262.64545 250.66928 239.98511 230.12194 221.24077 213.43760 206.45442
 200.30325 195.25608 191.85291 189.90974 188.96156 189.04039 189.89022 191.21305
 192.95288 195.06271 197.34053 199.71436 202.17419 204.66902 206.77185 208.62868
 210.26950 211.42933 211.67316 211.91599 211.86782 211.58764 211.23547 210.88030
 210.51213 210.23696 210.05979 209.93861 209.88144 210.22727 210.62810 211.03193
 211.83976 213.03258 214.29741 216.09524 218.03807 220.09590 222.20572 224.30355
 226.37838 228.47721 230.58904 232.70987 234.85369 237.04052 239.31135 241.69618
 244.33201 246.59784 248.61466 250.39449 251.82632 252.96415 253.80098 254.13180
 254.18363 253.97246 253.34729 252.31012 250.93095 249.10677 247.03060 244.87843
 242.68426 240.50309 238.33792 236.19174 234.06657 231.94840 229.98923 228.16106
 226.45888 224.94571 223.59054 222.37737 221.27420 220.24903 219.36785 218.52368
 217.78051 216.97534 216.08817 215.46700 214.93182 214.89212 214.78798 213.80511
 212.99081 210.83505 210.03391 212.24384 216.06248 220.56268 225.97342 230.75026
 234.71368 239.05597 243.40446 247.53383 251.39980 255.16391 258.90759 262.46124
 265.54294 268.12393 270.28079 272.14069 273.90582 275.61752 277.18802 278.49796
 279.44925 280.25397 280.98038 281.76886 282.77298 283.85437 284.88531 285.81680
 286.63245 287.35880 287.99335 288.80197
 366.78100 356.34905 345.79510 334.67515 323.09220 311.30025 299.18430 287.00135
 274.72740 262.63844 250.66149 239.97654 230.11259 221.23064 213.42669 206.44274
 200.29079 195.24284 191.83889 189.89494 188.94599 189.02404 189.87309 191.19514
 192.93419 195.04324 197.32029 199.69333 202.15238 204.64643 206.74848 208.60453
 210.24458 211.40363 211.64668 211.88873 211.83978 211.55883 211.20588 210.84993
 210.48098 210.20503 210.02708 209.90513 209.84717 210.19222 210.59227 210.99532
 211.80237 212.99442 214.25847 216.05552 217.99757 220.05462 222.16367 224.26072
 226.33477 228.43282 230.54387 232.66392 234.80697 236.99302 239.26306 241.64711
 244.28216 246.54721 248.56326 250.34231 251.77336 252.91041 253.74646 254.07651
 254.12756 253.91561 253.28966 252.25171 250.87176 249.04681 246.96986 244.81690
 242.62195 240.44000 238.27405 236.12710 234.00115 231.88220 229.92225 228.09330
 226.39035 224.87640 223.52045 222.30650 221.20255 220.17660 219.29465 218.44970
 217.70575 216.89979 216.01184 215.38989 214.85394 214.82808 214.75061 213.83000
 212.96201 210.90543 210.09727 212.10936 216.04503 220.60814 225.95749 230.71788
 234.67166 239.03284 243.39529 247.51172 251.35770 255.12938 258.91742 262.50058
 265.57657 268.12314 270.23975 272.06464 273.80060 275.48798 277.08087 278.40872
 279.36938 280.20126 280.99066 281.90323 282.95294 284.03580 285.08609 286.02359
 286.86411 287.61258 288.26645 289.09970
 366.78100 356.34806 345.79313 334.67219 323.08826 311.29532 299.17839 286.99445
 274.71952 262.62958 250.65165 239.96571 230.10078 221.21784 213.41291 206.42797
 200.27504 195.22610 191.82117 189.87623 188.92630 189.00336 189.85143 191.17249
 192.91056 195.01862 197.29469 199.66675 202.12482 204.61788 206.71895 208.57401
 210.21308 211.37114 211.61321 211.85427 211.80434 211.52240 211.16847 210.81153
 210.44160 210.16466 209.98573 209.86279 209.80386 210.14792 210.54699 210.94905
 211.75512 212.94618 214.20925 216.00531 217.94638 220.00244 222.11051 224.20657
 226.27964 228.37670 230.48677 232.60583 234.74790 236.93296 239.20203 241.58509
 244.21916 246.48322 248.49829 250.27635 251.70642 252.84248 253.67755 254.00661
 254.05668 253.84374 253.21680 252.17787 250.79693 248.97100 246.89306 244.73913
 242.54319 240.36026 238.19332 236.04539 233.91845 231.79852 229.83758 228.00765
 226.30371 224.78878 223.43184 222.21691 221.11197 220.08504 219.20210 218.35617
 217.61123 216.80430 215.91536 215.29243 214.75549 214.74020 214.68350 213.86211
 212.97185 210.96371 210.15302 212.03300 216.02811 220.62102 225.92963 230.67839
 234.63551 239.01622 243.39273 247.50114 251.33339 255.11261 258.93164 262.53131
 265.59937 268.12222 270.21085 272.00653 273.71118 275.37219 276.97516 278.29660
 279.27493 280.12888 281.01556 282.01019 283.10895 284.21924 285.26703 286.19543
 287.03043 287.77402 288.42358 289.25137
 366.78100 356.34697 345.79093 334.66890 323.08386 311.28983 299.17179 286.98676
 274.71072 262.61969 250.64066 239.95362 230.08759 221.20355 213.39752 206.41148
 200.25745 195.20741 191.80138 189.85535 188.90431 188.98028 189.82724 191.14721
 192.88417 194.99114 197.26610 199.63707 202.09404 204.58600 206.68597 208.53993
 210.17790 211.33486 211.57583 211.81579 211.76476 211.48172 211.12669 210.76866
 210.39762 210.11959 209.93955 209.81552 209.75548 210.09845 210.49641 210.89738
 211.70235 212.89231 214.15428 215.94924 217.88921 219.94417 222.05114 224.14610
 226.21807 228.31404 230.42300 232.54097 234.68193 236.86590 239.13386 241.51583
 244.14879 246.41176 248.42573 250.20269 251.63166 252.76662 253.60059 253.92855
 253.97752 253.76348 253.13545 252.09542 250.71338 248.88635 246.80731 244.65228
 242.45524 240.27121 238.10317 235.95414 233.82611 231.70507 229.74304 227.91200
 226.20697 224.69093 223.33290 222.11686 221.01083 219.98279 219.09876 218.25173
 217.50569 216.69766 215.80762 215.18359 214.64555 214.63434 214.58807 213.92712
 213.08469 211.07341 210.22560 212.02977 216.05144 220.64088 225.91408 230.64702
 234.60913 239.01085 243.39963 247.49684 251.31226 255.10132 258.94803 262.56042
 265.61734 268.11749 270.18362 271.95599 273.63031 275.27728 276.87152 278.18872
 279.17108 280.06296 281.03339 282.10580 283.26892 284.41162 285.51901 286.44269
 287.27341 288.01318 288.65942 289.48297
 354.97500 345.04800 334.58700 324.11500 313.32600 302.53700 291.65000 280.76700
 269.93100 259.19300 248.62200 238.61700 229.08700 220.35500 212.54000 205.53500
 199.46400 194.49300 191.14300 189.19000 188.08900 188.01400 188.72400 189.90600
 191.46900 193.38200 195.40300 197.55600 199.80700 202.06000 204.28800 206.47900
 208.55200 210.37800 212.02500 213.65900 214.99800 216.11800 217.17200 218.25900
 219.49400 220.64500 221.67900 222.61400 223.54500 224.98200 226.57100 228.19000
 229.79700 231.81100 233.86500 235.97200 238.24200 240.55300 242.89900 245.25300
 247.48800 249.53500 251.36600 252.84800 254.09800 255.16700 256.02700 256.25300
 256.09500 255.54300 253.93500 252.56600 251.38400 250.24500 249.05200 247.70100
 246.01600 243.99600 241.78400 239.39300 236.81300 234.22300 231.65800 229.14400
 226.74000 224.47300 222.33500 220.32500 218.44000 216.67700 214.96200 213.47200
 212.20000 211.10800 210.26000 209.63900 209.24400 209.03100 209.05800 209.33300
 209.78400 210.62600 211.33100 212.39100 213.62500 214.84668 217.72949 219.47640
 220.32566 220.86828 220.88710 220.27371 219.43733 218.84250 219.04934 220.86203
 222.60583 225.72206 229.03064 232.61777 236.12270 239.51333 242.70767 245.68587
 248.41061 250.90679 253.19353 254.91714 256.48655 257.94920 259.39966 260.69384
 261.81714 262.77997 263.71679 264.54570 265.26305 265.89772 266.47676 267.00133
 267.47312 267.89325 268.26027 268.72800
