|-------------------------------------------------------------------------|
|   File Name : in_temp.dat
|   Subject   : temperature profiles used for initial guess atmosphere
|   File Type : input of gmtr
|   Data Type : atmospherical data
|   Author/s  : WRF-Chem
|   Date      : Fri Jul 26 15:39:24 2024
|-------------------------------------------------------------------------|

 WRF-Chem temperature
#
 values of T (K)    (8f10.5)
#
 354.97500 345.04800 334.58700 324.11500 313.32600 302.53700 291.65000 280.76700
 269.93100 259.19300 248.62200 238.61700 229.08700 220.35500 212.54000 205.53500
 199.46400 194.49300 191.14300 189.19000 188.08900 188.01400 188.72400 189.90600
 191.46900 193.38200 195.40300 197.55600 199.80700 202.06000 204.28800 206.47900
 208.55200 210.37800 212.02500 213.65900 214.99800 216.11800 217.17200 218.25900
 219.49400 220.64500 221.67900 222.61400 223.54500 224.98200 226.57100 228.19000
 229.79700 231.81100 233.86500 235.97200 238.24200 240.55300 242.89900 245.25300
 247.48800 249.53500 251.36600 252.84800 254.09800 255.16700 256.02700 256.25300
 256.09500 255.54300 253.93500 252.56600 251.38400 250.24500 249.05200 247.70100
 246.01600 243.99600 241.78400 239.39300 236.81300 234.22300 231.65800 229.14400
 226.74000 224.47300 222.33500 220.32500 218.44000 216.67700 214.96200 213.47200
 212.20000 211.10800 210.26000 209.63900 209.24400 209.03100 209.05800 209.33300
 209.78400 210.62600 211.33100 212.39100 213.62500 214.84668 217.72949 219.47640
 220.32566 220.86828 220.88710 220.27371 219.43733 218.84250 219.04934 220.86203
 222.60583 225.72206 229.03064 232.61777 236.12270 239.51333 242.70767 245.68587
 248.41061 250.90679 253.19353 254.91714 256.48655 257.94920 259.39966 260.69384
 261.81714 262.77997 263.71679 264.54570 265.26305 265.89772 266.47676 267.00133
 267.47312 267.89325 268.26027 268.72800
 366.78100 356.33500 345.76700 334.63300 323.03600 311.23000 299.10000 286.90300
 274.61500 262.51200 250.52100 239.82200 229.94400 221.04800 213.23000 206.23200
 200.06600 195.00400 191.58600 189.62800 188.66500 188.72900 189.56400 190.87200
 192.59700 194.69200 196.95500 199.31400 201.75900 204.23900 206.32700 208.16900
 209.79500 210.94000 211.16900 211.39700 211.33400 211.03900 210.67200 210.30200
 209.91900 209.62900 209.43700 209.30100 209.22900 209.56000 209.94600 210.33500
 211.12800 212.30600 213.55600 215.33900 217.26700 219.31000 221.40500 223.48800
 225.54800 227.63200 229.72900 231.83500 233.96400 236.13600 238.39200 240.76200
 243.38300 245.63400 247.63600 249.40100 250.81800 251.94100 252.76300 253.07900
 253.11600 252.89000 252.25000 251.19800 249.80400 247.96500 245.87400 243.70700
 241.49800 239.30200 237.12200 234.96100 232.82100 230.68800 228.71400 226.87100
 225.15400 223.62600 222.25600 221.02800 219.91000 218.87000 217.97400 217.11500
 216.35700 215.53700 214.63500 213.99900 213.44900 212.85855 212.01316 212.61654
 214.26826 216.08686 218.14273 220.53346 223.40855 226.78828 231.49734 235.90155
 239.42278 243.28576 247.23140 251.11907 254.80144 258.23331 261.38913 264.27520
 266.89312 269.26852 271.44504 273.08845 274.58484 275.98591 277.39845 278.65879
 279.75272 280.69038 281.56708 282.34086 283.01050 283.60295 284.14348 284.63317
 285.07358 285.46577 285.80838 286.24500
 381.81900 372.39900 361.20600 349.77600 337.62200 324.85300 311.81000 298.35300
 284.86000 271.32400 258.56100 246.30400 236.08700 226.79600 218.44800 211.29000
 205.52200 200.89400 197.38100 194.84800 193.01500 192.31500 192.25000 192.43100
 192.91200 193.53700 194.13600 194.71200 195.26200 195.83100 196.39300 196.97600
 197.60400 198.14900 198.58400 199.05700 199.69500 200.37800 201.05400 201.70800
 202.31300 202.85700 203.35500 203.86200 204.56900 205.29700 206.02600 206.98700
 208.19300 209.44100 210.96900 212.57600 214.46200 216.51300 218.63000 220.85300
 223.34100 225.96200 228.73900 231.69700 234.70600 237.70600 240.69200 243.65700
 246.73700 249.69900 252.52100 255.06300 257.29000 259.23300 260.63300 261.68000
 262.46100 262.79800 262.69100 262.22400 261.06900 259.52500 257.70700 255.50700
 253.00100 250.30200 247.39800 244.45200 241.65400 239.05400 236.73300 234.59000
 232.59500 230.72500 228.83400 226.82600 224.66600 222.38700 220.10400 217.71500
 215.45900 213.06600 210.54600 208.09300 205.35400 202.08130 196.05959 200.71215
 209.01611 216.90438 223.84126 229.78593 235.00632 240.20838 245.98943 250.68668
 254.32982 257.93487 261.55666 264.96801 268.15192 271.06452 273.76717 276.25691
 278.57680 280.74479 282.77456 284.60533 286.27232 287.81705 289.31715 290.65561
 291.81734 292.81312 293.70701 294.49387 295.17482 295.77730 296.32696 296.82492
 297.27278 297.67160 298.02000 298.46400
 399.33000 389.90700 379.81300 368.66800 357.52200 345.30100 333.07400 320.22700
 307.21600 293.84800 280.37600 267.29600 254.61000 242.98700 232.15100 221.97700
 212.67200 204.28600 197.66900 192.82100 189.48600 187.45200 186.81400 187.08900
 187.78100 189.05400 190.64800 192.54200 194.63000 196.75200 198.67100 200.15800
 201.53500 202.48700 202.97500 203.34000 203.53900 203.49700 203.38500 203.24700
 203.00500 202.78600 202.60300 202.43700 202.42600 202.88800 203.42000 203.95100
 204.89500 205.99200 207.30100 208.95800 210.73800 213.10000 215.56400 218.18000
 220.96600 223.91800 226.96100 230.09200 233.29300 236.55700 239.95500 243.53700
 246.84500 249.39000 251.54200 253.47400 255.19500 256.48400 257.43100 258.05900
 258.21200 258.04000 257.58200 256.64300 255.23900 253.50700 251.40800 249.05600
 246.57600 243.99400 241.38900 238.83000 236.34400 233.98600 231.96900 230.11800
 228.42300 226.89900 225.54800 224.29700 223.10500 221.96500 220.95800 220.11300
 219.49000 218.92000 218.32500 217.88100 217.42300 216.96366 216.35568 216.80261
 217.73415 218.28582 218.64258 219.10077 220.44626 222.53987 226.38451 230.35736
 233.59734 237.39164 241.29814 245.22796 248.98002 252.51130 255.78595 258.80109
 261.54781 264.05210 266.34239 268.04198 269.58951 271.01303 272.35754 273.55718
 274.59842 275.49092 276.28989 276.99307 277.60161 278.14001 278.63122 279.07623
 279.47646 279.83287 280.14422 280.54100
 399.73800 389.78500 379.66200 368.15100 356.64100 344.35000 331.79200 318.88800
 305.72600 292.49300 279.20900 266.73800 254.69600 244.21100 234.45700 225.43300
 217.56900 210.45100 204.30000 199.30600 195.45800 192.57600 191.02700 190.38600
 190.23900 190.53400 191.16600 191.92500 192.79500 193.76600 194.73200 195.31200
 195.80000 196.05200 196.11500 196.11500 196.03900 195.72300 195.34000 194.98900
 194.75100 194.79200 195.13300 195.59800 196.50600 198.13600 199.85800 201.56600
 204.17900 206.82300 209.89300 213.28400 216.82800 220.60500 224.38700 228.20900
 232.03200 235.82500 239.56000 243.25800 246.84500 250.20100 253.70900 257.46800
 261.53000 264.22100 266.60100 268.68100 270.32900 271.74100 272.83600 273.47400
 273.89800 274.00200 273.75700 273.28800 272.37100 271.10000 269.58900 267.77900
 265.81600 263.72100 261.39300 258.91600 256.29800 253.42300 250.33100 247.11400
 243.83700 240.52900 237.24900 233.99900 230.72800 227.51500 224.25400 220.95200
 217.62700 213.65600 210.12100 206.78900 204.01000 201.99491 199.07309 198.76551
 199.40006 200.48994 201.46112 202.31912 203.45100 204.96110 207.47502 210.85391
 213.70530 217.29629 220.99574 224.72316 228.28753 231.64854 234.68024 237.40893
 239.70644 241.60899 243.46854 245.67368 247.68154 249.52395 251.24767 252.78566
 254.12057 255.26479 256.23740 257.09036 257.82852 258.48160 259.07744 259.61723
 260.10271 260.53504 260.91270 261.39400
 399.73800 389.78500 379.66200 368.15100 356.64100 344.35000 331.79200 318.88800
 305.72600 292.49300 279.20900 266.73800 254.69600 244.21100 234.45700 225.43300
 217.56900 210.45100 204.30000 199.30600 195.45800 192.57600 191.02700 190.38600
 190.23900 190.53400 191.16600 191.92500 192.79500 193.76600 194.73200 195.31200
 195.80000 196.05200 196.11500 196.11500 196.03900 195.72300 195.34000 194.98900
 194.75100 194.79200 195.13300 195.59800 196.50600 198.13600 199.85800 201.56600
 204.17900 206.82300 209.89300 213.28400 216.82800 220.60500 224.38700 228.20900
 232.03200 235.82500 239.56000 243.25800 246.84500 250.20100 253.70900 257.46800
 261.53000 264.22100 266.60100 268.68100 270.32900 271.74100 272.83600 273.47400
 273.89800 274.00200 273.75700 273.28800 272.37100 271.10000 269.58900 267.77900
 265.81600 263.72100 261.39300 258.91600 256.29800 253.42300 250.33100 247.11400
 243.83700 240.52900 237.24900 233.99900 230.72800 227.51500 224.25400 220.95200
 217.62700 213.65600 210.12100 206.78900 204.01000 201.99491 199.07309 198.76551
 199.40006 200.48994 201.46112 202.31912 203.45100 204.96110 207.47502 210.85391
 213.70530 217.29629 220.99574 224.72316 228.28753 231.64854 234.68024 237.40893
 239.70644 241.60899 243.46854 245.67368 247.68154 249.52395 251.24767 252.78566
 254.12057 255.26479 256.23740 257.09036 257.82852 258.48160 259.07744 259.61723
 260.10271 260.53504 260.91270 261.39400
 399.33000 389.90700 379.81300 368.66800 357.52200 345.30100 333.07400 320.22700
 307.21600 293.84800 280.37600 267.29600 254.61000 242.98700 232.15100 221.97700
 212.67200 204.28600 197.66900 192.82100 189.48600 187.45200 186.81400 187.08900
 187.78100 189.05400 190.64800 192.54200 194.63000 196.75200 198.67100 200.15800
 201.53500 202.48700 202.97500 203.34000 203.53900 203.49700 203.38500 203.24700
 203.00500 202.78600 202.60300 202.43700 202.42600 202.88800 203.42000 203.95100
 204.89500 205.99200 207.30100 208.95800 210.73800 213.10000 215.56400 218.18000
 220.96600 223.91800 226.96100 230.09200 233.29300 236.55700 239.95500 243.53700
 246.84500 249.39000 251.54200 253.47400 255.19500 256.48400 257.43100 258.05900
 258.21200 258.04000 257.58200 256.64300 255.23900 253.50700 251.40800 249.05600
 246.57600 243.99400 241.38900 238.83000 236.34400 233.98600 231.96900 230.11800
 228.42300 226.89900 225.54800 224.29700 223.10500 221.96500 220.95800 220.11300
 219.49000 218.92000 218.32500 217.88100 217.42300 216.96366 216.35568 216.80261
 217.73415 218.28582 218.64258 219.10077 220.44626 222.53987 226.38451 230.35736
 233.59734 237.39164 241.29814 245.22796 248.98002 252.51130 255.78595 258.80109
 261.54781 264.05210 266.34239 268.04198 269.58951 271.01303 272.35754 273.55718
 274.59842 275.49092 276.28989 276.99307 277.60161 278.14001 278.63122 279.07623
 279.47646 279.83287 280.14422 280.54100
 381.81900 372.39900 361.20600 349.77600 337.62200 324.85300 311.81000 298.35300
 284.86000 271.32400 258.56100 246.30400 236.08700 226.79600 218.44800 211.29000
 205.52200 200.89400 197.38100 194.84800 193.01500 192.31500 192.25000 192.43100
 192.91200 193.53700 194.13600 194.71200 195.26200 195.83100 196.39300 196.97600
 197.60400 198.14900 198.58400 199.05700 199.69500 200.37800 201.05400 201.70800
 202.31300 202.85700 203.35500 203.86200 204.56900 205.29700 206.02600 206.98700
 208.19300 209.44100 210.96900 212.57600 214.46200 216.51300 218.63000 220.85300
 223.34100 225.96200 228.73900 231.69700 234.70600 237.70600 240.69200 243.65700
 246.73700 249.69900 252.52100 255.06300 257.29000 259.23300 260.63300 261.68000
 262.46100 262.79800 262.69100 262.22400 261.06900 259.52500 257.70700 255.50700
 253.00100 250.30200 247.39800 244.45200 241.65400 239.05400 236.73300 234.59000
 232.59500 230.72500 228.83400 226.82600 224.66600 222.38700 220.10400 217.71500
 215.45900 213.06600 210.54600 208.09300 205.35400 202.08130 196.05959 200.71215
 209.01611 216.90438 223.84126 229.78593 235.00632 240.20838 245.98943 250.68668
 254.32982 257.93487 261.55666 264.96801 268.15192 271.06452 273.76717 276.25691
 278.57680 280.74479 282.77456 284.60533 286.27232 287.81705 289.31715 290.65561
 291.81734 292.81312 293.70701 294.49387 295.17482 295.77730 296.32696 296.82492
 297.27278 297.67160 298.02000 298.46400
 366.78100 356.33992 345.77684 334.64776 323.05567 311.25459 299.12951 286.93743
 274.65435 262.55627 250.57018 239.87610 230.00302 221.11194 213.29886 206.30578
 200.14469 195.08761 191.67453 189.72145 188.76337 188.83229 189.67221 190.98512
 192.71504 194.81496 197.08288 199.44680 201.89672 204.38163 206.47455 208.32147
 209.95239 211.10231 211.33623 211.56914 211.51106 211.22098 210.85890 210.49382
 210.11574 209.83066 209.64357 209.51249 209.44541 209.78133 210.17225 210.56617
 211.36408 212.54700 213.80192 215.58984 217.52276 219.57068 221.67059 223.75851
 225.82343 227.91235 230.01427 232.12519 234.25911 236.43602 238.69694 241.07186
 243.69778 245.95370 247.96062 249.73053 251.15245 252.28037 253.10729 253.42821
 253.47013 253.24904 252.61396 251.56688 250.17780 248.34372 246.25764 244.09555
 241.89147 239.70039 237.52531 235.36923 233.23415 231.10607 229.13698 227.29890
 225.58682 224.06374 222.69866 221.47558 220.36249 219.32741 218.43633 217.58225
 216.82917 216.01409 215.11700 214.48592 213.94084 213.03851 210.91328 210.00206
 210.30405 210.63637 211.94812 215.13531 219.44830 224.19576 229.89445 234.92937
 238.79941 242.80176 247.04375 251.21597 255.01321 258.66739 261.51859 263.61423
 266.31973 269.03519 271.56223 273.95172 275.99078 277.69272 279.12851 280.66888
 282.45047 284.16885 285.70819 287.06741 288.24582 289.28806 290.24063 291.10284
 291.87665 292.56903 293.17325 293.95316
 366.78100 356.33975 345.77651 334.64726 323.05502 311.25377 299.12853 286.93628
 274.65304 262.55479 250.56855 239.87430 230.00105 221.10981 213.29656 206.30332
 200.14207 195.08483 191.67158 189.71834 188.76009 188.82885 189.66860 190.98135
 192.71111 194.81086 197.07862 199.44237 201.89213 204.37688 206.46964 208.31639
 209.94715 211.09690 211.33065 211.56341 211.50516 211.21492 210.85267 210.48743
 210.10918 209.82394 209.63669 209.50545 209.43820 209.77395 210.16471 210.55846
 211.35622 212.53897 213.79373 215.58148 217.51424 219.56199 221.66175 223.74950
 225.81425 227.90301 230.00476 232.11552 234.24927 236.42603 238.68678 241.06154
 243.68729 245.94304 247.94980 249.71955 251.14131 252.26906 253.09582 253.41657
 253.45833 253.23708 252.60184 251.55459 250.16534 248.33110 246.24485 244.08261
 241.87836 239.68712 237.51187 235.35563 233.22038 231.09214 229.12289 227.28464
 225.57240 224.04915 222.68391 221.46066 220.34742 219.31217 218.42093 217.56668
 216.81344 215.99819 215.10094 214.46970 213.92445 213.05649 211.01160 210.11206
 210.30214 210.68684 211.99593 215.07570 219.36299 224.12529 229.80434 234.83424
 238.69997 242.70013 246.95538 251.14223 254.94586 258.62286 261.49811 263.60565
 266.31946 269.02667 271.52588 273.87585 275.92349 277.65997 279.09201 280.61520
 282.38126 284.07581 285.60703 286.96725 288.14572 289.18890 290.14127 291.00421
 291.78073 292.47198 293.07690 293.86166
 366.78100 356.33949 345.77597 334.64646 323.05395 311.25243 299.12692 286.93441
 274.65089 262.55238 250.56587 239.87135 229.99784 221.10633 213.29281 206.29930
 200.13779 195.08027 191.66676 189.71325 188.75473 188.82322 189.66271 190.97519
 192.70468 194.80416 197.07165 199.43514 201.88462 204.36911 206.46160 208.30808
 209.93857 211.08806 211.32154 211.55403 211.49552 211.20500 210.84249 210.47698
 210.09846 209.81295 209.62544 209.49392 209.42641 209.76190 210.15238 210.54587
 211.34336 212.52584 213.78033 215.56782 217.50030 219.54779 221.64728 223.73476
 225.79925 227.88774 229.98922 232.09971 234.23320 236.40968 238.67017 241.04466
 243.67014 245.92563 247.93212 249.70160 251.12309 252.25057 253.07706 253.39755
 253.43903 253.21752 252.58201 251.53449 250.14498 248.31047 246.22395 244.06144
 241.85693 239.66541 237.48990 235.33339 233.19787 231.06936 229.09985 227.26133
 225.54882 224.02531 222.65979 221.43628 220.32277 219.28725 218.39574 217.54123
 216.78771 215.97220 215.07469 214.44317 213.89766 213.06841 211.11404 210.21387
 210.31902 210.73158 212.03986 215.03117 219.26231 224.04346 229.72295 234.74898
 238.60847 242.60362 246.86841 251.06702 254.87646 258.57483 261.47012 263.59225
 266.31552 269.01666 271.48856 273.80136 275.85980 277.63171 279.06229 280.56631
 282.31586 283.98517 285.50928 286.86844 288.04758 289.09167 290.04514 290.90921
 291.68497 292.37573 292.98560 293.77286
 366.78100 356.33919 345.77538 334.64557 323.05276 311.25095 299.12514 286.93233
 274.64851 262.54970 250.56289 239.86808 229.99427 221.10246 213.28865 206.29484
 200.13303 195.07522 191.66141 189.70760 188.74879 188.81698 189.65617 190.96836
 192.69754 194.79673 197.06392 199.42711 201.87630 204.36049 206.45268 208.29887
 209.92906 211.07825 211.31144 211.54363 211.48482 211.19401 210.83120 210.46538
 210.08657 209.80076 209.61295 209.48114 209.41333 209.74852 210.13871 210.53190
 211.32909 212.51128 213.76547 215.55266 217.48485 219.53204 221.63122 223.71841
 225.78260 227.87079 229.97198 232.08217 234.21536 236.39155 238.65174 241.02593
 243.65112 245.90631 247.91250 249.68169 251.10288 252.23007 253.05625 253.37644
 253.41763 253.19582 252.56001 251.51220 250.12239 248.28758 246.20077 244.03796
 241.83315 239.64134 237.46553 235.30872 233.17291 231.04409 229.07428 227.23547
 225.52266 223.99885 222.63304 221.40923 220.29542 219.25961 218.36780 217.51299
 216.75918 215.94337 215.04556 214.41375 213.86794 213.07767 211.21445 210.31206
 210.34950 210.77669 212.07301 214.99709 219.15947 223.95505 229.64699 234.66769
 238.51851 242.50748 246.78036 250.98990 254.80687 258.52469 261.43820 263.57471
 266.30777 269.00351 271.45084 273.72693 275.79797 277.60645 279.03629 280.52365
 282.25439 283.90182 285.41653 286.77487 287.95450 288.99829 289.95340 290.81564
 291.59372 292.28766 292.89313 293.69138
 366.78100 356.33897 345.77493 334.64490 323.05186 311.24983 299.12379 286.93076
 274.64672 262.54769 250.56065 239.86562 229.99158 221.09955 213.28551 206.29148
 200.12945 195.07141 191.65738 189.70334 188.74431 188.81227 189.65124 190.96320
 192.69217 194.79113 197.05810 199.42106 201.87003 204.35400 206.44596 208.29193
 209.92189 211.07086 211.30382 211.53579 211.47675 211.18572 210.82268 210.45665
 210.07761 209.79158 209.60354 209.47151 209.40348 209.73844 210.12841 210.52137
 211.31834 212.50030 213.75427 215.54123 217.47320 219.52016 221.61913 223.70609
 225.77006 227.85803 229.95899 232.06896 234.20192 236.37789 238.63785 241.01182
 243.63678 245.89175 247.89771 249.66668 251.08764 252.21461 253.04057 253.36054
 253.40151 253.17947 252.54344 251.49540 250.10537 248.27033 246.18330 244.02026
 241.81523 239.62319 237.44716 235.29012 233.15409 231.02505 229.05502 227.21599
 225.50295 223.97892 222.61288 221.38885 220.27481 219.23878 218.34674 217.49171
 216.73767 215.92164 215.02360 214.39157 213.84554 213.08952 211.30659 210.41321
 210.39078 210.82094 212.09767 214.97025 219.06117 223.86308 229.57339 234.58536
 238.42642 242.41071 246.69237 250.91402 254.73962 258.47455 261.40338 263.55200
 266.29529 268.98605 271.41095 273.65399 275.73724 277.58228 279.01483 280.48633
 282.19772 283.82422 285.32889 286.68826 287.86728 288.91235 289.86658 290.73145
 291.50931 292.20328 292.81299 293.60794
 366.78100 356.33886 345.77473 334.64459 323.05145 311.24931 299.12318 286.93004
 274.64590 262.54677 250.55963 239.86449 229.99036 221.09822 213.28408 206.28994
 200.12781 195.06967 191.65553 189.70140 188.74226 188.81012 189.64899 190.96085
 192.68971 194.78857 197.05544 199.41830 201.86716 204.35103 206.44289 208.28875
 209.91861 211.06748 211.30034 211.53220 211.47307 211.18193 210.81879 210.45266
 210.07352 209.78738 209.59924 209.46711 209.39897 209.73383 210.12370 210.51656
 211.31342 212.49529 213.74915 215.53601 217.46787 219.51474 221.61360 223.70046
 225.76433 227.85219 229.95305 232.06292 234.19578 236.37164 238.63150 241.00537
 243.63023 245.88509 247.89096 249.65982 251.08068 252.20754 253.03341 253.35327
 253.39413 253.17200 252.53586 251.48772 250.09759 248.26245 246.17531 244.01217
 241.80704 239.61490 237.43876 235.28163 233.14549 231.01635 229.04622 227.20708
 225.49394 223.96980 222.60367 221.37953 220.26539 219.22926 218.33712 217.48198
 216.72784 215.91171 215.01357 214.38143 213.83530 213.10645 211.38734 210.52312
 210.43675 210.86620 212.11920 214.94594 218.96506 223.76811 229.50031 234.50018
 238.33359 242.31538 246.60565 250.83960 254.67551 258.42456 261.36374 263.52286
 266.27710 268.96411 271.36899 273.58328 275.67886 277.55865 278.99783 280.45566
 282.14682 283.75607 285.25055 286.60901 287.78915 288.83432 289.78766 290.65479
 291.43246 292.12766 292.73956 293.53546
 366.78100 356.33882 345.77465 334.64447 323.05130 311.24912 299.12294 286.92977
 274.64559 262.54642 250.55924 239.86406 229.98989 221.09771 213.28354 206.28936
 200.12718 195.06901 191.65483 189.70066 188.74148 188.80931 189.64813 190.95995
 192.68878 194.78760 197.05443 199.41725 201.86607 204.34990 206.44172 208.28755
 209.91737 211.06619 211.29902 211.53084 211.47167 211.18049 210.81731 210.45114
 210.07196 209.78579 209.59761 209.46543 209.39726 209.73208 210.12191 210.51473
 211.31155 212.49338 213.74720 215.53403 217.46585 219.51267 221.61150 223.69832
 225.76215 227.84997 229.95080 232.06062 234.19344 236.36927 238.62909 241.00292
 243.62774 245.88256 247.88839 249.65721 251.07804 252.20486 253.03068 253.35051
 253.39133 253.16916 252.53298 251.48480 250.09463 248.25945 246.17228 244.00910
 241.80392 239.61175 237.43557 235.27840 233.14222 231.01304 229.04287 227.20369
 225.49052 223.96634 222.60017 221.37599 220.26181 219.22564 218.33346 217.47829
 216.72411 215.90793 215.00976 214.37758 213.83141 213.12567 211.46100 210.63951
 210.49393 210.90776 212.13873 214.92195 218.87346 223.66992 229.42778 234.41225
 238.23877 242.21916 246.51862 250.76431 254.61382 258.37531 261.32144 263.48932
 266.25305 268.93732 271.32562 273.51364 275.62146 277.53445 278.98233 280.43079
 282.10403 283.69589 285.18082 286.53915 287.71918 288.76447 289.72101 290.58572
 291.36349 292.06143 292.67117 293.47263
 366.78100 356.33870 345.77440 334.64410 323.05080 311.24850 299.12220 286.92890
 274.64460 262.54530 250.55800 239.86270 229.98840 221.09610 213.28180 206.28750
 200.12520 195.06689 191.65259 189.69829 188.73899 188.80669 189.64539 190.95709
 192.68579 194.78449 197.05119 199.41389 201.86259 204.34629 206.43799 208.28369
 209.91339 211.06209 211.29479 211.52649 211.46719 211.17589 210.81259 210.44629
 210.06699 209.78069 209.59239 209.46009 209.39179 209.72649 210.11619 210.50889
 211.30559 212.48729 213.74098 215.52768 217.45938 219.50608 221.60478 223.69148
 225.75518 227.84288 229.94358 232.05328 234.18598 236.36168 238.62138 240.99508
 243.61978 245.87448 247.88018 249.64888 251.06958 252.19628 253.02198 253.34168
 253.38238 253.16008 252.52378 251.47548 250.08518 248.24988 246.16258 243.99928
 241.79398 239.60168 237.42538 235.26807 233.13177 231.00247 229.03217 227.19287
 225.47957 223.95527 222.58897 221.36467 220.25037 219.21407 218.32177 217.46647
 216.71217 215.89587 214.99757 214.36527 213.81897 213.13875 211.53423 210.76361
 210.55492 210.95316 212.14597 214.89732 218.79147 223.56694 229.35370 234.32147
 238.14325 242.12512 246.43204 250.68979 254.55562 258.32718 261.27670 263.45035
 266.22412 268.90637 271.28049 273.44531 275.56546 277.51019 278.97202 280.41272
 282.06662 283.64294 285.11887 286.47696 287.65735 288.70276 289.65805 290.52438
 291.30518 291.99948 292.61157 293.41537
 366.78100 356.33899 345.77498 334.64497 323.05196 311.24995 299.12394 286.93093
 274.64692 262.54791 250.56091 239.86590 229.99189 221.09988 213.28587 206.29186
 200.12985 195.07184 191.65783 189.70382 188.74481 188.81280 189.65179 190.96378
 192.69277 194.79176 197.05875 199.42174 201.87073 204.35473 206.44672 208.29271
 209.92270 211.07169 211.30468 211.53667 211.47766 211.18665 210.82364 210.45763
 210.07862 209.79261 209.60460 209.47259 209.40458 209.73957 210.12956 210.52255
 211.31955 212.50154 213.75553 215.54252 217.47451 219.52150 221.62049 223.70748
 225.77147 227.85946 229.96045 232.07044 234.20343 236.37942 238.63941 241.01340
 243.63839 245.89338 247.89937 249.66837 251.08936 252.21635 253.04234 253.36233
 253.40332 253.18131 252.54530 251.49729 250.10728 248.27227 246.18526 244.02225
 241.81724 239.62523 237.44922 235.29221 233.15620 231.02720 229.05719 227.21818
 225.50517 223.98116 222.61515 221.39114 220.27713 219.24112 218.34911 217.49410
 216.74009 215.92408 215.02607 214.39406 213.84805 213.17238 211.57892 210.89565
 210.64864 210.98151 212.15883 214.87685 218.69916 223.45973 229.27783 234.22983
 238.04807 242.03123 246.34418 250.61243 254.49762 258.27780 261.22830 263.40646
 266.19098 268.87314 271.23535 273.38037 275.51230 277.48682 278.96518 280.40295
 282.03693 283.59802 285.06351 286.42242 287.60193 288.64694 289.60184 290.47070
 291.24942 291.94669 292.55789 293.36563
 366.78100 356.33910 345.77520 334.64530 323.05239 311.25049 299.12459 286.93169
 274.64779 262.54889 250.56198 239.86708 229.99318 221.10128 213.28738 206.29348
 200.13157 195.07367 191.65977 189.70587 188.74697 188.81507 189.65417 190.96626
 192.69536 194.79446 197.06156 199.42466 201.87376 204.35785 206.44995 208.29605
 209.92615 211.07525 211.30835 211.54044 211.48154 211.19064 210.82774 210.46184
 210.08294 209.79703 209.60913 209.47723 209.40933 209.74443 210.13453 210.52763
 211.32472 212.50682 213.76092 215.54802 217.48012 219.52722 221.62631 223.71341
 225.77751 227.86561 229.96671 232.07681 234.20990 236.38600 238.64610 241.02020
 243.64530 245.90040 247.90650 249.67559 251.09669 252.22379 253.04989 253.36999
 253.41109 253.18918 252.55328 251.50538 250.11548 248.28058 246.19368 244.03077
 241.82587 239.63397 237.45807 235.30117 233.16527 231.03636 229.06646 227.22756
 225.51466 223.99076 222.62486 221.40096 220.28705 219.25115 218.35925 217.50435
 216.75045 215.93455 215.03664 214.40474 213.85884 213.19641 211.63416 211.00407
 210.77072 211.02583 212.15553 214.86028 218.60739 223.34734 229.19936 234.13162
 237.94522 241.93199 246.25189 250.53188 254.44188 258.23279 261.18555 263.36624
 266.15811 268.83914 271.18948 273.31650 275.45734 277.46039 278.95761 280.39481
 282.01126 283.55905 285.01401 286.37234 287.55267 288.59802 289.55353 290.41946
 291.20102 291.89871 292.51111 293.31473
 366.78100 356.33949 345.77598 334.64647 323.05396 311.25245 299.12694 286.93443
 274.65092 262.55241 250.56590 239.87139 229.99788 221.10637 213.29286 206.29935
 200.13784 195.08033 191.66682 189.71331 188.75480 188.82329 189.66278 190.97527
 192.70476 194.80424 197.07173 199.43522 201.88471 204.36920 206.46169 208.30818
 209.93867 211.08816 211.32165 211.55414 211.49563 211.20512 210.84261 210.47710
 210.09859 209.81308 209.62557 209.49406 209.42655 209.76204 210.15253 210.54602
 211.34351 212.52600 213.78049 215.56798 217.50047 219.54796 221.64745 223.73494
 225.79943 227.88792 229.98941 232.09990 234.23339 236.40988 238.67037 241.04486
 243.67035 245.92584 247.93233 249.70182 251.12331 252.25080 253.07729 253.39778
 253.43927 253.21776 252.58225 251.53473 250.14522 248.31071 246.22420 244.06169
 241.85718 239.66567 237.49016 235.33365 233.19814 231.06963 229.10012 227.26161
 225.54910 224.02559 222.66008 221.43657 220.32306 219.28755 218.39604 217.54153
 216.78802 215.97251 215.07500 214.44349 213.89798 213.23338 211.66624 211.13184
 210.88905 211.10202 212.15526 214.81633 218.50706 223.22998 229.11064 234.02464
 237.83948 241.83553 246.16527 250.46167 254.39790 258.20035 261.15375 263.32950
 266.12125 268.79907 271.13559 273.24591 275.39673 277.42511 278.94180 280.38489
 281.98849 283.52301 284.96973 286.32831 287.50824 288.55453 289.50940 290.37653
 291.15781 291.85703 292.46954 293.27701
 366.78100 356.34097 345.77894 334.65091 323.05988 311.25985 299.13582 286.94479
 274.66276 262.56573 250.58070 239.88767 230.01564 221.12561 213.31358 206.32155
 200.16152 195.10549 191.69346 189.74143 188.78440 188.85437 189.69534 191.00931
 192.74028 194.84125 197.11022 199.47519 201.92616 204.41213 206.50610 208.35407
 209.98604 211.13701 211.37198 211.60595 211.54892 211.25989 210.89886 210.53483
 210.15780 209.87377 209.68774 209.55771 209.49168 209.82865 210.22062 210.61559
 211.41456 212.59853 213.85450 215.64347 217.57744 219.62641 221.72738 223.81635
 225.88232 227.97229 230.07526 232.18723 234.32220 236.50017 238.76214 241.13811
 243.76508 246.02205 248.03002 249.80099 251.22396 252.35293 253.18090 253.50287
 253.54584 253.32581 252.69178 251.64575 250.25772 248.42469 246.33966 244.17863
 241.97560 239.78557 237.61154 235.45651 233.32248 231.19545 229.22742 227.39039
 225.67936 224.15733 222.79330 221.57127 220.45924 219.42521 218.53518 217.68215
 216.93013 216.11610 215.22007 214.59004 214.04601 213.32610 211.62917 211.26526
 211.10973 211.17863 212.10124 214.72882 218.36218 223.09953 229.02562 233.93765
 237.76065 241.76350 246.09579 250.40511 254.36292 258.16873 261.11102 263.27774
 266.07004 268.74533 271.07104 273.17117 275.33420 277.38727 278.92761 280.37860
 281.96915 283.49182 284.92908 286.28851 287.46829 288.51382 289.46964 290.33749
 291.11694 291.81674 292.43030 293.24054
 366.78100 356.34155 345.78010 334.65264 323.06219 311.26274 299.13929 286.94883
 274.66738 262.57093 250.58648 239.89403 230.02257 221.13312 213.32167 206.33022
 200.17076 195.11531 191.70386 189.75241 188.79596 188.86650 189.70805 191.02260
 192.75415 194.85569 197.12524 199.49079 201.94234 204.42888 206.52343 208.37198
 210.00453 211.15608 211.39162 211.62617 211.56972 211.28127 210.92081 210.55736
 210.18091 209.89746 209.71201 209.58255 209.51710 209.85465 210.24720 210.64274
 211.44229 212.62684 213.88339 215.67294 217.60748 219.65703 221.75858 223.84813
 225.91467 228.00522 230.10877 232.22132 234.35687 236.53541 238.79796 241.17451
 243.80206 246.05960 248.06815 249.83970 251.26325 252.39279 253.22134 253.54389
 253.58744 253.36799 252.73453 251.68908 250.30163 248.46918 246.38472 244.22427
 242.02182 239.83237 237.65892 235.50446 233.37101 231.24456 229.27711 227.44065
 225.73020 224.20875 222.84530 221.62385 220.51239 219.47894 218.58949 217.73704
 216.98558 216.17213 215.27668 214.64723 214.10378 213.37695 211.66333 211.30609
 211.27495 211.29050 212.13844 214.62329 218.19307 222.99370 228.97520 233.88481
 237.70671 241.70480 246.02943 250.34366 254.31924 258.12030 261.04288 263.20709
 266.00812 268.68674 271.00797 273.10272 275.27902 277.35852 278.92502 280.38376
 281.95837 283.46747 284.89325 286.25192 287.43213 288.47748 289.43341 290.29883
 291.08386 291.78119 292.39514 293.20645
 366.78100 356.34154 345.78009 334.65263 323.06218 311.26272 299.13926 286.94881
 274.66735 262.57090 250.58644 239.89398 230.02253 221.13307 213.32162 206.33016
 200.17070 195.11525 191.70379 189.75233 188.79588 188.86642 189.70797 191.02251
 192.75405 194.85560 197.12514 199.49069 201.94223 204.42877 206.52332 208.37186
 210.00441 211.15595 211.39149 211.62604 211.56958 211.28113 210.92067 210.55721
 210.18076 209.89730 209.71185 209.58239 209.51693 209.85448 210.24702 210.64256
 211.44211 212.62665 213.88320 215.67274 217.60728 219.65683 221.75837 223.84792
 225.91446 228.00500 230.10855 232.22109 234.35664 236.53518 238.79772 241.17427
 243.80181 246.05936 248.06790 249.83944 251.26299 252.39253 253.22108 253.54362
 253.58716 253.36771 252.73425 251.68880 250.30134 248.46888 246.38443 244.22397
 242.02151 239.83206 237.65860 235.50415 233.37069 231.24423 229.27678 227.44032
 225.72987 224.20841 222.84495 221.62350 220.51204 219.47859 218.58913 217.73667
 216.98522 216.17176 215.27631 214.64685 214.10339 213.39847 211.73575 211.32663
 211.40833 211.36749 212.14398 214.57999 218.11258 222.91057 228.94411 233.83777
 237.64529 241.63432 245.94995 250.26727 254.26477 258.05917 260.96402 263.13242
 265.94791 268.63208 270.95316 273.04239 275.23138 277.33450 278.93030 280.39587
 281.95401 283.44608 284.85922 286.21942 287.39835 288.44376 289.39771 290.26636
 291.04980 291.74881 292.36261 293.17163
 366.78100 356.34187 345.78075 334.65362 323.06350 311.26437 299.14125 286.95112
 274.67000 262.57387 250.58975 239.89762 230.02650 221.13737 213.32625 206.33512
 200.17600 195.12087 191.70975 189.75862 188.80250 188.87337 189.71525 191.03012
 192.76200 194.86387 197.13375 199.49962 201.95150 204.43837 206.53325 208.38212
 210.01500 211.16687 211.40275 211.63762 211.58150 211.29337 210.93325 210.57012
 210.19400 209.91087 209.72575 209.59662 209.53150 209.86937 210.26225 210.65812
 211.45800 212.64287 213.89974 215.68962 217.62449 219.67437 221.77624 223.86612
 225.93299 228.02387 230.12774 232.24062 234.37649 236.55537 238.81824 241.19512
 243.82299 246.08087 248.08974 249.86162 251.28549 252.41537 253.24424 253.56712
 253.61099 253.39187 252.75874 251.71362 250.32649 248.49437 246.41024 244.25012
 242.04799 239.85887 237.68574 235.53162 233.39849 231.27237 229.30524 227.46912
 225.75899 224.23787 222.87474 221.65362 220.54249 219.50937 218.62024 217.76812
 217.01699 216.20387 215.30874 214.67961 214.13649 213.43564 211.78209 211.37349
 211.53275 211.43575 212.14444 214.56914 218.06830 222.83679 228.89929 233.77086
 237.56334 241.54855 245.86101 250.18520 254.20818 257.99796 260.88986 263.06412
 265.89108 268.57974 270.89856 272.98468 275.18311 277.30710 278.93021 280.40659
 281.94843 283.42706 284.82849 286.18777 287.36649 288.41187 289.36713 290.23477
 291.01825 291.71768 292.33179 293.14731
 366.78100 356.34247 345.78194 334.65541 323.06588 311.26735 299.14482 286.95529
 274.67476 262.57923 250.59570 239.90417 230.03365 221.14512 213.33459 206.34406
 200.18553 195.13100 191.72047 189.76994 188.81441 188.88588 189.72835 191.04382
 192.77629 194.87876 197.14923 199.51570 201.96817 204.45564 206.55111 208.40058
 210.03405 211.18652 211.42300 211.65847 211.60294 211.31541 210.95588 210.59335
 210.21782 209.93529 209.75076 209.62223 209.55770 209.89617 210.28964 210.68611
 211.48658 212.67205 213.92952 215.71999 217.65546 219.70593 221.80840 223.89887
 225.96635 228.05782 230.16229 232.27576 234.41223 236.59170 238.85517 241.23264
 243.86111 246.11958 248.12905 249.90152 251.32599 252.45646 253.28593 253.60940
 253.65387 253.43534 252.80281 251.75828 250.37175 248.54022 246.45670 244.29717
 242.09564 239.90711 237.73458 235.58105 233.44852 231.32299 229.35646 227.52093
 225.81140 224.29087 222.92834 221.70781 220.59728 219.56475 218.67622 217.82469
 217.07416 216.26163 215.36710 214.73857 214.19604 213.48523 211.80788 211.43478
 211.64308 211.50801 212.17734 214.56683 218.00671 222.77328 228.84343 233.69272
 237.47510 241.46045 245.77240 250.10641 254.15564 257.94046 260.82053 262.99884
 265.83353 268.52295 270.84067 272.92398 275.13312 277.27463 278.92435 280.41296
 281.94141 283.40677 284.79828 286.15790 287.33844 288.38187 289.33759 290.20483
 290.98978 291.68869 292.30383 293.11993
 366.78100 356.34309 345.78319 334.65728 323.06838 311.27047 299.14857 286.95966
 274.67976 262.58485 250.60195 239.91104 230.04114 221.15323 213.34333 206.35342
 200.19551 195.14161 191.73170 189.78180 188.82689 188.89899 189.74208 191.05818
 192.79127 194.89437 197.16546 199.53256 201.98565 204.47375 206.56984 208.41994
 210.05403 211.20712 211.44422 211.68031 211.62541 211.33850 210.97960 210.61769
 210.24279 209.96088 209.77698 209.64907 209.58517 209.92426 210.31836 210.71545
 211.51654 212.70264 213.96073 215.75183 217.68792 219.73902 221.84211 223.93321
 226.00130 228.09340 230.19849 232.31259 234.44968 236.62978 238.89387 241.27197
 243.90106 246.16015 248.17025 249.94334 251.36844 252.49953 253.32963 253.65372
 253.69882 253.48091 252.84901 251.80510 250.41920 248.58829 246.50539 244.34648
 242.14557 239.95767 237.78576 235.63286 233.50095 231.37605 229.41014 227.57524
 225.86633 224.34643 222.98452 221.76462 220.65471 219.62281 218.73490 217.88400
 217.13409 216.32218 215.42828 214.80037 214.25847 213.53548 211.82906 211.49603
 211.73756 211.58797 212.23141 214.56102 217.93843 222.72145 228.78725 233.61270
 237.38666 241.37299 245.68544 250.03027 254.10492 257.88144 260.74890 262.93179
 265.77261 268.46240 270.77643 272.86215 275.08112 277.24100 278.91516 280.41611
 281.93430 283.38727 284.76846 286.12906 287.30844 288.35278 289.30817 290.17563
 290.95914 291.65991 292.27560 293.09055
 366.78100 356.34377 345.78454 334.65930 323.07107 311.27384 299.15261 286.96438
 274.68514 262.59091 250.60868 239.91845 230.04922 221.16198 213.35275 206.36352
 200.20629 195.15306 191.74383 189.79459 188.84036 188.91313 189.75690 191.07367
 192.80743 194.91120 197.18297 199.55074 202.00451 204.49327 206.59004 208.44081
 210.07558 211.22935 211.46711 211.70388 211.64965 211.36342 211.00519 210.64395
 210.26972 209.98849 209.80526 209.67803 209.61479 209.95456 210.34933 210.74710
 211.54887 212.73563 213.99440 215.78617 217.72294 219.77471 221.87848 223.97024
 226.03901 228.13178 230.23755 232.35232 234.49008 236.67085 238.93562 241.31439
 243.94416 246.20392 248.21469 249.98846 251.41423 252.54600 253.37676 253.70153
 253.74730 253.53007 252.89884 251.85560 250.47037 248.64014 246.55791 244.39968
 242.19944 240.01221 237.84098 235.68875 233.55752 231.43328 229.46805 227.63382
 225.92559 224.40636 223.04513 221.82589 220.71666 219.68543 218.79820 217.94797
 217.19873 216.38750 215.49427 214.86704 214.32581 213.58804 211.84634 211.55759
 211.82228 211.68306 212.29274 214.54916 217.87959 222.67648 228.73122 233.52997
 237.29793 241.28630 245.60030 249.95708 254.05464 257.81967 260.67279 262.86322
 265.70880 268.39810 270.70987 272.79886 275.02948 277.20554 278.90433 280.41824
 281.92572 283.36679 284.73972 286.10022 287.27914 288.32376 289.27863 290.14642
 290.93069 291.63123 292.24847 293.06235
 366.78100 356.34455 345.78609 334.66164 323.07419 311.27774 299.15728 286.96983
 274.69138 262.59793 250.61647 239.92702 230.05857 221.17212 213.36366 206.37521
 200.21876 195.16631 191.75785 189.80940 188.85595 188.92950 189.77404 191.09159
 192.82614 194.93069 197.20323 199.57178 202.02633 204.51588 206.61342 208.46497
 210.10052 211.25507 211.49361 211.73116 211.67771 211.39226 211.03480 210.67435
 210.30090 210.02045 209.83799 209.71154 209.64909 209.98964 210.38518 210.78373
 211.58628 212.77383 214.03337 215.82592 217.76347 219.81602 221.92056 224.01311
 226.08266 228.17621 230.28275 232.39830 234.53685 236.71840 238.98394 241.36349
 243.99404 246.25459 248.26613 250.04068 251.46723 252.59978 253.43132 253.75687
 253.80342 253.58697 252.95651 251.91406 250.52961 248.70016 246.61870 244.46125
 242.26180 240.07535 237.90489 235.75344 233.62299 231.49954 229.53508 227.70163
 225.99418 224.47573 223.11527 221.89682 220.78837 219.75792 218.87146 218.02201
 217.27356 216.46311 215.57065 214.94420 214.40375 213.64514 211.85379 211.61736
 211.89700 211.79045 212.36227 214.53499 217.82848 222.63309 228.67490 233.44844
 237.21069 241.20151 245.51753 249.88629 254.00398 257.75290 260.59238 262.79370
 265.64395 268.33157 270.64163 272.73651 274.97864 277.16959 278.89127 280.41620
 281.91489 283.34198 284.70984 286.06992 287.24933 288.29333 289.24841 290.11514
 290.90131 291.60135 292.21844 293.03357
 366.78100 356.34538 345.78776 334.66414 323.07751 311.28189 299.16227 286.97565
 274.69803 262.60541 250.62478 239.93616 230.06854 221.18292 213.37530 206.38768
 200.23206 195.18043 191.77281 189.82519 188.87257 188.94695 189.79233 191.11070
 192.84608 194.95146 197.22484 199.59422 202.04960 204.53998 206.63835 208.49073
 210.12711 211.28249 211.52187 211.76025 211.70762 211.42300 211.06638 210.70676
 210.33414 210.05452 209.87290 209.74727 209.68565 210.02703 210.42341 210.82279
 211.62617 212.81454 214.07492 215.86830 217.80668 219.86006 221.96544 224.05882
 226.12919 228.22357 230.33095 232.44733 234.58671 236.76909 239.03547 241.41584
 244.04722 246.30860 248.32098 250.09636 251.52374 252.65711 253.48949 253.81587
 253.86325 253.64763 253.01801 251.97639 250.59276 248.76414 246.68352 244.52690
 242.32828 240.14266 237.97303 235.82241 233.69279 231.57017 229.60655 227.77393
 226.06731 224.54968 223.19006 221.97244 220.86482 219.83520 218.94958 218.10095
 217.35333 216.54371 215.65209 215.02647 214.48685 213.70413 211.85539 211.67227
 211.97165 211.90102 212.43636 214.52557 217.79236 222.59169 228.61401 233.36584
 237.12399 241.11710 245.43683 249.81834 253.95345 257.68289 260.50870 262.72522
 265.57770 268.26166 270.57132 272.67395 274.92682 277.13092 278.87424 280.41058
 281.89954 283.31647 284.67804 286.03873 287.21713 288.26227 289.21558 290.08417
 290.86804 291.57126 292.18564 293.00287
 366.78100 356.34620 345.78940 334.66660 323.08080 311.28600 299.16720 286.98140
 274.70460 262.61280 250.63300 239.94520 230.07840 221.19360 213.38680 206.40000
 200.24520 195.19440 191.78760 189.84080 188.88900 188.96420 189.81040 191.12960
 192.86580 194.97200 197.24620 199.61640 202.07260 204.56380 206.66300 208.51620
 210.15340 211.30960 211.54979 211.78899 211.73719 211.45339 211.09759 210.73879
 210.36699 210.08819 209.90739 209.78259 209.72179 210.06399 210.46119 210.86139
 211.66559 212.85479 214.11599 215.91019 217.84939 219.90359 222.00979 224.10399
 226.17519 228.27039 230.37859 232.49579 234.63599 236.81919 239.08639 241.46759
 244.09979 246.36199 248.37519 250.15139 251.57959 252.71379 253.54699 253.87419
 253.92239 253.70759 253.07879 252.03799 250.65519 248.82739 246.74759 244.59179
 242.39399 240.20919 238.04039 235.89059 233.76179 231.63999 229.67719 227.84539
 226.13959 224.62279 223.26399 222.04719 220.94039 219.91159 219.02679 218.17899
 217.43219 216.62339 215.73259 215.10779 214.56898 213.76230 211.85641 211.71837
 212.05379 212.01250 212.50844 214.52382 217.76988 222.54762 228.55063 233.28384
 237.03923 241.03346 245.35779 249.75322 253.90240 257.60873 260.42242 262.65796
 265.51126 268.18774 270.49664 272.60992 274.87436 277.09122 278.85471 280.40308
 281.88351 283.28885 284.64474 286.00546 287.18335 288.22815 289.18298 290.05109
 290.83310 291.53604 292.15228 292.96841
 366.78100 356.34706 345.79112 334.66919 323.08425 311.29031 299.17237 286.98743
 274.71150 262.62056 250.64162 239.95468 230.08875 221.20481 213.39887 206.41293
 200.25899 195.20906 191.80312 189.85718 188.90624 188.98230 189.82937 191.14943
 192.88649 194.99355 197.26862 199.63968 202.09674 204.58880 206.68886 208.54293
 210.18099 211.33805 211.57911 211.81917 211.76824 211.48530 211.13036 210.77242
 210.40148 210.12355 209.94361 209.81967 209.75973 210.10280 210.50086 210.90192
 211.70698 212.89704 214.15911 215.95417 217.89423 219.94929 222.05635 224.15142
 226.22348 228.31954 230.42860 232.54667 234.68773 236.87179 239.13985 241.52191
 244.15498 246.41804 248.43210 250.20916 251.63822 252.77329 253.60735 253.93541
 253.98447 253.77054 253.14260 252.10266 250.72072 248.89378 246.81485 244.65991
 242.46297 240.27903 238.11109 235.96216 233.83422 231.71328 229.75134 227.92040
 226.21547 224.69953 223.34159 222.12565 221.01972 219.99178 219.10784 218.26090
 217.51496 216.70703 215.81709 215.19315 214.65521 213.82176 211.85263 211.76202
 212.14116 212.11787 212.58582 214.53159 217.74187 222.49670 228.49007 233.20769
 236.95816 240.95239 245.28226 249.69289 253.85373 257.53378 260.33548 262.59323
 265.44299 268.10770 270.41519 272.54062 274.81937 277.04837 278.83173 280.39462
 281.86566 283.25934 284.61212 285.97192 287.15051 288.19452 289.14981 290.01685
 290.80170 291.50269 292.11856 292.93518
 366.78100 356.34764 345.79227 334.67091 323.08655 311.29318 299.17582 286.99146
 274.71609 262.62573 250.64736 239.96100 230.09564 221.21227 213.40691 206.42155
 200.26818 195.21882 191.81346 189.86809 188.91773 188.99437 189.84200 191.16264
 192.90028 195.00791 197.28355 199.65518 202.11282 204.60546 206.70609 208.56073
 210.19937 211.35700 211.59864 211.83928 211.78891 211.50655 211.15219 210.79482
 210.42446 210.14710 209.96773 209.84437 209.78500 210.12864 210.52728 210.92891
 211.73455 212.92519 214.18782 215.98346 217.92410 219.97973 222.08737 224.18301
 226.25564 228.35228 230.46191 232.58055 234.72219 236.90682 239.17546 241.55810
 244.19173 246.45537 248.47001 250.24764 251.67728 252.81292 253.64755 253.97619
 254.02583 253.81246 253.18510 252.14573 250.76437 248.93801 246.85964 244.70528
 242.50892 240.32555 238.15819 236.00983 233.88246 231.76210 229.80074 227.97037
 226.26601 224.75065 223.39328 222.17792 221.07255 220.04519 219.16183 218.31546
 217.57010 216.76274 215.87337 215.25001 214.71265 213.86591 211.86536 211.78923
 212.23611 212.22238 212.65939 214.53891 217.70149 222.45728 228.44408 233.13583
 236.87566 240.86952 245.20749 249.63481 253.80530 257.45486 260.24619 262.53104
 265.37436 268.02393 270.32925 272.47018 274.76425 277.00519 278.80954 280.38559
 281.84644 283.22995 284.57938 285.93945 287.11639 288.16101 289.11694 289.98318
 290.77029 291.46939 292.08710 292.90198
 366.78100 356.34837 345.79373 334.67310 323.08946 311.29683 299.18019 286.99656
 274.72192 262.63229 250.65465 239.96902 230.10438 221.22175 213.41711 206.43248
 200.27984 195.23121 191.82657 189.88194 188.93230 189.00967 189.85803 191.17940
 192.91777 195.02613 197.30250 199.67486 202.13323 204.62659 206.72796 208.58332
 210.22269 211.38105 211.62342 211.86478 211.81515 211.53351 211.17988 210.82324
 210.45361 210.17697 209.99834 209.87570 209.81707 210.16144 210.56080 210.96317
 211.76953 212.96090 214.22426 216.02063 217.96199 220.01836 222.12672 224.22309
 226.29645 228.39382 230.50418 232.62355 234.76591 236.95128 239.22064 241.60401
 244.23837 246.50274 248.51810 250.29647 251.72684 252.86320 253.69857 254.02793
 254.07830 253.86566 253.23903 252.20039 250.81976 248.99412 246.91649 244.76285
 242.56722 240.38458 238.21795 236.07031 233.94368 231.82404 229.86341 228.03377
 226.33014 224.81550 223.45887 222.24424 221.13960 220.11297 219.23033 218.38470
 217.64006 216.83343 215.94479 215.32216 214.78552 213.91608 211.86192 211.84369
 212.30579 212.31396 212.76329 214.56477 217.67731 222.39667 228.37827 233.05396
 236.78978 240.78816 245.13834 249.58453 253.76282 257.38010 260.16095 262.47284
 265.30438 267.93527 270.23825 272.39557 274.70663 276.95950 278.78290 280.37515
 281.82581 283.20041 284.54636 285.90567 287.08472 288.12866 289.08337 289.95114
 290.73651 291.43753 292.05392 292.87018
 366.78100 356.34958 345.79617 334.67675 323.09433 311.30292 299.18750 287.00508
 274.73167 262.64325 250.66683 239.98242 230.11900 221.23758 213.43417 206.45075
 200.29933 195.25192 191.84850 189.90508 188.95667 189.03525 189.88483 191.20742
 192.94700 195.05658 197.33417 199.70775 202.16733 204.66192 206.76450 208.62108
 210.26167 211.42125 211.66483 211.90742 211.85900 211.57858 211.22617 210.87075
 210.50233 210.22692 210.04950 209.92808 209.87067 210.21625 210.61683 211.02042
 211.82800 213.02058 214.28517 216.08275 218.02533 220.08292 222.19250 224.29008
 226.36467 228.46325 230.57483 232.69542 234.83900 237.02558 239.29617 241.68075
 244.31633 246.58192 248.59850 250.37808 251.80967 252.94725 253.78383 254.11442
 254.16600 253.95458 253.32917 252.29175 250.91233 249.08792 247.01150 244.85908
 242.66467 240.48325 238.31783 236.17142 234.04600 231.92758 229.96817 228.13975
 226.43733 224.92392 223.56850 222.35508 221.25167 220.22625 219.34483 218.50042
 217.75700 216.95158 216.06417 215.44275 214.90733 213.99374 211.83530 211.84218
 212.48563 212.43275 212.75183 214.52792 217.63380 222.39172 228.35602 233.01031
 236.72850 240.72156 245.07797 249.54115 253.72293 257.30069 260.06503 262.40909
 265.22574 267.83090 270.13159 272.31226 274.64343 276.90598 278.75089 280.35739
 281.79877 283.16528 284.51318 285.87372 287.05170 288.09579 289.05130 289.91953
 290.70377 291.40543 292.02158 292.83609
 366.78100 356.35047 345.79793 334.67940 323.09786 311.30733 299.19279 287.01126
 274.73872 262.65119 250.67565 239.99212 230.12958 221.24905 213.44651 206.46398
 200.31344 195.26691 191.86438 189.92184 188.97431 189.05377 189.90424 191.22770
 192.96817 195.07863 197.35710 199.73156 202.19203 204.68749 206.79096 208.64842
 210.28989 211.45035 211.69482 211.93829 211.89075 211.61122 211.25968 210.90515
 210.53761 210.26308 210.08654 209.96601 209.90947 210.25594 210.65740 211.06187
 211.87033 213.06380 214.32926 216.12773 218.07120 220.12966 222.24013 224.33859
 226.41406 228.51352 230.62599 232.74745 234.89192 237.07938 239.35085 241.73631
 244.37278 246.63924 248.65671 250.43717 251.86964 253.00811 253.84557 254.17704
 254.22950 254.01897 253.39443 252.35790 250.97936 249.15583 247.08029 244.92876
 242.73522 240.55469 238.39015 236.24462 234.12008 232.00255 230.04402 228.21648
 226.51495 225.00241 223.64788 222.43534 221.33281 220.30827 219.42774 218.58420
 217.84167 217.03713 216.15060 215.53006 214.99553 214.05602 211.83632 211.81924
 212.56120 212.55585 212.89105 214.61911 217.62492 222.31042 228.31322 232.93681
 236.63557 240.63181 245.00423 249.48766 253.66917 257.20184 259.95941 262.33716
 265.13989 267.72797 270.02988 272.23370 274.58371 276.85880 278.72549 280.34503
 281.77475 283.13354 284.48111 285.84146 287.01965 288.06482 289.02008 289.88876
 290.67343 291.37500 291.99252 292.80771
 366.78100 356.35096 345.79892 334.68089 323.09985 311.30981 299.19577 287.01473
 274.74269 262.65566 250.68062 239.99758 230.13554 221.25550 213.45347 206.47143
 200.32139 195.27535 191.87331 189.93127 188.98424 189.06420 189.91516 191.23912
 192.98008 195.09105 197.37001 199.74497 202.20593 204.70189 206.80585 208.66382
 210.30578 211.46674 211.71170 211.95566 211.90863 211.62959 211.27855 210.92451
 210.55747 210.28343 210.10740 209.98736 209.93132 210.27828 210.68024 211.08521
 211.89417 213.08813 214.35409 216.15305 218.09701 220.15598 222.26694 224.36590
 226.44186 228.54182 230.65479 232.77675 234.92171 237.10967 239.38163 241.76759
 244.40456 246.67152 248.68948 250.47044 251.90340 253.04237 253.88033 254.21229
 254.26525 254.05521 253.43117 252.39514 251.01710 249.19406 247.11902 244.96798
 242.77495 240.59491 238.43087 236.28583 234.16179 232.04475 230.08672 228.25968
 226.55864 225.04660 223.69256 222.48052 221.37849 220.35445 219.47441 218.63137
 217.88933 217.08530 216.19926 215.57922 215.04518 214.09755 211.85867 211.80608
 212.58585 212.64545 213.02272 214.76761 217.68927 222.20201 228.25700 232.86533
 236.55424 240.55537 244.94649 249.45259 253.63818 257.13245 259.86096 262.28564
 265.06702 267.61542 269.91104 272.13867 274.51059 276.78778 278.66876 280.30429
 281.73422 283.08984 284.44406 285.80170 286.97830 288.02191 288.97623 289.84503
 290.62491 291.32626 291.94272 292.75192
 366.78100 356.35063 345.79826 334.67989 323.09851 311.30814 299.19377 287.01240
 274.74003 262.65266 250.67729 239.99392 230.13154 221.25117 213.44880 206.46643
 200.31606 195.26969 191.86732 189.92495 188.97757 189.05720 189.90783 191.23146
 192.97209 195.08272 197.36135 199.73598 202.19660 204.69223 206.79586 208.65349
 210.29512 211.45575 211.70038 211.94400 211.89663 211.61726 211.26589 210.91152
 210.54415 210.26978 210.09341 209.97303 209.91666 210.26329 210.66492 211.06955
 211.87818 213.07181 214.33744 216.13606 218.07969 220.13832 222.24895 224.34758
 226.42321 228.52284 230.63547 232.75709 234.90172 237.08935 239.36098 241.74661
 244.38324 246.64987 248.66750 250.44812 251.88075 253.01938 253.85701 254.18864
 254.24127 254.03090 253.40652 252.37015 250.99178 249.16841 247.09304 244.94167
 242.74830 240.56793 238.40355 236.25818 234.13381 232.01644 230.05807 228.23070
 226.52933 225.01696 223.66258 222.45021 221.34784 220.32347 219.44310 218.59973
 217.85736 217.05299 216.16661 215.54624 215.01187 214.09546 211.93904 211.82024
 212.58623 212.68237 213.01273 214.82317 217.78189 222.16591 228.17859 232.82788
 236.48567 240.50984 244.91151 249.43439 253.62631 257.10226 259.88861 262.32220
 265.01453 267.54337 269.83823 272.08304 274.43207 276.68506 278.58298 280.21088
 281.63535 283.01880 284.41415 285.77750 286.95901 288.00726 288.96826 289.84558
 290.64020 291.35416 291.99988 292.83105
 366.78100 356.34987 345.79674 334.67761 323.09548 311.30435 299.18922 287.00709
 274.73396 262.64583 250.66970 239.98557 230.12244 221.24131 213.43818 206.45506
 200.30393 195.25680 191.85367 189.91054 188.96241 189.04128 189.89115 191.21402
 192.95389 195.06376 197.34163 199.71550 202.17537 204.67024 206.77311 208.62998
 210.27085 211.43072 211.67459 211.91746 211.86933 211.58920 211.23707 210.88194
 210.51381 210.23868 210.06155 209.94043 209.88330 210.22917 210.63004 211.03391
 211.84178 213.03465 214.29952 216.09739 218.04026 220.09813 222.20800 224.30587
 226.38074 228.47961 230.59148 232.71235 234.85622 237.04309 239.31396 241.69883
 244.33470 246.60057 248.61744 250.39731 251.82918 252.96705 253.80392 254.13479
 254.18667 253.97554 253.35041 252.31328 250.93415 249.11002 247.03389 244.88176
 242.68763 240.50650 238.34137 236.19524 234.07011 231.95198 229.99285 228.16472
 226.46259 224.94946 223.59433 222.38120 221.27807 220.25294 219.37181 218.52768
 217.78455 216.97942 216.09229 215.47116 214.93604 214.06656 212.03946 211.89430
 212.55719 212.66667 212.99045 214.83568 217.84138 222.17595 228.10088 232.79224
 236.42677 240.47501 244.88377 249.41098 253.59843 257.06058 259.84540 262.45374
 265.08246 267.58490 269.89499 272.14621 274.46426 276.67447 278.57220 280.17242
 281.57199 282.93405 284.35742 285.70505 286.87155 287.90976 288.85620 289.70203
 290.43420 291.01343 291.50977 292.14233
 366.78100 356.35002 345.79703 334.67805 323.09607 311.30509 299.19010 287.00812
 274.73514 262.64715 250.67117 239.98719 230.12421 221.24322 213.44024 206.45726
 200.30627 195.25929 191.85631 189.91333 188.96534 189.04436 189.89438 191.21739
 192.95741 195.06743 197.34545 199.71946 202.17948 204.67450 206.77751 208.63453
 210.27555 211.43557 211.67958 211.92260 211.87462 211.59463 211.24265 210.88767
 210.51969 210.24470 210.06772 209.94674 209.88975 210.23577 210.63679 211.04081
 211.84882 213.04184 214.30686 216.10487 218.04789 220.10591 222.21593 224.31394
 226.38896 228.48798 230.59999 232.72101 234.86503 237.05205 239.32306 241.70808
 244.34410 246.61011 248.62713 250.40715 251.83917 252.97718 253.81420 254.14522
 254.19723 253.98625 253.36127 252.32429 250.94530 249.12132 247.04534 244.89335
 242.69937 240.51839 238.35341 236.20742 234.08244 231.96446 230.00547 228.17749
 226.47551 224.96253 223.60754 222.39456 221.29158 220.26659 219.38561 218.54163
 217.79865 216.99366 216.10668 215.48570 214.95071 214.07251 212.02107 212.02361
 212.64737 212.77312 213.08076 214.83005 217.79781 222.12094 228.03375 232.69073
 236.31982 240.37860 244.80779 249.35159 253.51913 256.92322 259.70410 262.38181
 264.99423 267.50757 269.85672 272.15186 274.48499 276.72708 278.68207 280.32980
 281.72412 283.01971 284.34998 285.64481 286.79816 287.82925 288.77094 289.62152
 290.38037 291.04013 291.60733 292.33017
 366.78100 356.35089 345.79879 334.68068 323.09957 311.30947 299.19536 287.01425
 274.74215 262.65504 250.67993 239.99683 230.13472 221.25461 213.45251 206.47040
 200.32030 195.27419 191.87208 189.92998 188.98287 189.06276 189.91366 191.23755
 192.97844 195.08934 197.36823 199.74312 202.20402 204.69991 206.80380 208.66170
 210.30359 211.46448 211.70938 211.95327 211.90616 211.62706 211.27595 210.92184
 210.55474 210.28063 210.10453 209.98442 209.92831 210.27521 210.67710 211.08199
 211.89089 213.08478 214.35067 216.14957 218.09346 220.15235 222.26325 224.36214
 226.43803 228.53793 230.65082 232.77271 234.91761 237.10550 239.37739 241.76329
 244.40018 246.66707 248.68497 250.46586 251.89875 253.03765 253.87554 254.20744
 254.26033 254.05022 253.42612 252.39001 251.01190 249.18880 247.11369 244.96258
 242.76948 240.58937 238.42526 236.28016 234.15605 232.03894 230.08084 228.25373
 226.55262 225.04052 223.68641 222.47430 221.37220 220.34809 219.46798 218.62488
 217.88277 217.07866 216.19256 215.57245 215.03835 214.11647 211.93845 212.06599
 212.80136 213.02585 213.29878 214.86197 217.72638 222.03622 227.99744 232.55457
 236.17722 240.23534 244.69098 249.24550 253.36035 256.66495 259.40555 262.09219
 264.71738 267.25656 269.65466 272.01215 274.40277 276.70490 278.72253 280.42010
 281.82779 283.08652 284.35413 285.62088 286.77252 287.81003 288.75897 289.62054
 290.39661 291.09039 291.71069 292.54132
 366.78100 356.35183 345.80066 334.68349 323.10332 311.31415 299.20099 287.02082
 274.74965 262.66348 250.68931 240.00714 230.14597 221.26680 213.46563 206.48446
 200.33530 195.29013 191.88896 189.94779 189.00162 189.08245 189.93428 191.25911
 193.00094 195.11277 197.39260 199.76844 202.23027 204.72710 206.83193 208.69076
 210.33359 211.49542 211.74125 211.98608 211.93991 211.66175 211.31158 210.95841
 210.59224 210.31907 210.14390 210.02473 209.96956 210.31739 210.72022 211.12605
 211.93589 213.13072 214.39755 216.19738 218.14221 220.20204 222.31387 224.41370
 226.49053 228.59136 230.70520 232.82803 234.97386 237.16269 239.43552 241.82235
 244.46018 246.72801 248.74684 250.52867 251.96250 253.10234 253.94117 254.27400
 254.32783 254.11866 253.49549 252.46032 251.08315 249.26098 247.18681 245.03665
 242.84448 240.66531 238.50214 236.35797 234.23480 232.11863 230.16146 228.33529
 226.63512 225.12395 223.77079 222.55962 221.45845 220.43528 219.55611 218.71394
 217.97277 217.16960 216.28443 215.66526 215.13210 214.17690 211.92015 212.01306
 212.85051 213.16838 213.47028 214.93277 217.73221 222.00203 227.98367 232.49854
 236.12085 240.17432 244.64926 249.22472 253.33162 256.59637 259.31091 261.98764
 264.58963 267.08771 269.46902 271.84808 274.27179 276.58063 278.60107 280.30740
 281.72427 283.01010 284.30383 285.56808 286.72937 287.76981 288.72223 289.58618
 290.36670 291.06689 291.68103 292.50909
 366.78100 356.35147 345.79994 334.68241 323.10187 311.31234 299.19881 287.01828
 274.74675 262.66022 250.68569 240.00316 230.14162 221.26209 213.46056 206.47903
 200.32950 195.28397 191.88244 189.94091 188.99437 189.07484 189.92631 191.25078
 192.99225 195.10372 197.38319 199.75866 202.22012 204.71659 206.82106 208.67953
 210.32200 211.48347 211.72894 211.97340 211.92687 211.64834 211.29781 210.94428
 210.57775 210.30422 210.12869 210.00915 209.95362 210.30109 210.70356 211.10903
 211.91850 213.11297 214.37944 216.17890 218.12337 220.18284 222.29431 224.39378
 226.47025 228.57072 230.68419 232.80665 234.95212 237.14059 239.41306 241.79953
 244.43700 246.70447 248.72293 250.50440 251.93787 253.07734 253.91581 254.24828
 254.30175 254.09222 253.46868 252.43315 251.05562 249.23309 247.15856 245.00803
 242.81550 240.63597 238.47243 236.32790 234.20437 232.08784 230.13031 228.30378
 226.60325 225.09172 223.73818 222.52665 221.42512 220.40159 219.52206 218.67953
 217.93800 217.13446 216.24893 215.62940 215.09587 214.16965 211.98135 211.99834
 212.88504 213.23264 213.49197 214.92126 217.69283 221.96252 227.96733 232.47852
 236.08247 240.13838 244.63414 249.25203 253.41299 256.69171 259.42368 262.08673
 264.63843 267.08118 269.42886 271.78732 274.20129 276.50815 278.52701 280.22882
 281.61734 282.90930 284.21902 285.52359 286.69302 287.73462 288.68787 289.55276
 290.33508 291.03531 291.64960 292.45764
 366.78100 356.35064 345.79829 334.67993 323.09858 311.30822 299.19386 287.01251
 274.74015 262.65279 250.67744 239.99408 230.13173 221.25137 213.44901 206.46666
 200.31630 195.26994 191.86759 189.92523 188.97788 189.05752 189.90816 191.23181
 192.97245 195.08310 197.36174 199.73638 202.19703 204.69267 206.79631 208.65396
 210.29560 211.45625 211.70089 211.94453 211.89718 211.61782 211.26647 210.91211
 210.54475 210.27040 210.09404 209.97368 209.91733 210.26397 210.66562 211.07026
 211.87890 213.07255 214.33819 216.13683 218.08048 220.13912 222.24977 224.34841
 226.42405 228.52370 230.63634 232.75799 234.90263 237.09027 239.36192 241.74756
 244.38420 246.65085 248.66849 250.44914 251.88178 253.02042 253.85807 254.18971
 254.24236 254.03200 253.40764 252.37129 250.99293 249.16957 247.09422 244.94286
 242.74951 240.56915 238.40479 236.25944 234.13508 232.01772 230.05937 228.23201
 226.53066 225.01830 223.66394 222.45159 221.34923 220.32488 219.44452 218.60116
 217.85881 217.05445 216.16809 215.54774 215.01338 214.12332 212.02043 212.12555
 213.01505 213.24222 213.46915 214.89830 217.64104 221.93237 227.87775 232.37714
 235.97888 240.05060 244.56473 249.19421 253.35751 256.63608 259.39151 262.05313
 264.59766 267.04251 269.41949 271.79239 274.19232 276.48038 278.48587 280.16718
 281.53970 282.83871 284.16763 285.49146 286.66452 287.70694 288.65915 289.52316
 290.30359 291.00024 291.61255 292.41458
 366.78100 356.35121 345.79941 334.68162 323.10083 311.31104 299.19724 287.01645
 274.74466 262.65787 250.68307 240.00028 230.13849 221.25870 213.45690 206.47511
 200.32532 195.27953 191.87773 189.93594 188.98915 189.06936 189.92056 191.24477
 192.98598 195.09719 197.37639 199.75160 202.21281 204.70902 206.81322 208.67143
 210.31364 211.47485 211.72005 211.96426 211.91747 211.63868 211.28788 210.93409
 210.56730 210.29351 210.11771 209.99792 209.94213 210.28934 210.69154 211.09675
 211.90596 213.10017 214.36637 216.16558 218.10979 220.16900 222.28020 224.37941
 226.45562 228.55583 230.66903 232.79124 234.93645 237.12466 239.39686 241.78307
 244.42028 246.68749 248.70569 250.48690 251.92011 253.05932 253.89752 254.22973
 254.28294 254.07315 253.44935 252.41356 251.03577 249.21298 247.13818 244.98739
 242.79460 240.61481 238.45101 236.30622 234.18243 232.06564 230.10784 228.28105
 226.58026 225.06847 223.71467 222.50288 221.40109 220.37730 219.49750 218.65471
 217.91292 217.10913 216.22333 215.60354 215.06975 214.14778 211.96954 212.18971
 213.16478 213.40974 213.65947 214.96451 217.61180 221.87955 227.75545 232.21127
 235.81673 239.90919 244.45032 249.06694 253.15749 256.38669 259.17123 261.88126
 264.45551 266.94324 269.37930 271.77841 274.16769 276.43823 278.43646 280.11328
 281.49561 282.80606 284.14563 285.45007 286.60455 287.64423 288.59747 289.46411
 290.24811 290.94901 291.56119 292.34653
 366.78100 356.35289 345.80278 334.68667 323.10756 311.31945 299.20735 287.02824
 274.75813 262.67302 250.69991 240.01880 230.15869 221.28058 213.48047 206.50036
 200.35226 195.30815 191.90804 189.96793 189.02282 189.10471 189.95760 191.28349
 193.02638 195.13927 197.42017 199.79706 202.25995 204.75784 206.86373 208.72362
 210.36751 211.53040 211.77729 212.02318 211.97808 211.70097 211.35186 210.99975
 210.63464 210.36253 210.18842 210.07031 210.01620 210.36509 210.76899 211.17588
 211.98677 213.18266 214.45055 216.25144 218.19733 220.25822 222.37111 224.47200
 226.54989 228.65179 230.76668 232.89057 235.03746 237.22735 239.50124 241.88913
 244.52802 246.79691 248.81680 250.59970 252.03459 253.17548 254.01537 254.34926
 254.40415 254.19604 253.57393 252.53982 251.16371 249.34261 247.26950 245.12039
 242.92928 240.75117 238.58906 236.44595 234.32384 232.20873 230.25262 228.42752
 226.72841 225.21830 223.86619 222.65608 221.55597 220.53386 219.65575 218.81464
 218.07453 217.27243 216.38832 215.77021 215.23810 214.24680 211.90474 212.08461
 213.21709 213.64398 213.96066 215.12184 217.65790 221.85643 227.69093 232.11143
 235.71581 239.82010 244.37300 248.96417 252.98671 256.18335 259.00412 261.77591
 264.36951 266.88339 269.34860 271.75497 274.13327 276.39670 278.39926 280.08353
 281.47876 282.79285 284.12094 285.39227 286.52588 287.56219 288.51334 289.37866
 290.16223 290.86206 291.46957 292.23715
 366.78100 356.35237 345.80173 334.68510 323.10547 311.31684 299.20420 287.02457
 274.75394 262.66831 250.69467 240.01304 230.15241 221.27377 213.47314 206.49251
 200.34388 195.29924 191.89861 189.95798 189.01235 189.09371 189.94608 191.27145
 193.01382 195.12618 197.40655 199.78292 202.24528 204.74265 206.84802 208.70739
 210.35075 211.51312 211.75949 212.00486 211.95922 211.68159 211.33196 210.97932
 210.61369 210.34106 210.16643 210.04779 209.99316 210.34153 210.74490 211.15126
 211.96163 213.15700 214.42436 216.22473 218.17010 220.23047 222.34283 224.44320
 226.52057 228.62194 230.73630 232.85967 235.00604 237.19541 239.46877 241.85614
 244.49451 246.76287 248.78224 250.56461 251.99898 253.13934 253.97871 254.31208
 254.36645 254.15781 253.53518 252.50055 251.12391 249.30228 247.22865 245.07902
 242.88738 240.70875 238.54612 236.40249 234.27985 232.16422 230.20759 228.38196
 226.68232 225.17169 223.81906 222.60842 221.50779 220.48516 219.60653 218.76489
 218.02426 217.22163 216.33700 215.71836 215.18573 214.22845 211.96680 212.07121
 213.16182 213.65685 214.10458 215.19270 217.69260 221.86089 227.67236 232.09653
 235.69109 239.80516 244.35883 248.94048 252.94051 256.13080 258.96045 261.74149
 264.32196 266.83160 269.29794 271.69693 274.07285 276.33469 278.34497 280.04526
 281.45013 282.76740 284.07669 285.31702 286.43295 287.46512 288.41348 289.27658
 290.05811 290.75479 291.36026 292.11206
 366.78100 356.34992 345.79684 334.67776 323.09569 311.30461 299.18953 287.00745
 274.73437 262.64629 250.67021 239.98614 230.12306 221.24198 213.43890 206.45582
 200.30474 195.25766 191.85459 189.91151 188.96343 189.04235 189.89227 191.21519
 192.95512 195.06504 197.34296 199.71688 202.17680 204.67172 206.77464 208.63157
 210.27249 211.43241 211.67633 211.91925 211.87117 211.59109 211.23902 210.88394
 210.51586 210.24078 210.06370 209.94262 209.88554 210.23147 210.63239 211.03631
 211.84423 213.03715 214.30207 216.09999 218.04292 220.10084 222.21076 224.30868
 226.38360 228.48252 230.59445 232.71537 234.85929 237.04621 239.31713 241.70205
 244.33797 246.60390 248.62082 250.40074 251.83266 252.97058 253.80750 254.13842
 254.19035 253.97927 253.35419 252.31711 250.93803 249.11395 247.03787 244.88580
 242.69172 240.51064 238.34556 236.19948 234.07440 231.95632 229.99725 228.16917
 226.46709 224.95401 223.59893 222.38585 221.28278 220.25770 219.37662 218.53254
 217.78946 216.98438 216.09730 215.47623 214.94115 214.09825 212.10684 212.15242
 213.15675 213.60252 214.10381 215.17450 217.66153 221.83644 227.65059 232.06706
 235.66562 239.79184 244.35292 248.93758 252.93428 256.12274 258.93405 261.68661
 264.23318 266.72900 269.19083 271.59467 273.97116 276.22983 278.24176 279.93964
 281.36572 282.70010 284.00925 285.24432 286.35916 287.38620 288.33011 289.19153
 289.97446 290.67056 291.27017 291.99042
 366.78100 356.34894 345.79488 334.67482 323.09176 311.29970 299.18364 287.00058
 274.72652 262.63746 250.66040 239.97534 230.11128 221.22922 213.42516 206.44110
 200.28904 195.24098 191.83692 189.89286 188.94380 189.02174 189.87068 191.19262
 192.93156 195.04050 197.31744 199.69038 202.14932 204.64326 206.74520 208.60114
 210.24108 211.40002 211.64296 211.88490 211.83584 211.55478 211.20172 210.84565
 210.47659 210.20053 210.02247 209.90041 209.84235 210.18729 210.58723 210.99017
 211.79711 212.98905 214.25299 216.04993 217.99187 220.04881 222.15775 224.25469
 226.32863 228.42657 230.53751 232.65745 234.80039 236.98633 239.25627 241.64021
 244.27515 246.54009 248.55603 250.33497 251.76591 252.90285 253.73879 254.06873
 254.11967 253.90761 253.28155 252.24349 250.86343 249.03837 246.96131 244.80825
 242.61319 240.43113 238.26507 236.11801 233.99195 231.87289 229.91283 228.08377
 226.38071 224.86665 223.51059 222.29653 221.19247 220.16641 219.28435 218.43929
 217.69523 216.88917 216.00111 215.37905 214.84299 214.05650 212.19835 212.20630
 213.13969 213.62498 214.18631 215.16344 217.63727 221.80257 227.62524 232.01451
 235.61945 239.75940 244.33099 248.92825 252.93669 256.12860 258.91129 261.61374
 264.12573 266.61743 269.08340 271.47296 273.85873 276.11066 278.11511 279.82861
 281.25870 282.60928 283.92303 285.15067 286.26126 287.27716 288.21558 289.07437
 289.85623 290.55130 291.13846 291.80197
 366.78100 356.34790 345.79279 334.67169 323.08759 311.29448 299.17738 286.99328
 274.71817 262.62807 250.64997 239.96386 230.09876 221.21566 213.41055 206.42545
 200.27235 195.22324 191.81814 189.87304 188.92293 188.99983 189.84773 191.16862
 192.90652 195.01442 197.29031 199.66221 202.12011 204.61300 206.71390 208.56880
 210.20769 211.36559 211.60749 211.84838 211.79828 211.51618 211.16207 210.80497
 210.43487 210.15776 209.97866 209.85555 209.79645 210.14035 210.53924 210.94114
 211.74704 212.93793 214.20083 215.99673 217.93762 219.99352 222.10142 224.19731
 226.27021 228.36711 230.47700 232.59590 234.73780 236.92269 239.19159 241.57449
 244.20838 246.47228 248.48718 250.26507 251.69497 252.83087 253.66576 253.99466
 254.04456 253.83145 253.20435 252.16525 250.78414 248.95804 246.87994 244.72583
 242.52973 240.34663 238.17952 236.03142 233.90432 231.78421 229.82311 227.99301
 226.28890 224.77380 223.41670 222.20159 221.09649 220.06939 219.18628 218.34018
 217.59508 216.78797 215.89887 215.27577 214.73866 214.01987 212.32161 212.23816
 213.14751 213.55933 214.21619 215.21475 217.58405 221.73189 227.55194 231.95041
 235.55864 239.73163 244.31917 248.92339 252.94377 256.16513 258.96051 261.64139
 264.14166 266.61215 269.05759 271.47409 273.82596 276.05865 278.05652 279.75070
 281.21249 282.57690 283.87735 285.12476 286.25302 287.26730 288.19711 289.04977
 289.81931 290.49246 291.03949 291.69534
 366.78100 356.34475 345.78649 334.66224 323.07499 311.27873 299.15848 286.97123
 274.69297 262.59972 250.61847 239.92921 230.06096 221.17471 213.36645 206.37820
 200.22195 195.16969 191.76144 189.81319 188.85994 188.93368 189.77843 191.09618
 192.83092 194.93567 197.20842 199.57716 202.03191 204.52166 206.61940 208.47115
 210.10690 211.26164 211.50039 211.73814 211.68488 211.39963 211.04238 210.68212
 210.30887 210.02862 209.84636 209.72011 209.65786 209.99860 210.39435 210.79310
 211.59584 212.78359 214.04334 215.83608 217.77383 219.82658 221.93132 224.02407
 226.09382 228.18757 230.29431 232.41006 234.54881 236.73055 238.99630 241.37605
 244.00679 246.26754 248.27929 250.05403 251.48078 252.61353 253.44527 253.77102
 253.81777 253.60151 252.97126 251.92901 250.54475 248.71550 246.63425 244.47699
 242.27774 240.09149 237.92123 235.76998 233.63973 231.51647 229.55222 227.71897
 226.01171 224.49346 223.13321 221.91495 220.80670 219.77645 218.89020 218.04094
 217.29269 216.48244 215.59018 214.96393 214.42368 213.85580 212.51663 212.34674
 213.30249 213.51303 214.03601 215.14386 217.49538 221.65851 227.45078 231.82716
 235.45555 239.66136 244.27272 248.90434 253.01762 256.34421 259.18433 261.78552
 264.23047 266.68015 269.11334 271.39978 273.71216 275.88861 277.83377 279.51965
 280.96530 282.35175 283.69025 284.89999 285.97549 286.94626 287.85028 288.68207
 289.42694 290.04361 290.31641 290.62299
 366.78100 356.34306 345.78311 334.65717 323.06822 311.27028 299.14834 286.95939
 274.67945 262.58450 250.60156 239.91062 230.04067 221.15273 213.34278 206.35284
 200.19489 195.14095 191.73101 189.78106 188.82612 188.89817 189.74123 191.05729
 192.79034 194.89340 197.16445 199.53151 201.98457 204.47262 206.56868 208.41873
 210.05279 211.20585 211.44290 211.67896 211.62401 211.33707 210.97813 210.61618
 210.24124 209.95929 209.77535 209.64740 209.58346 209.92252 210.31657 210.71363
 211.51468 212.70074 213.95880 215.74985 217.68591 219.73696 221.84002 223.93108
 225.99913 228.09119 230.19624 232.31030 234.44736 236.62741 238.89147 241.26952
 243.89858 246.15764 248.16769 249.94075 251.36580 252.49686 253.32692 253.65097
 253.69603 253.47808 252.84614 251.80219 250.41625 248.58531 246.50236 244.34342
 242.14247 239.95453 237.78259 235.62964 233.49770 231.37275 229.40681 227.57187
 225.86292 224.34298 222.98103 221.76109 220.65115 219.61920 218.73126 217.88031
 217.13037 216.31843 215.42448 214.79654 214.25459 213.77594 212.66429 212.43350
 213.42221 213.57350 213.87955 215.12488 217.54004 221.60237 227.20148 231.68930
 235.28992 239.53664 244.15791 248.70845 252.75339 256.29623 259.39124 262.05731
 264.42960 266.78650 269.16254 271.40283 273.54581 275.56540 277.36475 279.15286
 280.53336 281.87488 283.19891 284.42392 285.48035 286.43030 287.32101 287.94803
 288.26630 288.54968 288.79727 289.11279
 366.78100 356.34623 345.78945 334.66668 323.08090 311.28613 299.16735 286.98158
 274.70481 262.61303 250.63326 239.94548 230.07871 221.19393 213.38716 206.40038
 200.24561 195.19484 191.78806 189.84129 188.88951 188.96474 189.81096 191.13019
 192.86642 194.97264 197.24687 199.61709 202.07332 204.56454 206.66377 208.51699
 210.15422 211.31045 211.55067 211.78990 211.73812 211.45435 211.09857 210.73980
 210.36803 210.08925 209.90848 209.78370 209.72293 210.06515 210.46238 210.86260
 211.66683 212.85606 214.11728 215.91151 217.85073 219.90496 222.01118 224.10541
 226.17664 228.27186 230.38009 232.49731 234.63754 236.82076 239.08799 241.46922
 244.10144 246.36367 248.37689 250.15312 251.58134 252.71557 253.54879 253.87602
 253.92425 253.70947 253.08070 252.03992 250.65715 248.82937 246.74960 244.59383
 242.39605 240.21128 238.04250 235.89273 233.76395 231.64218 229.67940 227.84763
 226.14186 224.62508 223.26631 222.04953 220.94276 219.91398 219.02921 218.18144
 217.43466 216.62589 215.73511 215.11034 214.57156 213.97504 212.62479 212.44795
 213.47008 213.74062 214.10265 215.35463 217.76750 221.71091 227.05914 231.51797
 235.17990 239.45918 244.09048 248.52701 252.56279 256.13696 259.31448 262.04541
 264.51242 266.92709 269.27866 271.46445 273.49176 275.32086 277.47101 279.19125
 280.52036 281.79367 283.07477 284.20718 285.22012 286.10211 286.90680 287.63580
 288.29147 288.87531 289.38538 290.03537
 366.78100 356.34907 345.79514 334.67521 323.09227 311.30034 299.18441 287.00148
 274.72755 262.63862 250.66169 239.97675 230.11282 221.23089 213.42696 206.44303
 200.29110 195.24316 191.83923 189.89530 188.94637 189.02444 189.87351 191.19558
 192.93464 195.04371 197.32078 199.69385 202.15292 204.64699 206.74906 208.60512
 210.24519 211.40426 211.64733 211.88940 211.84047 211.55953 211.20660 210.85067
 210.48174 210.20581 210.02788 209.90595 209.84801 210.19308 210.59315 210.99622
 211.80329 212.99536 214.25943 216.05649 217.99856 220.05563 222.16470 224.26177
 226.33584 228.43390 230.54497 232.66504 234.80811 236.99418 239.26425 241.64832
 244.28338 246.54845 248.56452 250.34359 251.77466 252.91173 253.74780 254.07786
 254.12893 253.91700 253.29107 252.25314 250.87321 249.04827 246.97134 244.81841
 242.62348 240.44155 238.27562 236.12869 234.00275 231.88382 229.92389 228.09496
 226.39203 224.87810 223.52217 222.30823 221.20430 220.17837 219.29644 218.45151
 217.70758 216.90164 216.01371 215.39178 214.85585 214.14464 212.53712 212.35449
 213.49255 213.87836 214.30417 215.53204 217.83344 221.68172 227.04008 231.46681
 235.10512 239.40025 244.04065 248.47130 252.46924 256.08023 259.23584 262.01462
 264.51688 267.03348 269.48282 271.73450 273.80392 275.68326 277.44611 279.18671
 280.71243 282.06210 283.25653 284.42441 285.60556 286.75882 287.81104 288.76425
 289.62155 290.38501 291.05194 291.90186
 366.78100 356.34854 345.79409 334.67363 323.09017 311.29772 299.18126 286.99780
 274.72335 262.63389 250.65643 239.97098 230.10652 221.22406 213.41961 206.43515
 200.28269 195.23424 191.82978 189.88532 188.93587 189.01341 189.86195 191.18350
 192.92204 195.03058 197.30713 199.67967 202.13821 204.63176 206.73330 208.58884
 210.22839 211.38693 211.62947 211.87102 211.82156 211.54010 211.18665 210.83019
 210.46073 210.18428 210.00582 209.88336 209.82490 210.16945 210.56899 210.97153
 211.77808 212.96962 214.23316 216.02971 217.97125 220.02779 222.13634 224.23288
 226.30642 228.40397 230.51451 232.63405 234.77660 236.96214 239.23168 241.61523
 244.24977 246.51431 248.52986 250.30840 251.73894 252.87549 253.71103 254.04057
 254.09112 253.87866 253.25220 252.21375 250.83329 249.00783 246.93038 244.77692
 242.58146 240.39901 238.23255 236.08509 233.95864 231.83918 229.87872 228.04927
 226.34581 224.83135 223.47490 222.26044 221.15598 220.12953 219.24707 218.40161
 217.65716 216.85070 215.96224 215.33979 214.80333 214.11108 212.49791 212.35425
 213.65666 213.99083 214.35680 215.59679 217.85889 221.56920 227.06029 231.45128
 235.06084 239.32599 243.90115 248.30276 252.16652 255.61588 258.76852 261.58481
 264.14853 266.70526 269.21890 271.57294 273.77682 275.82739 277.69135 279.35840
 280.88000 282.26257 283.51782 284.63858 285.62985 286.54755 287.43213 288.25009
 288.96780 289.59247 290.13818 290.83362
 366.78100 356.34812 345.79323 334.67235 323.08847 311.29558 299.17870 286.99482
 274.71993 262.63005 250.65217 239.96628 230.10140 221.21851 213.41363 206.42875
 200.27586 195.22698 191.82210 189.87721 188.92733 189.00445 189.85256 191.17368
 192.91180 195.01991 197.29603 199.66815 202.12626 204.61938 206.72050 208.57561
 210.21473 211.37284 211.61496 211.85608 211.80619 211.52431 211.17043 210.81354
 210.44366 210.16678 209.98789 209.86501 209.80613 210.15024 210.54936 210.95148
 211.75759 212.94871 214.21183 216.00794 217.94906 220.00517 222.11329 224.20941
 226.28252 228.37964 230.48976 232.60887 234.75099 236.93611 239.20522 241.58834
 244.22246 246.48657 248.50169 250.27981 251.70992 252.84604 253.68116 254.01027
 254.06039 253.84750 253.22062 252.18174 250.80085 248.97497 246.89709 244.74320
 242.54732 240.36444 238.19755 236.04967 233.92279 231.80290 229.84202 228.01214
 226.30825 224.79337 223.43649 222.22160 221.11672 220.08984 219.20695 218.36107
 217.61618 216.80930 215.92042 215.29753 214.76065 214.09076 212.50807 212.36934
 213.83865 214.18834 214.35284 215.62437 217.86821 221.51247 227.17639 231.39685
 235.00888 239.27821 243.90410 248.35619 252.15337 255.46094 258.47531 261.19315
 263.70630 266.28293 268.82925 271.17081 273.40982 275.52167 277.44748 279.17239
 280.70328 282.09348 283.35440 284.49213 285.50540 286.42447 287.26364 287.99991
 288.62183 289.14297 289.52640 289.83792
 366.78100 356.34791 345.79281 334.67172 323.08763 311.29454 299.17744 286.99335
 274.71826 262.62816 250.65007 239.96398 230.09888 221.21579 213.41070 206.42561
 200.27251 195.22342 191.81833 189.87323 188.92314 189.00005 189.84795 191.16886
 192.90677 195.01468 197.29058 199.66249 202.12040 204.61330 206.71421 208.56912
 210.20802 211.36593 211.60784 211.84875 211.79865 211.51656 211.16247 210.80537
 210.43528 210.15819 209.97909 209.85600 209.79691 210.14082 210.53972 210.94163
 211.74754 212.93844 214.20135 215.99726 217.93816 219.99407 222.10198 224.19789
 226.27079 228.36770 230.47761 232.59651 234.73842 236.92333 239.19223 241.57514
 244.20905 246.47296 248.48786 250.26577 251.69568 252.83158 253.66649 253.99540
 254.04530 253.83221 253.20512 252.16603 250.78493 248.95884 246.88075 244.72665
 242.53056 240.34747 238.18037 236.03228 233.90519 231.78510 229.82400 227.99391
 226.28982 224.77472 223.41763 222.20254 221.09744 220.07035 219.18726 218.34117
 217.59607 216.78898 215.89989 215.27679 214.73970 214.10071 212.59105 212.37627
 213.79355 214.16289 214.33009 215.67384 217.94986 221.53500 227.18294 231.43710
 235.02254 239.28873 243.92693 248.42203 252.25299 255.48732 258.55325 261.19601
 263.65015 266.25632 268.80710 271.15060 273.35144 275.41840 277.33408 279.04712
 280.59421 281.91168 283.13745 284.27737 285.30270 286.20020 286.97968 287.64240
 288.19064 288.60001 288.95578 289.58530
 366.78100 356.34743 345.79186 334.67029 323.08572 311.29215 299.17458 286.99001
 274.71444 262.62387 250.64530 239.95873 230.09316 221.20959 213.40402 206.41845
 200.26489 195.21532 191.80975 189.86418 188.91361 188.99004 189.83747 191.15790
 192.89533 195.00276 197.27819 199.64962 202.10705 204.59948 206.69991 208.55434
 210.19277 211.35020 211.59163 211.83206 211.78149 211.49892 211.14435 210.78678
 210.41621 210.13864 209.95907 209.83550 209.77593 210.11936 210.51779 210.91922
 211.72466 212.91509 214.17752 215.97295 217.91338 219.96881 222.07624 224.17167
 226.24410 228.34053 230.44996 232.56839 234.70982 236.89425 239.16268 241.54511
 244.17854 246.44197 248.45640 250.23383 251.66326 252.79869 253.63312 253.96155
 254.01098 253.79741 253.16984 252.13027 250.74870 248.92213 246.84356 244.68900
 242.49243 240.30886 238.14129 235.99272 233.86515 231.74458 229.78301 227.95244
 226.24787 224.73230 223.37473 222.15916 221.05359 220.02602 219.14245 218.29588
 217.55031 216.74274 215.85317 215.22960 214.69203 214.09084 212.67043 212.45750
 213.85271 214.12500 214.27467 215.62582 217.91713 221.48538 227.07306 231.33994
 234.96788 239.25157 243.88991 248.39430 252.28273 255.54405 258.64856 261.25000
 263.71048 266.35272 268.92484 271.20123 273.36588 275.40674 277.27039 278.96194
 280.48627 281.84933 283.05557 284.12537 285.08670 285.93115 286.66159 287.25638
 287.71494 288.17444 288.69202 289.39270
 366.78100 356.34693 345.79086 334.66879 323.08373 311.28966 299.17159 286.98652
 274.71045 262.61938 250.64032 239.95325 230.08718 221.20311 213.39704 206.41097
 200.25690 195.20684 191.80077 189.85470 188.90363 188.97956 189.82649 191.14642
 192.88336 194.99029 197.26522 199.63615 202.09308 204.58501 206.68495 208.53888
 210.17681 211.33374 211.57467 211.81460 211.76353 211.48047 211.12540 210.76733
 210.39626 210.11819 209.93812 209.81405 209.75399 210.09692 210.49485 210.89578
 211.70071 212.89064 214.15258 215.94751 217.88744 219.94237 222.04930 224.14423
 226.21616 228.31210 230.42103 232.53896 234.67989 236.86382 239.13175 241.51369
 244.14662 246.40955 248.42348 250.20041 251.62934 252.76427 253.59821 253.92614
 253.97507 253.76100 253.13293 252.09286 250.71079 248.88373 246.80466 244.64959
 242.45252 240.26845 238.10038 235.95132 233.82325 231.70218 229.74011 227.90904
 226.20397 224.68790 223.32984 222.11377 221.00770 219.97963 219.09556 218.24849
 217.50242 216.69436 215.80429 215.18022 214.64215 214.08185 212.77110 212.47917
 213.94768 214.23210 214.31204 215.58566 217.86984 221.45309 226.87392 231.21991
 234.82655 239.13911 243.74532 248.15746 251.99969 255.38187 258.57581 261.35007
 263.90988 266.54666 269.11023 271.37381 273.39655 275.31152 277.19061 278.90839
 280.29169 281.56320 282.79193 283.88593 284.80209 285.57700 286.22073 286.81195
 287.51196 288.16635 288.73804 289.46652
 366.78100 356.34665 345.79029 334.66794 323.08259 311.28823 299.16988 286.98453
 274.70818 262.61682 250.63747 239.95012 230.08376 221.19941 213.39306 206.40670
 200.25235 195.20200 191.79564 189.84929 188.89794 188.97359 189.82023 191.13988
 192.87653 194.98317 197.25782 199.62847 202.08511 204.57676 206.67641 208.53005
 210.16770 211.32435 211.56500 211.80464 211.75329 211.46994 211.11458 210.75623
 210.38488 210.10652 209.92617 209.80182 209.74147 210.08411 210.48176 210.88241
 211.68705 212.87670 214.13835 215.93299 217.87264 219.92729 222.03393 224.12858
 226.20023 228.29588 230.40452 232.52217 234.66282 236.84646 239.11411 241.49576
 244.12840 246.39105 248.40470 250.18134 251.60999 252.74464 253.57829 253.90593
 253.95458 253.74023 253.11187 252.07152 250.68917 248.86181 246.78246 244.62711
 242.42975 240.24540 238.07705 235.92770 233.79934 231.67799 229.71564 227.88428
 226.17893 224.66258 223.30422 222.08787 220.98152 219.95316 219.06881 218.22146
 217.47511 216.66675 215.77640 215.15205 214.61369 214.09105 212.87621 212.51656
 213.75571 214.06284 214.44682 215.82681 218.08224 221.63405 226.82288 231.23192
 234.82022 239.09378 243.64723 247.96729 251.73741 255.15828 258.31451 261.22305
 263.99570 266.75589 269.32355 271.51102 273.47495 275.22147 277.18515 278.86404
 280.21866 281.24207 282.34360 283.37659 284.23499 285.03665 285.90302 286.70724
 287.43054 288.07465 288.63733 289.35440
 366.78100 356.34550 345.78799 334.66449 323.07798 311.28248 299.16297 286.97647
 274.69896 262.60646 250.62595 239.93745 230.06994 221.18444 213.37693 206.38943
 200.23393 195.18242 191.77492 189.82741 188.87491 188.94940 189.79490 191.11339
 192.84889 194.95438 197.22788 199.59737 202.05287 204.54337 206.64186 208.49436
 210.13085 211.28635 211.52584 211.76434 211.71183 211.42733 211.07082 210.71132
 210.33881 210.05931 209.87780 209.75230 209.69080 210.03229 210.42879 210.82828
 211.63178 212.82027 214.08077 215.87426 217.81276 219.86625 221.97175 224.06524
 226.13574 228.23024 230.33773 232.45423 234.59372 236.77622 239.04271 241.42321
 244.05470 246.31620 248.32869 250.10419 251.53168 252.66518 253.49767 253.82417
 253.87167 253.65616 253.02666 251.98515 250.60165 248.77314 246.69264 244.53613
 242.33763 240.15212 237.98262 235.83211 233.70261 231.58010 229.61660 227.78410
 226.07759 224.56009 223.20058 221.98308 220.87557 219.84607 218.96056 218.11206
 217.36455 216.55505 215.66354 215.03804 214.49854 214.06793 213.04848 212.58833
 213.57899 214.15007 214.81606 216.13840 218.30040 221.80692 226.86082 231.23531
 234.85141 239.10783 243.62961 247.88052 251.57555 254.97137 258.03687 261.00848
 263.96130 266.85773 269.40231 271.58377 273.34430 275.28162 277.21921 278.84192
 280.07059 281.04318 281.96674 282.91992 283.91815 284.84244 285.68567 286.44962
 287.13669 287.74854 288.28302 288.96417
 366.78100 356.34424 345.78548 334.66072 323.07296 311.27621 299.15545 286.96769
 274.68893 262.59517 250.61341 239.92365 230.05489 221.16814 213.35938 206.37062
 200.21386 195.16110 191.75234 189.80358 188.84982 188.92307 189.76731 191.08455
 192.81879 194.92303 197.19527 199.56351 202.01775 204.50700 206.60424 208.45548
 210.09072 211.24496 211.48320 211.72044 211.66668 211.38093 211.02317 210.66241
 210.28865 210.00789 209.82513 209.69837 209.63561 209.97586 210.37110 210.76934
 211.57158 212.75882 214.01806 215.81030 217.74754 219.79979 221.90403 223.99627
 226.06551 228.15875 230.26499 232.38023 234.51847 236.69972 238.96496 241.34420
 243.97444 246.23468 248.24592 250.02016 251.44640 252.57864 253.40989 253.73513
 253.78137 253.56461 252.93385 251.89109 250.50633 248.67657 246.59482 244.43706
 242.23730 240.05054 237.87978 235.72802 233.59726 231.47350 229.50875 227.67499
 225.96723 224.44847 223.08771 221.86895 220.76019 219.72943 218.84268 217.99292
 217.24416 216.43340 215.54064 214.91388 214.37312 214.04558 213.21596 212.65392
 213.50293 214.29933 215.04271 216.29382 218.33467 221.79312 226.91023 231.22232
 234.80542 239.06294 243.58025 247.78249 251.44067 254.73772 257.77026 260.86029
 263.87543 266.89548 269.44189 271.54022 273.33563 275.39447 277.23666 278.68808
 279.82605 280.81052 281.79938 283.06024 284.15143 285.11685 285.99765 286.79559
 287.51324 288.15231 288.71060 289.42209
 366.78100 356.34401 345.78503 334.66004 323.07205 311.27507 299.15408 286.96609
 274.68711 262.59312 250.61113 239.92115 230.05216 221.16517 213.35619 206.36720
 200.21021 195.15723 191.74824 189.79925 188.84527 188.91828 189.76230 191.07931
 192.81332 194.91734 197.18935 199.55736 202.01138 204.50039 206.59740 208.44842
 210.08343 211.23744 211.47546 211.71247 211.65848 211.37250 211.01451 210.65352
 210.27954 209.99855 209.81556 209.68858 209.62559 209.96560 210.36062 210.75863
 211.56064 212.74766 214.00667 215.79868 217.73570 219.78771 221.89172 223.98374
 226.05275 228.14576 230.25178 232.36679 234.50481 236.68582 238.95083 241.32985
 243.95986 246.21987 248.23089 250.00490 251.43091 252.56293 253.39394 253.71895
 253.76497 253.54798 252.91699 251.87401 250.48902 248.65903 246.57705 244.41906
 242.21907 240.03209 237.86110 235.70911 233.57813 231.45414 229.48915 227.65517
 225.94718 224.42819 223.06721 221.84822 220.73923 219.70825 218.82126 217.97127
 217.22229 216.41130 215.51831 214.89133 214.35034 214.06471 213.30679 212.65686
 213.40694 214.33755 215.20984 216.47684 218.45596 221.80038 226.88660 231.21278
 234.78069 239.02126 243.52560 247.73404 251.40596 254.66962 257.68625 260.78485
 263.84552 266.60080 269.05423 271.15549 273.45071 275.36740 277.07782 278.54041
 279.67923 280.69946 282.04282 283.29254 284.37408 285.33096 286.20398 286.99487
 287.70618 288.33963 288.89297 289.59814
 366.78100 356.34417 345.78533 334.66050 323.07267 311.27583 299.15500 286.96717
 274.68833 262.59450 250.61267 239.92283 230.05400 221.16717 213.35833 206.36950
 200.21267 195.15984 191.75100 189.80217 188.84834 188.92150 189.76567 191.08284
 192.81700 194.92117 197.19334 199.56150 202.01567 204.50484 206.60200 208.45317
 210.08834 211.24250 211.48067 211.71784 211.66400 211.37817 211.02034 210.65950
 210.28567 210.00484 209.82200 209.69517 209.63234 209.97250 210.36767 210.76584
 211.56800 212.75517 214.01434 215.80651 217.74367 219.79584 221.90001 223.99217
 226.06134 228.15451 230.26067 232.37584 234.51401 236.69517 238.96034 241.33951
 243.96967 246.22984 248.24101 250.01517 251.44134 252.57351 253.40467 253.72984
 253.77601 253.55917 252.92834 251.88551 250.50067 248.67084 246.58901 244.43117
 242.23134 240.04451 237.87368 235.72184 233.59101 231.46718 229.50234 227.66851
 225.96068 224.44184 223.08101 221.86218 220.75334 219.72251 218.83568 217.98584
 217.23701 216.42618 215.53334 214.90651 214.36568 214.10602 213.37523 212.66229
 213.32059 214.27795 215.29185 216.64519 218.55927 221.84308 226.85417 231.17911
 234.78694 239.00339 243.45830 247.66071 251.37732 254.65657 257.66599 260.71399
 263.77298 266.43088 268.87427 271.12198 273.46240 275.31686 276.93964 278.36011
 279.47775 280.66983 282.23221 283.60410 284.79135 285.84177 286.80011 287.66830
 288.44913 289.14450 289.75192 290.52603
 366.78100 356.34346 345.78391 334.65837 323.06982 311.27228 299.15073 286.96219
 274.68264 262.58810 250.60555 239.91501 230.04546 221.15792 213.34838 206.35883
 200.20129 195.14774 191.73820 189.78865 188.83411 188.90656 189.75002 191.06647
 192.79993 194.90339 197.17484 199.54230 201.99575 204.48421 206.58066 208.43112
 210.06557 211.21903 211.45648 211.69294 211.63839 211.35185 210.99331 210.63176
 210.25722 209.97567 209.79213 209.66458 209.60104 209.94049 210.33495 210.73240
 211.53386 212.72031 213.97877 215.77023 217.70668 219.75814 221.86159 223.95305
 226.02150 228.11396 230.21941 232.33387 234.47132 236.65178 238.91624 241.29469
 243.92415 246.18360 248.19406 249.96751 251.39297 252.52442 253.35488 253.67933
 253.72479 253.50724 252.87570 251.83216 250.44661 248.61607 246.53352 244.37498
 242.17443 239.98689 237.81534 235.66280 233.53125 231.40671 229.44116 227.60662
 225.89808 224.37853 223.01699 221.79744 220.68790 219.65635 218.76881 217.91826
 217.16872 216.35717 215.46363 214.83609 214.29454 214.11310 213.47702 212.65866
 213.19640 214.17160 215.28854 216.78181 218.71722 221.85356 226.85136 231.17873
 234.83041 239.04033 243.44090 247.61971 251.38287 254.72433 257.75989 260.72595
 263.70715 266.45099 268.92892 271.27008 273.44360 275.26364 276.85806 278.18207
 279.29861 280.34244 281.24567 282.03879 282.72516 283.33243 283.88647 284.38840
 284.83981 285.24182 285.59299 286.04053
 366.78100 356.34228 345.78156 334.65484 323.06512 311.26640 299.14368 286.95396
 274.67324 262.57752 250.59380 239.90208 230.03136 221.14264 213.33192 206.34120
 200.18248 195.12776 191.71703 189.76631 188.81059 188.88187 189.72415 191.03943
 192.77171 194.87399 197.14427 199.51055 201.96283 204.45011 206.54539 208.39467
 210.02795 211.18023 211.41651 211.65179 211.59607 211.30835 210.94863 210.58591
 210.21019 209.92747 209.74275 209.61403 209.54931 209.88759 210.28087 210.67715
 211.47743 212.66271 213.91999 215.71027 217.64555 219.69582 221.79810 223.88838
 225.95566 228.04694 230.15122 232.26450 234.40078 236.58006 238.84334 241.22062
 243.84890 246.10718 248.11646 249.88874 251.31302 252.44330 253.27258 253.59586
 253.64014 253.42142 252.78870 251.74398 250.35726 248.52554 246.44182 244.28210
 242.08038 239.89166 237.71894 235.56522 233.43250 231.30678 229.34006 227.50434
 225.79461 224.27389 222.91117 221.69045 220.57973 219.54701 218.65829 217.80657
 217.05585 216.24313 215.34841 214.71969 214.17697 214.07129 213.58839 212.67970
 213.03914 214.02248 215.24889 216.85046 218.78212 221.91878 226.90718 231.22954
 234.88222 239.07938 243.45242 247.61929 251.40842 254.84338 257.93005 260.86026
 263.71179 266.47345 268.99255 271.30548 273.40521 275.21387 276.75009 278.09348
 279.47568 281.40335 283.07141 284.53610 285.80365 286.92511 287.94827 288.87521
 289.70886 290.45123 291.09976 291.92624
 366.78100 356.34044 345.77789 334.64933 323.05778 311.25722 299.13266 286.94111
 274.65855 262.56099 250.57544 239.88188 230.00933 221.11877 213.30621 206.31366
 200.15310 195.09654 191.68399 189.73143 188.77388 188.84332 189.68376 190.99721
 192.72765 194.82809 197.09654 199.46098 201.91143 204.39687 206.49031 208.33776
 209.96920 211.11964 211.35409 211.58753 211.52998 211.24042 210.87886 210.51431
 210.13675 209.85219 209.66564 209.53508 209.46853 209.80497 210.19641 210.59086
 211.38930 212.57275 213.82819 215.61663 217.55008 219.59852 221.69896 223.78741
 225.85285 227.94230 230.04474 232.15618 234.29063 236.46807 238.72951 241.10496
 243.73140 245.98785 247.99529 249.76573 251.18818 252.31662 253.14406 253.46551
 253.50795 253.28740 252.65284 251.60628 250.21773 248.38417 246.29861 244.13706
 241.93350 239.74295 237.56839 235.41283 233.27828 231.15072 229.18216 227.34461
 225.63305 224.11050 222.74594 221.52338 220.41083 219.37627 218.48572 217.63216
 216.87960 216.06505 215.16849 214.53793 213.99338 213.99797 213.71919 212.74081
 212.94958 213.89642 215.24518 216.97031 218.90816 221.96121 226.90483 231.20993
 234.84850 239.03088 243.37898 247.51492 251.26482 254.69142 257.79749 260.76758
 263.68857 266.49435 269.02716 271.34509 273.38263 275.10236 276.61591 277.89081
 279.38980 281.30432 282.96100 284.41571 285.67462 286.78845 287.80466 288.72525
 289.55322 290.29056 290.93466 291.75549
 366.78100 356.33881 345.77462 334.64443 323.05124 311.24905 299.12286 286.92967
 274.64548 262.54629 250.55910 239.86391 229.98972 221.09753 213.28334 206.28915
 200.12696 195.06877 191.65458 189.70039 188.74120 188.80901 189.64782 190.95963
 192.68844 194.78725 197.05406 199.41687 201.86568 204.34949 206.44130 208.28711
 209.91692 211.06573 211.29854 211.53035 211.47116 211.17997 210.81677 210.45058
 210.07139 209.78520 209.59701 209.46482 209.39663 209.73144 210.12125 210.51406
 211.31087 212.49268 213.74649 215.53330 217.46511 219.51192 221.61073 223.69754
 225.76135 227.84916 229.94997 232.05978 234.19259 236.36840 238.62821 241.00202
 243.62683 245.88164 247.88745 249.65626 251.07707 252.20388 253.02969 253.34950
 253.39031 253.16812 252.53193 251.48374 250.09355 248.25836 246.17117 244.00798
 241.80279 239.61060 237.43441 235.27722 233.14103 231.01184 229.04165 227.20246
 225.48927 223.96508 222.59889 221.37470 220.26051 219.22432 218.33213 217.47694
 216.72275 215.90656 215.00837 214.37618 213.82999 213.95140 213.82726 212.79944
 212.79865 213.66643 215.19154 217.05127 219.12155 222.21280 226.92876 231.22133
 234.85353 239.03223 243.35205 247.45261 251.18976 254.59666 257.70511 260.68188
 263.71744 266.52649 269.08301 271.40219 273.34909 274.98300 276.40884 277.56979
 278.46597 279.23413 279.89883 280.48251 280.98764 281.43454 281.84225 282.21164
 282.54385 282.83969 283.09811 283.42746
 366.78100 356.34136 345.77972 334.65207 323.06143 311.26179 299.13815 286.94751
 274.66586 262.56922 250.58458 239.89194 230.02030 221.13065 213.31901 206.32737
 200.16773 195.11208 191.70044 189.74880 188.79216 188.86252 189.70387 191.01823
 192.74959 194.85095 197.12031 199.48566 201.93702 204.42338 206.51774 208.36610
 209.99845 211.14981 211.38517 211.61953 211.56289 211.27424 210.91360 210.54996
 210.17332 209.88968 209.70403 209.57439 209.50875 209.84611 210.23846 210.63382
 211.43318 212.61754 213.87390 215.66325 217.59761 219.64697 221.74833 223.83769
 225.90404 227.99440 230.09776 232.21012 234.34548 236.52383 238.78619 241.16255
 243.78991 246.04727 248.05562 249.82698 251.25034 252.37970 253.20806 253.53041
 253.57377 253.35413 252.72049 251.67484 250.28720 248.45456 246.36992 244.20928
 242.00663 239.81699 237.64335 235.48871 233.35507 231.22842 229.26078 227.42414
 225.71350 224.19186 222.82821 221.60657 220.49493 219.46129 218.57165 217.71900
 216.96736 216.15372 215.25808 214.62844 214.08479 214.07614 213.77937 212.94792
 212.77087 213.45987 214.99261 216.90715 219.05727 222.23439 226.95564 231.29645
 234.93063 239.10483 243.41611 247.54526 251.36061 254.83647 257.95874 260.84555
 263.74417 266.55115 269.11758 271.42792 273.34955 274.96307 276.36646 278.41348
 280.72394 282.70435 284.41809 285.92285 287.22510 288.37726 289.42844 290.38074
 291.23721 291.99991 292.66620 293.51529
 366.78100 356.34361 345.78421 334.65882 323.07042 311.27303 299.15163 286.96324
 274.68384 262.58945 250.60705 239.91666 230.04726 221.15987 213.35048 206.36108
 200.20369 195.15029 191.74090 189.79150 188.83711 188.90971 189.75332 191.06992
 192.80353 194.90713 197.17874 199.54635 201.99995 204.48856 206.58516 208.43577
 210.07037 211.22398 211.46158 211.69819 211.64379 211.35740 210.99901 210.63761
 210.26322 209.98182 209.79843 209.67103 209.60764 209.94724 210.34185 210.73945
 211.54106 212.72766 213.98627 215.77788 217.71448 219.76609 221.86969 223.96130
 226.02990 228.12251 230.22811 232.34272 234.48032 236.66093 238.92553 241.30414
 243.93375 246.19335 248.20396 249.97756 251.40317 252.53477 253.36538 253.68998
 253.73559 253.51819 252.88680 251.84340 250.45801 248.62762 246.54522 244.38683
 242.18643 239.99904 237.82764 235.67525 233.54385 231.41946 229.45406 227.61967
 225.91128 224.39188 223.03049 221.81109 220.70170 219.67030 218.78291 217.93251
 217.18312 216.37172 215.47833 214.85093 214.30954 214.18202 213.73152 213.04707
 212.90869 213.54324 214.92461 216.74942 218.91551 222.10127 226.88463 231.24126
 234.90274 239.07764 243.37073 247.48767 251.33774 254.86295 258.00577 260.87155
 263.76968 266.56531 269.15091 271.44437 273.35229 274.91473 276.28116 278.47046
 280.75388 282.71109 284.40475 285.89191 287.17892 288.31760 289.35648 290.29761
 291.14407 291.89783 292.55630 293.39548
 366.78100 356.34337 345.78374 334.65811 323.06948 311.27185 299.15022 286.96159
 274.68196 262.58733 250.60470 239.91407 230.04444 221.15682 213.34719 206.35756
 200.19993 195.14630 191.73667 189.78704 188.83241 188.90478 189.74815 191.06452
 192.79789 194.90126 197.17263 199.54000 201.99337 204.48174 206.57811 208.42848
 210.06285 211.21622 211.45359 211.68996 211.63533 211.34871 210.99008 210.62845
 210.25382 209.97219 209.78856 209.66093 209.59730 209.93667 210.33104 210.72841
 211.52978 212.71615 213.97452 215.76589 217.70226 219.75363 221.85700 223.94837
 226.01674 228.10911 230.21448 232.32885 234.46622 236.64660 238.91097 241.28934
 243.91871 246.17808 248.18845 249.96182 251.38719 252.51856 253.34893 253.67330
 253.71867 253.50104 252.86941 251.82578 250.44015 248.60952 246.52689 244.36826
 242.16763 239.98000 237.80837 235.65574 233.52411 231.39949 229.43386 227.59923
 225.89060 224.37097 223.00934 221.78971 220.68008 219.64845 218.76082 217.91019
 217.16056 216.34893 215.45530 214.82767 214.28604 214.17413 213.78400 213.08218
 212.87744 213.57896 214.99393 216.82980 218.97902 222.10764 226.84854 231.22304
 234.89061 239.04781 243.31154 247.40227 251.23262 254.74161 257.92258 260.89447
 263.80875 266.59921 269.19958 271.44547 273.27438 274.73355 276.05533 277.70370
 279.88370 281.76270 283.38867 284.81641 286.05197 287.14514 288.14249 289.04602
 289.85864 290.58231 291.21445 292.02008
 366.78100 356.34290 345.78280 334.65669 323.06759 311.26949 299.14739 286.95829
 274.67818 262.58308 250.59998 239.90888 230.03878 221.15067 213.34057 206.35047
 200.19237 195.13827 191.72816 189.77806 188.82296 188.89486 189.73776 191.05365
 192.78655 194.88945 197.16035 199.52725 201.98014 204.46804 206.56394 208.41384
 210.04774 211.20063 211.43753 211.67343 211.61833 211.33123 210.97212 210.61002
 210.23492 209.95282 209.76872 209.64061 209.57651 209.91541 210.30931 210.70621
 211.50710 212.69300 213.95090 215.74180 217.67770 219.72859 221.83149 223.92239
 225.99029 228.08219 230.18708 232.30098 234.43788 236.61778 238.88168 241.25957
 243.88847 246.14737 248.15727 249.93017 251.35506 252.48596 253.31586 253.63976
 253.68466 253.46655 252.83445 251.79035 250.40425 248.57315 246.49004 244.33094
 242.12984 239.94174 237.76964 235.61653 233.48443 231.35933 229.39323 227.55813
 225.84902 224.32892 222.96682 221.74672 220.63662 219.60451 218.71641 217.86531
 217.11521 216.30311 215.40900 214.78090 214.23880 214.14703 213.82797 213.16388
 212.85208 213.53136 215.01834 216.86336 219.01695 222.14563 226.77914 231.20447
 234.86026 238.98210 243.20447 247.26392 251.08919 254.63972 257.91751 261.01666
 263.94891 266.65332 269.21567 271.44385 273.22955 274.66882 275.97607 277.12332
 278.84106 280.72736 282.35962 283.79285 285.03320 286.13058 287.13181 288.03882
 288.85458 289.58102 290.21564 291.02435
 366.78100 356.34225 345.78151 334.65476 323.06501 311.26627 299.14352 286.95377
 274.67303 262.57728 250.59353 239.90178 230.03104 221.14229 213.33154 206.34080
 200.18205 195.12730 191.71656 189.76581 188.81006 188.88132 189.72357 191.03882
 192.77108 194.87333 197.14358 199.50984 201.96209 204.44934 206.54459 208.39385
 210.02710 211.17935 211.41561 211.65086 211.59511 211.30737 210.94762 210.58487
 210.20913 209.92638 209.74163 209.61289 209.54814 209.88639 210.27965 210.67590
 211.47615 212.66141 213.91866 215.70891 217.64416 219.69442 221.79667 223.88692
 225.95418 228.04543 230.14968 232.26294 234.39919 236.57844 238.84170 241.21895
 243.84720 246.10546 248.11471 249.88696 251.31122 252.44147 253.27072 253.59397
 253.63823 253.41948 252.78673 251.74199 250.35524 248.52349 246.43975 244.28000
 242.07825 239.88951 237.71676 235.56301 233.43027 231.30452 229.33777 227.50203
 225.79228 224.27153 222.90878 221.68804 220.57729 219.54454 218.65580 217.80405
 217.05330 216.24056 215.34581 214.71706 214.17432 214.12233 213.87367 213.17839
 212.89394 213.51894 215.01697 216.90088 219.05635 222.23718 226.72762 231.15797
 234.78201 238.86336 243.03893 247.05920 250.86372 254.43365 257.80392 261.00055
 263.99719 266.72632 269.23013 271.43256 273.18646 274.65399 276.02252 277.16187
 278.37204 280.26318 281.94263 283.41730 284.69348 285.82260 286.85272 287.78598
 288.62531 289.37274 290.02570 290.85782
 366.78100 356.34226 345.78151 334.65477 323.06503 311.26628 299.14354 286.95379
 274.67305 262.57731 250.59356 239.90182 230.03108 221.14233 213.33159 206.34085
 200.18210 195.12736 191.71661 189.76587 188.81013 188.88138 189.72364 191.03890
 192.77115 194.87341 197.14367 199.50992 201.96218 204.44943 206.54469 208.39395
 210.02720 211.17946 211.41572 211.65097 211.59523 211.30749 210.94774 210.58500
 210.20925 209.92651 209.74177 209.61302 209.54828 209.88654 210.27979 210.67605
 211.47631 212.66156 213.91882 215.70907 217.64433 219.69459 221.79684 223.88710
 225.95436 228.04561 230.14987 232.26313 234.39938 236.57864 238.84189 241.21915
 243.84741 246.10566 248.11492 249.88718 251.31143 252.44169 253.27095 253.59420
 253.63846 253.41971 252.78697 251.74223 250.35548 248.52374 246.44000 244.28025
 242.07851 239.88977 237.71702 235.56328 233.43053 231.30479 229.33805 227.50230
 225.79256 224.27182 222.90907 221.68833 220.57759 219.54484 218.65610 217.80435
 217.05361 216.24087 215.34612 214.71738 214.17464 214.12968 213.91028 213.21725
 212.83949 213.43089 214.93042 216.91449 219.12434 222.30954 226.88023 231.23677
 234.82291 238.85562 242.98947 246.98378 250.77568 254.35139 257.79324 261.03955
 264.07089 266.82614 269.25195 271.40704 273.14539 274.60953 275.99890 277.13541
 278.34952 280.26767 281.99133 283.50485 284.81467 285.97354 287.03082 287.98865
 288.85010 289.61722 290.28738 291.14142
 366.78100 356.34338 345.78376 334.65814 323.06952 311.27190 299.15028 286.96166
 274.68204 262.58742 250.60480 239.91418 230.04456 221.15694 213.34732 206.35770
 200.20008 195.14646 191.73684 189.78722 188.83260 188.90498 189.74836 191.06474
 192.79812 194.90150 197.17288 199.54026 201.99364 204.48202 206.57840 208.42878
 210.06316 211.21654 211.45392 211.69030 211.63568 211.34906 210.99044 210.62882
 210.25420 209.97258 209.78896 209.66134 209.59772 209.93710 210.33148 210.72886
 211.53024 212.71662 213.97500 215.76638 217.70276 219.75414 221.85752 223.94890
 226.01728 228.10966 230.21504 232.32942 234.46680 236.64718 238.91156 241.28994
 243.91932 246.17870 248.18908 249.96246 251.38784 252.51922 253.34960 253.67398
 253.71936 253.50174 252.87012 251.82650 250.44088 248.61026 246.52764 244.36902
 242.16840 239.98078 237.80916 235.65654 233.52492 231.40030 229.43468 227.60006
 225.89144 224.37182 223.01020 221.79058 220.68096 219.64934 218.76172 217.91110
 217.16148 216.34986 215.45624 214.82862 214.28700 214.17863 213.88327 213.35638
 212.87816 213.35652 214.75551 216.68106 219.00897 222.38057 226.92326 231.31790
 234.89665 238.91154 243.02606 247.00018 250.77478 254.36398 257.82120 261.08621
 264.16025 266.93600 269.30698 271.36710 273.12177 274.61520 276.13031 277.34375
 278.42667 280.11447 281.82010 283.32321 284.62405 285.77493 286.82495 287.77621
 288.63174 289.39362 290.05917 290.90732
 366.78100 356.34324 345.78348 334.65772 323.06896 311.27120 299.14944 286.96068
 274.68093 262.58617 250.60341 239.91265 230.04289 221.15513 213.34537 206.35561
 200.19785 195.14409 191.73433 189.78457 188.82981 188.90205 189.74530 191.06154
 192.79478 194.89802 197.16926 199.53650 201.98974 204.47798 206.57422 208.42446
 210.05870 211.21194 211.44918 211.68542 211.63067 211.34391 210.98515 210.62339
 210.24863 209.96687 209.78311 209.65535 209.59159 209.93083 210.32507 210.72231
 211.52355 212.70979 213.96804 215.75928 217.69552 219.74676 221.85000 223.94124
 226.00948 228.10172 230.20696 232.32120 234.45844 236.63868 238.90292 241.28116
 243.91041 246.16965 248.17989 249.95313 251.37837 252.50961 253.33985 253.66409
 253.70933 253.49157 252.85981 251.81605 250.43029 248.59953 246.51678 244.35802
 242.15726 239.96950 237.79774 235.64498 233.51322 231.38846 229.42270 227.58794
 225.87918 224.35942 222.99766 221.77790 220.66815 219.63639 218.74863 217.89787
 217.14811 216.33635 215.44259 214.81483 214.27307 214.16702 213.89302 213.44154
 212.94698 213.42300 214.76382 216.53122 218.85995 222.29979 226.83882 231.25995
 234.85530 238.87360 242.97038 246.92332 250.69795 254.30525 257.78391 261.07388
 264.12543 266.87360 269.23633 271.27805 273.01407 274.53894 276.05878 277.45505
 278.51062 280.04135 281.58405 282.99915 284.23502 285.32843 286.32602 287.22977
 288.04257 288.76639 289.39871 290.20453
 366.78100 356.34211 345.78121 334.65432 323.06443 311.26553 299.14264 286.95275
 274.67185 262.57596 250.59207 239.90017 230.02928 221.14038 213.32949 206.33860
 200.17970 195.12481 191.71392 189.76302 188.80713 188.87824 189.72034 191.03545
 192.76756 194.86966 197.13977 199.50588 201.95798 204.44509 206.54020 208.38930
 210.02241 211.17452 211.41062 211.64573 211.58983 211.30194 210.94205 210.57915
 210.20326 209.92037 209.73547 209.60658 209.54169 209.87979 210.27290 210.66901
 211.46911 212.65422 213.91133 215.70143 217.63654 219.68665 221.78875 223.87886
 225.94597 228.03707 230.14118 232.25429 234.39039 236.56950 238.83260 241.20971
 243.83782 246.09592 248.10503 249.87714 251.30124 252.43135 253.26046 253.58356
 253.62767 253.40878 252.77588 251.73099 250.34410 248.51220 246.42831 244.26842
 242.06652 239.87763 237.70474 235.55084 233.41795 231.29205 229.32516 227.48927
 225.77937 224.25848 222.89559 221.67469 220.56380 219.53091 218.64201 217.79012
 217.03923 216.22633 215.33144 214.70255 214.15965 214.12106 213.98070 213.46213
 212.92729 213.46658 214.92068 216.63850 218.86380 222.26089 226.74208 231.17769
 234.77339 238.77927 242.86008 246.80688 250.58170 254.21080 257.73239 261.04065
 264.11911 266.86722 269.22198 271.18976 272.87369 274.45132 275.88583 277.16855
 278.35013 280.03873 281.59744 282.99512 284.20468 285.27484 286.25119 287.13568
 287.93121 288.63962 289.25848 290.04712
 366.78100 356.34095 345.77890 334.65085 323.05980 311.25975 299.13570 286.94465
 274.66260 262.56555 250.58051 239.88746 230.01541 221.12536 213.31331 206.32126
 200.16121 195.10516 191.69311 189.74106 188.78401 188.85396 189.69491 191.00886
 192.73981 194.84076 197.10971 199.47466 201.92561 204.41157 206.50552 208.35347
 209.98542 211.13637 211.37132 211.60527 211.54822 211.25917 210.89812 210.53407
 210.15702 209.87297 209.68692 209.55687 209.49082 209.82777 210.21972 210.61467
 211.41363 212.59758 213.85353 215.64248 217.57643 219.62538 221.72633 223.81528
 225.88123 227.97118 230.07413 232.18608 234.32103 236.49898 238.76093 241.13688
 243.76383 246.02078 248.02873 249.79968 251.22264 252.35159 253.17954 253.50149
 253.54444 253.32439 252.69034 251.64429 250.25624 248.42319 246.33814 244.17709
 241.97404 239.78399 237.60994 235.45489 233.32084 231.19379 229.22574 227.38870
 225.67765 224.15560 222.79155 221.56950 220.45745 219.42340 218.53335 217.68030
 216.92825 216.11420 215.21815 214.58810 214.04405 214.08894 214.09145 213.45930
 212.84503 213.42978 214.97763 216.73013 218.90735 222.29568 226.81715 231.18253
 234.77139 238.73686 242.79381 246.75468 250.54308 254.22710 257.78360 261.10269
 264.19479 266.92825 269.19394 271.11279 272.79996 274.34686 275.69836 277.03439
 278.53061 280.33527 282.02148 283.50214 284.78351 285.91718 286.95148 287.88849
 288.73123 289.48172 290.13730 290.97278
 366.78100 356.33973 345.77647 334.64720 323.05493 311.25367 299.12840 286.93613
 274.65287 262.55460 250.56833 239.87406 230.00080 221.10953 213.29626 206.30300
 200.14173 195.08446 191.67120 189.71793 188.75966 188.82840 189.66813 190.98086
 192.71060 194.81033 197.07806 199.44180 201.89153 204.37626 206.46900 208.31573
 209.94646 211.09619 211.32993 211.56266 211.50439 211.21413 210.85186 210.48659
 210.10833 209.82306 209.63579 209.50453 209.43726 209.77299 210.16373 210.55746
 211.35519 212.53793 213.79266 215.58039 217.51313 219.56086 221.66059 223.74832
 225.81306 227.90179 230.00352 232.11426 234.24799 236.42472 238.68546 241.06019
 243.68592 245.94166 247.94839 249.71812 251.13986 252.26759 253.09432 253.41506
 253.45679 253.23552 252.60025 251.55299 250.16372 248.32945 246.24319 244.08092
 241.87665 239.68539 237.51012 235.35385 233.21859 231.09032 229.12105 227.28279
 225.57052 224.04725 222.68199 221.45872 220.34545 219.31019 218.41892 217.56465
 216.81138 215.99612 215.09885 214.46758 213.92232 214.04593 214.19537 213.51724
 212.79178 213.32643 214.87061 216.67821 218.94978 222.26880 226.90332 231.23732
 234.80453 238.73909 242.78101 246.75621 250.56218 254.28667 257.86646 261.19012
 264.30164 267.08905 269.36398 271.15869 272.76508 274.32242 275.86749 277.19159
 279.15976 281.21036 282.98483 284.54291 285.89133 287.08432 288.17273 289.15878
 290.04559 290.83533 291.52521 292.40442
 366.78100 356.33971 345.77642 334.64713 323.05484 311.25354 299.12825 286.93596
 274.65267 262.55438 250.56809 239.87380 230.00051 221.10922 213.29592 206.30263
 200.14134 195.08405 191.67076 189.71747 188.75918 188.82789 189.66760 190.98031
 192.71001 194.80972 197.07743 199.44114 201.89085 204.37556 206.46827 208.31498
 209.94569 211.09539 211.32910 211.56181 211.50352 211.21323 210.85094 210.48565
 210.10736 209.82207 209.63477 209.50348 209.43619 209.77190 210.16261 210.55632
 211.35403 212.53674 213.79145 215.57915 217.51186 219.55957 221.65928 223.74699
 225.81170 227.90041 230.00212 232.11283 234.24653 236.42324 238.68395 241.05866
 243.68437 245.94008 247.94679 249.71650 251.13821 252.26592 253.09262 253.41333
 253.45504 253.23375 252.59846 251.55117 250.16188 248.32759 246.24130 244.07900
 241.87471 239.68342 237.50813 235.35184 233.21655 231.08826 229.11897 227.28068
 225.56838 224.04509 222.67980 221.45651 220.34322 219.30793 218.41664 217.56235
 216.80906 215.99376 215.09647 214.46518 213.91989 214.05316 214.23340 213.62103
 212.88507 213.33354 214.77480 216.54033 218.84987 222.20015 226.86755 231.20398
 234.74165 238.63939 242.66066 246.63757 250.45715 254.21596 257.79401 261.11768
 264.25378 267.09799 269.41345 271.22806 272.79440 274.37347 276.17740 277.94849
 280.24283 282.35898 284.19016 285.79807 287.18958 288.42072 289.54391 290.56149
 291.47665 292.29163 293.00357 293.91086
 366.78100 356.34140 345.77979 334.65219 323.06159 311.26198 299.13838 286.94777
 274.66617 262.56957 250.58496 239.89236 230.02076 221.13115 213.31955 206.32795
 200.16834 195.11274 191.70113 189.74953 188.79293 188.86332 189.70472 191.01912
 192.75051 194.85191 197.12131 199.48670 201.93810 204.42450 206.51889 208.36729
 209.99968 211.15108 211.38648 211.62087 211.56427 211.27567 210.91506 210.55146
 210.17486 209.89125 209.70565 209.57604 209.51044 209.84784 210.24023 210.63563
 211.43503 212.61942 213.87582 215.66522 217.59961 219.64901 221.75040 223.83980
 225.90620 227.99659 230.09999 232.21239 234.34778 236.52618 238.78858 241.16497
 243.79237 246.04976 248.05816 249.82956 251.25295 252.38235 253.21075 253.53314
 253.57654 253.35694 252.72333 251.67773 250.29013 248.45752 246.37292 244.21231
 242.00971 239.82011 237.64650 235.49190 233.35830 231.23169 229.26409 227.42749
 225.71688 224.19528 222.83167 221.61007 220.49847 219.46486 218.57526 217.72266
 216.97105 216.15745 215.26185 214.63224 214.08864 214.15082 214.18924 213.65579
 212.98294 213.37599 214.80902 216.57193 218.86803 222.18530 226.84683 231.16142
 234.66692 238.51941 242.52051 246.49799 250.32222 254.08704 257.66437 260.99982
 264.14322 266.95969 269.35089 271.15573 272.71500 274.37775 276.33340 278.77304
 281.28818 283.44403 285.30957 286.94766 288.36526 289.61951 290.76379 291.80045
 292.73279 293.56305 294.28836 295.21265
 366.78100 356.34148 345.77996 334.65244 323.06192 311.26240 299.13888 286.94836
 274.66684 262.57032 250.58580 239.89328 230.02176 221.13224 213.32072 206.32920
 200.16968 195.11415 191.70263 189.75111 188.79459 188.86507 189.70655 191.02103
 192.75251 194.85399 197.12347 199.48895 201.94043 204.42691 206.52139 208.36987
 210.00235 211.15383 211.38931 211.62379 211.56727 211.27875 210.91823 210.55471
 210.17819 209.89467 209.70915 209.57963 209.51411 209.85159 210.24407 210.63955
 211.43903 212.62351 213.87998 215.66946 217.60394 219.65342 221.75490 223.84438
 225.91086 228.00134 230.10482 232.21730 234.35278 236.53126 238.79374 241.17022
 243.79770 246.05518 248.06366 249.83514 251.25862 252.38810 253.21658 253.53906
 253.58254 253.36302 252.72950 251.68398 250.29646 248.46394 246.37942 244.21890
 242.01638 239.82686 237.65334 235.49881 233.36529 231.23877 229.27125 227.43473
 225.72421 224.20269 222.83917 221.61765 220.50613 219.47261 218.58309 217.73057
 216.97905 216.16553 215.27001 214.64049 214.09697 214.18477 214.21248 213.59993
 212.93692 213.27895 214.79840 216.62589 218.94672 222.28311 226.86763 231.19125
 234.68123 238.51122 242.49626 246.46631 250.31723 254.07224 257.63641 260.97400
 264.08792 266.88821 269.25037 271.06091 272.61029 274.52725 276.53336 279.40338
 281.94720 284.12762 286.01443 287.67120 289.10498 290.37350 291.53082 292.57928
 293.52228 294.36200 295.09558 296.03043
 366.78100 356.33983 345.77665 334.64748 323.05530 311.25413 299.12896 286.93678
 274.65361 262.55543 250.56926 239.87509 230.00191 221.11074 213.29756 206.30439
 200.14322 195.08604 191.67287 189.71969 188.76152 188.83034 189.67017 190.98300
 192.71282 194.81265 197.08047 199.44430 201.89413 204.37895 206.47178 208.31860
 209.94943 211.09926 211.33308 211.56591 211.50773 211.21756 210.85539 210.49021
 210.11204 209.82686 209.63969 209.50852 209.44134 209.77717 210.16799 210.56182
 211.35965 212.54247 213.79730 215.58512 217.51795 219.56578 221.66560 223.75343
 225.81825 227.90708 230.00891 232.11973 234.25356 236.43038 238.69121 241.06603
 243.69186 245.94769 247.95451 249.72434 251.14616 252.27399 253.10082 253.42164
 253.46347 253.24229 252.60712 251.55995 250.17077 248.33660 246.25042 244.08825
 241.88408 239.69290 237.51773 235.36155 233.22638 231.09821 229.12903 227.29086
 225.57868 224.05551 222.69034 221.46716 220.35399 219.31881 218.42764 217.57347
 216.82029 216.00512 215.10794 214.47677 213.93159 214.12578 214.31091 213.57515
 212.82903 213.13142 214.72719 216.58371 218.94301 222.35812 226.91679 231.25342
 234.72791 238.53894 242.53152 246.52255 250.39828 254.18936 257.78403 261.14383
 264.31815 267.11612 269.32959 270.96805 272.59033 274.53848 276.53723 279.56259
 282.18845 284.43921 286.38690 288.09711 289.57712 290.88657 292.08124 293.16354
 294.13693 295.00375 295.76099 296.72601
 366.78100 356.33974 345.77649 334.64723 323.05498 311.25372 299.12847 286.93621
 274.65296 262.55470 250.56845 239.87419 230.00094 221.10968 213.29642 206.30317
 200.14191 195.08466 191.67140 189.71815 188.75989 188.82864 189.66838 190.98113
 192.71087 194.81062 197.07836 199.44210 201.89185 204.37659 206.46934 208.31608
 209.94683 211.09657 211.33032 211.56306 211.50481 211.21455 210.85230 210.48704
 210.10878 209.82353 209.63627 209.50502 209.43776 209.77351 210.16425 210.55800
 211.35574 212.53849 213.79323 215.58098 217.51372 219.56146 221.66121 223.74895
 225.81370 227.90244 230.00419 232.11493 234.24868 236.42542 238.68617 241.06091
 243.68666 245.94240 247.94914 249.71889 251.14063 252.26838 253.09512 253.41587
 253.45761 253.23636 252.60110 251.55385 250.16459 248.33034 246.24408 244.08182
 241.87757 239.68631 237.51106 235.35480 233.21955 231.09129 229.12204 227.28378
 225.57153 224.04827 222.68302 221.45976 220.34650 219.31125 218.41999 217.56574
 216.81248 215.99723 215.09997 214.46872 213.92346 214.10316 214.34766 213.68990
 212.98581 213.25876 214.58458 216.40359 218.85287 222.31255 226.95163 231.25082
 234.72177 238.52887 242.51170 246.51263 250.40157 254.18373 257.78296 261.15823
 264.32144 267.11108 269.33783 271.11960 272.77844 274.46481 276.16666 278.25580
 280.60342 282.73187 284.57367 286.19092 287.59052 288.82880 289.95856 290.98203
 291.90250 292.72223 293.43829 294.35086
 366.78100 356.34083 345.77867 334.65050 323.05934 311.25917 299.13500 286.94384
 274.66167 262.56451 250.57934 239.88617 230.01401 221.12384 213.31168 206.31951
 200.15934 195.10318 191.69101 189.73884 188.78168 188.85151 189.69235 191.00618
 192.73701 194.83785 197.10668 199.47152 201.92235 204.40818 206.50202 208.34985
 209.98169 211.13252 211.36735 211.60119 211.54402 211.25486 210.89369 210.52952
 210.15236 209.86819 209.68203 209.55186 209.48569 209.82253 210.21436 210.60920
 211.40803 212.59186 213.84770 215.63653 217.57037 219.61920 221.72003 223.80887
 225.87470 227.96453 230.06737 232.17920 234.31404 236.49187 238.75370 241.12954
 243.75637 246.01321 248.02104 249.79187 251.21471 252.34354 253.17138 253.49321
 253.53604 253.31588 252.68171 251.63555 250.24738 248.41421 246.32905 244.16788
 241.96472 239.77455 237.60038 235.44522 233.31105 231.18389 229.21572 227.37855
 225.66739 224.14522 222.78105 221.55889 220.44672 219.41256 218.52239 217.66922
 216.91706 216.10289 215.20673 214.57656 214.03239 214.13660 214.31125 213.86812
 213.15030 213.35471 214.53929 216.23077 218.67679 222.29001 226.74902 231.14058
 234.59554 238.39157 242.35565 246.35547 250.25964 254.04366 257.64011 260.99649
 264.11560 266.84048 269.07101 270.93634 272.69711 274.59036 276.43008 278.01740
 279.45474 281.19873 282.93460 284.48145 285.82010 287.00446 288.08502 289.06390
 289.94434 290.72836 291.41324 292.28607
 366.78100 356.34163 345.78026 334.65290 323.06253 311.26316 299.13979 286.94942
 274.66806 262.57169 250.58732 239.89495 230.02359 221.13422 213.32285 206.33148
 200.17211 195.11675 191.70538 189.75401 188.79764 188.86827 189.70991 191.02454
 192.75617 194.85780 197.12744 199.49307 201.94470 204.43133 206.52596 208.37460
 210.00723 211.15886 211.39449 211.62912 211.57276 211.28439 210.92402 210.56065
 210.18429 209.90092 209.71555 209.58618 209.52081 209.85845 210.25108 210.64671
 211.44634 212.63097 213.88761 215.67724 217.61187 219.66150 221.76314 223.85277
 225.91940 228.01003 230.11366 232.22630 234.36193 236.54056 238.80319 241.17982
 243.80746 246.06509 248.07372 249.84535 251.26898 252.39862 253.22725 253.54988
 253.59351 253.37415 252.74078 251.69541 250.30804 248.47567 246.39131 244.23094
 242.02857 239.83920 237.66583 235.51147 233.37810 231.25173 229.28436 227.44800
 225.73763 224.21626 222.85289 221.63152 220.52016 219.48679 218.59742 217.74505
 216.99368 216.18032 215.28495 214.65558 214.11221 214.17621 214.28885 213.95421
 213.20935 213.32104 214.49103 216.20969 218.66641 222.26068 226.75697 231.10014
 234.53357 238.30246 242.25858 246.27051 250.18800 254.00389 257.62280 260.98438
 264.08600 266.78201 268.95236 270.76270 272.55737 274.50546 276.49719 278.08167
 279.28287 280.78439 282.37701 283.86905 285.16025 286.30264 287.34491 288.28915
 289.13837 289.89459 290.55524 291.39713
 366.78100 356.34255 345.78209 334.65564 323.06619 311.26774 299.14528 286.95583
 274.67538 262.57993 250.59647 239.90502 230.03457 221.14612 213.33566 206.34521
 200.18676 195.13231 191.72185 189.77140 188.81595 188.88749 189.73004 191.04559
 192.77814 194.88068 197.15123 199.51778 201.97033 204.45787 206.55342 208.40297
 210.03652 211.18906 211.42561 211.66116 211.60570 211.31825 210.95880 210.59635
 210.22089 209.93844 209.75399 209.62554 209.56108 209.89963 210.29318 210.68973
 211.49027 212.67582 213.93337 215.72392 217.65946 219.71001 221.81256 223.90310
 225.97065 228.06220 230.16675 232.28029 234.41684 236.59639 238.85994 241.23748
 243.86603 246.12458 248.13413 249.90667 251.33122 252.46177 253.29131 253.61486
 253.65941 253.44096 252.80850 251.76405 250.37760 248.54615 246.46269 244.30324
 242.10179 239.91334 237.74088 235.58743 233.45498 231.32953 229.36307 227.52762
 225.81817 224.29771 222.93526 221.71481 220.60436 219.57190 218.68345 217.83200
 217.08155 216.26909 215.37464 214.74619 214.20374 214.23140 214.27142 213.99515
 213.27899 213.22040 214.38603 216.18239 218.67540 222.27415 226.80135 231.12022
 234.54030 238.28062 242.23083 246.25742 250.19057 254.03320 257.66254 261.02167
 264.13416 266.83990 268.97931 270.72577 272.47864 274.34021 276.34290 277.85742
 279.07996 280.69373 282.28262 283.77509 285.06665 286.20938 287.25195 288.19644
 289.04590 289.80237 290.46320 291.30533
 366.78100 356.34313 345.78326 334.65740 323.06853 311.27066 299.14879 286.95992
 274.68006 262.58519 250.60232 239.91145 230.04158 221.15372 213.34385 206.35398
 200.19611 195.14225 191.73238 189.78251 188.82764 188.89977 189.74291 191.05904
 192.79217 194.89530 197.16643 199.53357 201.98670 204.47483 206.57096 208.42109
 210.05523 211.20836 211.44549 211.68162 211.62675 211.33989 210.98102 210.61915
 210.24428 209.96241 209.77855 209.65068 209.58681 209.92594 210.32008 210.71721
 211.51834 212.70447 213.96260 215.75374 217.68987 219.74100 221.84413 223.93526
 226.00340 228.09553 230.20066 232.31479 234.45192 236.63206 238.89619 241.27432
 243.90345 246.16258 248.17272 249.94585 251.37098 252.50211 253.33224 253.65638
 253.70151 253.48364 252.85177 251.80791 250.42204 248.59117 246.50830 244.34943
 242.14857 239.96070 237.78883 235.63596 233.50409 231.37923 229.41336 227.57849
 225.86962 224.34975 222.98789 221.76802 220.65815 219.62628 218.73841 217.88755
 217.13768 216.32581 215.43194 214.80407 214.26221 214.28023 214.28796 213.99336
 213.36101 213.23651 214.31706 216.13911 218.65506 222.26649 226.81679 231.11067
 234.51811 238.24008 242.18457 246.21573 250.17313 254.03572 257.67160 261.02579
 264.15405 266.84399 268.91299 270.61499 272.45190 274.44028 276.16513 277.53152
 278.99680 280.77597 282.48676 284.01273 285.33334 286.50177 287.56775 288.53348
 289.40204 290.17548 290.85114 291.71222
 366.78100 356.34203 345.78105 334.65408 323.06411 311.26514 299.14216 286.95219
 274.67122 262.57525 250.59127 239.89930 230.02833 221.13936 213.32838 206.33741
 200.17844 195.12346 191.71249 189.76152 188.80555 188.87657 189.71860 191.03363
 192.76566 194.86768 197.13771 199.50374 201.95577 204.44279 206.53782 208.38685
 210.01987 211.17190 211.40793 211.64296 211.58698 211.29901 210.93904 210.57607
 210.20009 209.91712 209.73215 209.60318 209.53820 209.87623 210.26926 210.66528
 211.46531 212.65034 213.90737 215.69739 217.63242 219.68245 221.78448 223.87450
 225.94153 228.03256 230.13659 232.24961 234.38564 236.56467 238.82769 241.20472
 243.83275 246.09078 248.09980 249.87183 251.29586 252.42589 253.25491 253.57794
 253.62197 253.40300 252.77002 251.72505 250.33808 248.50610 246.42213 244.26216
 242.06019 239.87121 237.69824 235.54427 233.41130 231.28532 229.31835 227.48238
 225.77241 224.25143 222.88846 221.66749 220.55651 219.52354 218.63457 217.78260
 217.03162 216.21865 215.32368 214.69471 214.15173 214.24237 214.37923 213.97630
 213.36977 213.26125 214.24945 216.07005 218.63400 222.28131 226.83937 231.13167
 234.53027 238.23941 242.17876 246.21490 250.19202 254.07063 257.71268 261.06754
 264.20108 266.86652 268.89630 270.56952 272.47617 274.47766 276.16656 277.46753
 278.86044 280.63931 282.35413 283.86490 285.17233 286.32910 287.38446 288.34052
 289.20041 289.96616 290.63507 291.48755
 366.78100 356.34069 345.77838 334.65007 323.05877 311.25846 299.13415 286.94284
 274.66053 262.56322 250.57792 239.88461 230.01230 221.12199 213.30968 206.31737
 200.15707 195.10076 191.68845 189.73614 188.77883 188.84852 189.68921 191.00291
 192.73360 194.83429 197.10298 199.46767 201.91836 204.40406 206.49775 208.34544
 209.97713 211.12782 211.36251 211.59621 211.53890 211.24959 210.88828 210.52397
 210.14666 209.86235 209.67605 209.54574 209.47943 209.81612 210.20781 210.60250
 211.40120 212.58489 213.84058 215.62927 217.56296 219.61165 221.71235 223.80104
 225.86673 227.95642 230.05911 232.17080 234.30549 236.48319 238.74488 241.12057
 243.74726 246.00395 248.01164 249.78234 251.20503 252.33372 253.16141 253.48310
 253.52579 253.30549 252.67118 251.62487 250.23656 248.40325 246.31794 244.15663
 241.95333 239.76302 237.58871 235.43340 233.29909 231.17178 229.20348 227.36617
 225.65486 224.13255 222.76824 221.54593 220.43363 219.39932 218.50901 217.65570
 216.90339 216.08908 215.19277 214.56247 214.01816 214.18390 214.47656 214.03995
 213.44322 213.27287 214.12213 215.91896 218.54970 222.23947 226.79781 231.10039
 234.49104 238.19362 242.12985 246.18301 250.17749 254.06177 257.70929 261.08060
 264.20795 266.90970 268.93179 270.58203 272.46057 274.45499 276.17908 277.43695
 278.74863 280.38522 282.00015 283.44138 284.68866 285.79218 286.79895 287.71103
 288.53134 289.26184 289.89999 290.71323
 366.78100 356.33985 345.77669 334.64754 323.05539 311.25423 299.12908 286.93693
 274.65377 262.55562 250.56947 239.87532 230.00216 221.11101 213.29786 206.30470
 200.14355 195.08640 191.67324 189.72009 188.76194 188.83078 189.67063 190.98348
 192.71332 194.81317 197.08102 199.44487 201.89471 204.37956 206.47241 208.31925
 209.95010 211.09995 211.33379 211.56664 211.50849 211.21833 210.85618 210.49103
 210.11287 209.82772 209.64057 209.50941 209.44226 209.77811 210.16896 210.56280
 211.36065 212.54350 213.79834 215.58619 217.51904 219.56688 221.66673 223.75458
 225.81942 227.90827 230.01012 232.12096 234.25481 236.43166 238.69250 241.06735
 243.69320 245.94905 247.95589 249.72574 251.14759 252.27543 253.10228 253.42313
 253.46497 253.24382 252.60867 251.56151 250.17236 248.33821 246.25205 244.08990
 241.88575 239.69460 237.51944 235.36329 233.22814 231.09998 229.13083 227.29268
 225.58052 224.05737 222.69222 221.46906 220.35591 219.32076 218.42960 217.57545
 216.82230 216.00714 215.10999 214.47884 213.93369 214.15584 214.55534 214.09010
 213.52618 213.33095 214.08676 215.81987 218.45435 222.17839 226.72639 231.03729
 234.40985 238.10977 242.06302 246.12932 250.12604 254.00298 257.65097 261.03146
 264.16745 266.85800 268.95090 270.69794 272.48752 274.37500 276.13760 277.47702
 278.73450 280.35718 282.08105 283.62012 284.95206 286.13049 287.20563 288.17963
 289.05563 289.83572 290.51721 291.38565
 366.78100 356.33988 345.77676 334.64764 323.05552 311.25441 299.12929 286.93717
 274.65405 262.55593 250.56981 239.87569 230.00257 221.11145 213.29833 206.30522
 200.14410 195.08698 191.67386 189.72074 188.76262 188.83150 189.67138 190.98426
 192.71414 194.81403 197.08191 199.44579 201.89567 204.38055 206.47343 208.32031
 209.95119 211.10107 211.33496 211.56784 211.50972 211.21960 210.85748 210.49236
 210.11424 209.82912 209.64200 209.51088 209.44377 209.77965 210.17053 210.56441
 211.36229 212.54517 213.80005 215.58793 217.52081 219.56869 221.66858 223.75646
 225.82134 227.91022 230.01210 232.12298 234.25686 236.43374 238.69462 241.06951
 243.69539 245.95127 247.95815 249.72803 251.14991 252.27779 253.10467 253.42555
 253.46743 253.24632 252.61120 251.56408 250.17496 248.34084 246.25472 244.09260
 241.88848 239.69736 237.52224 235.36613 233.23101 231.10289 229.13377 227.29565
 225.58353 224.06041 222.69529 221.47217 220.35906 219.32394 218.43282 217.57870
 216.82558 216.01046 215.11334 214.48222 213.93710 214.17999 214.60135 214.12227
 213.52553 213.32402 214.07697 215.79395 218.40617 222.14314 226.83682 231.02571
 234.39487 238.09335 242.04858 246.11546 250.11333 253.97800 257.62198 260.98819
 264.07571 266.75607 268.95975 270.85837 272.66205 274.37323 276.10565 277.52478
 278.86139 280.57462 282.12564 283.48752 284.66614 285.70892 286.66028 287.52216
 288.29730 288.98761 289.59061 290.35910
 366.78100 356.34041 345.77782 334.64923 323.05764 311.25705 299.13246 286.94087
 274.65827 262.56068 250.57509 239.88150 230.00891 221.11832 213.30573 206.31314
 200.15255 195.09596 191.68337 189.73078 188.77319 188.84260 189.68300 190.99641
 192.72682 194.82723 197.09564 199.46005 201.91046 204.39587 206.48928 208.33669
 209.96810 211.11851 211.35292 211.58633 211.52873 211.23914 210.87755 210.51296
 210.13537 209.85078 209.66419 209.53360 209.46701 209.80342 210.19483 210.58924
 211.38765 212.57106 213.82646 215.61487 217.54828 219.59669 221.69710 223.78551
 225.85092 227.94033 230.04274 232.15415 234.28856 236.46597 238.72738 241.10279
 243.72919 245.98560 247.99301 249.76342 251.18583 252.31424 253.14165 253.46306
 253.50547 253.28488 252.65029 251.60370 250.21511 248.38152 246.29592 244.13433
 241.93074 239.74015 237.56556 235.40997 233.27538 231.14779 229.17920 227.34161
 225.63002 224.10743 222.74284 221.52025 220.40765 219.37306 218.48247 217.62888
 216.87629 216.06170 215.16511 214.53452 213.98993 214.24158 214.63127 214.11261
 213.45879 213.22845 213.92140 215.79736 218.48691 222.12741 226.88509 231.03497
 234.39047 238.11662 242.10219 246.16711 250.14987 254.00755 257.65198 261.02209
 264.08392 266.73294 269.02170 271.07831 272.89825 274.47784 276.18732 277.57559
 279.86084 281.88147 283.62997 285.16528 286.49396 287.66953 288.74203 289.71365
 290.58749 291.36569 292.04550 292.91180
 366.78100 356.34103 345.77906 334.65109 323.06012 311.26015 299.13618 286.94521
 274.66324 262.56627 250.58130 239.88834 230.01637 221.12640 213.31443 206.32246
 200.16249 195.10652 191.69455 189.74258 188.78561 188.85564 189.69667 191.01070
 192.74173 194.84276 197.11179 199.47682 201.92785 204.41388 206.50791 208.35594
 209.98798 211.13901 211.37404 211.60807 211.55110 211.26213 210.90116 210.53719
 210.16022 209.87625 209.69028 209.56031 209.49434 209.83137 210.22340 210.61843
 211.41746 212.60149 213.85752 215.64655 217.58058 219.62962 221.73065 223.81968
 225.88571 227.97574 230.07877 232.19080 234.32583 236.50386 238.76589 241.14192
 243.76895 246.02598 248.03401 249.80504 251.22807 252.35710 253.18513 253.50716
 253.55019 253.33022 252.69626 251.65029 250.26232 248.42935 246.34438 244.18341
 241.98044 239.79047 237.61650 235.46153 233.32756 231.20059 229.23262 227.39565
 225.68468 224.16271 222.79874 221.57677 220.46480 219.43083 218.54086 217.68790
 216.93593 216.12196 215.22599 214.59602 214.05205 214.29315 214.65074 214.08742
 213.40497 213.13708 213.76155 215.65988 218.41858 222.11502 226.91014 231.06172
 234.40646 238.14227 242.18289 246.29330 250.27399 254.13377 257.80008 261.18222
 264.23248 266.92044 269.26187 271.54425 273.42258 274.54544 276.20544 278.51999
 280.98105 283.09058 284.91599 286.51886 287.90601 289.13324 290.25293 291.26730
 292.17960 292.99203 293.70172 294.60617
 366.78100 356.34223 345.78146 334.65470 323.06493 311.26616 299.14339 286.95363
 274.67286 262.57709 250.59332 239.90156 230.03079 221.14202 213.33125 206.34049
 200.18172 195.12695 191.71618 189.76542 188.80965 188.88088 189.72311 191.03835
 192.77058 194.87281 197.14304 199.50928 201.96151 204.44874 206.54397 208.39320
 210.02644 211.17867 211.41490 211.65013 211.59437 211.30660 210.94683 210.58406
 210.20830 209.92553 209.74076 209.61199 209.54723 209.88546 210.27869 210.67492
 211.47516 212.66039 213.91762 215.70785 217.64309 219.69332 221.79555 223.88578
 225.95302 228.04425 230.14848 232.26171 234.39794 236.57718 238.84041 241.21764
 243.84587 246.10411 248.11334 249.88557 251.30980 252.44004 253.26927 253.59250
 253.63673 253.41797 252.78520 251.74043 250.35366 248.52190 246.43813 244.27836
 242.07659 239.88783 237.71506 235.56129 233.42852 231.30276 229.33599 227.50022
 225.79045 224.26968 222.90692 221.68615 220.57538 219.54261 218.65385 217.80208
 217.05131 216.23854 215.34378 214.71501 214.17224 214.33681 214.62279 214.18460
 213.48636 213.23077 213.72951 215.41866 218.19980 222.08237 226.81557 231.01042
 234.38014 238.14803 242.18642 246.29790 250.28439 254.12234 257.76801 261.10098
 264.05356 266.64417 269.01248 271.22260 273.15240 274.76968 276.38016 278.25977
 280.17307 282.07324 283.79425 285.30542 286.61319 287.77026 288.82590 289.78223
 290.64236 291.40829 292.07739 292.93011
 366.78100 356.34354 345.78408 334.65862 323.07016 311.27270 299.15124 286.96277
 274.68331 262.58885 250.60639 239.91593 230.04647 221.15901 213.34955 206.36009
 200.20263 195.14917 191.73971 189.79024 188.83578 188.90832 189.75186 191.06840
 192.80194 194.90548 197.17702 199.54456 201.99810 204.48664 206.58318 208.43371
 210.06825 211.22179 211.45933 211.69587 211.64141 211.35495 210.99649 210.63503
 210.26057 209.97911 209.79565 209.66818 209.60472 209.94426 210.33880 210.73634
 211.53788 212.72442 213.98296 215.77450 217.71104 219.76258 221.86612 223.95765
 226.02619 228.11873 230.22427 232.33881 234.47635 236.65689 238.92143 241.29997
 243.92951 246.18905 248.19959 249.97312 251.39866 252.53020 253.36074 253.68528
 253.73082 253.51336 252.88190 251.83844 250.45298 248.62252 246.54006 244.38159
 242.18113 239.99367 237.82221 235.66975 233.53829 231.41383 229.44837 227.61391
 225.90545 224.38599 223.02453 221.80506 220.69560 219.66414 218.77668 217.92622
 217.17676 216.36530 215.47184 214.84438 214.30292 214.38466 214.55226 214.32777
 213.60031 213.26337 213.76279 215.35716 218.11038 221.95686 226.64311 230.84219
 234.22818 238.00249 242.05443 246.19624 250.20520 254.05600 257.70551 261.03815
 263.96835 266.48480 268.72644 270.86316 272.81207 274.48389 276.05984 277.65952
 279.23599 280.60541 281.86053 283.19000 284.49072 285.64774 286.70331 287.65961
 288.51968 289.28561 289.95468 290.80734
 366.78100 356.34309 345.78318 334.65727 323.06836 311.27045 299.14854 286.95963
 274.67972 262.58481 250.60190 239.91099 230.04108 221.15317 213.34326 206.35335
 200.19544 195.14153 191.73162 189.78171 188.82681 188.89890 189.74199 191.05808
 192.79117 194.89426 197.16535 199.53244 201.98553 204.47362 206.56971 208.41980
 210.05389 211.20698 211.44407 211.68016 211.62525 211.33834 210.97943 210.61752
 210.24261 209.96070 209.77679 209.64888 209.58497 209.92406 210.31815 210.71524
 211.51633 212.70242 213.96051 215.75160 217.68769 219.73878 221.84187 223.93296
 226.00105 228.09314 230.19824 232.31233 234.44942 236.62951 238.89360 241.27169
 243.90078 246.15987 248.16996 249.94305 251.36814 252.49923 253.32932 253.65341
 253.69850 253.48059 252.84868 251.80477 250.41886 248.58795 246.50504 244.34613
 242.14522 239.95731 237.78540 235.63249 233.50058 231.37567 229.40976 227.57485
 225.86594 224.34603 222.98412 221.76421 220.65430 219.62239 218.73448 217.88357
 217.13367 216.32176 215.42785 214.79994 214.25803 214.36038 214.58669 214.40808
 213.55756 213.11015 213.67618 215.28281 218.02869 221.86362 226.63484 230.71234
 234.16273 237.91490 241.97220 246.11577 250.14246 254.01280 257.68451 261.05164
 264.00089 266.49130 268.66052 270.75543 272.68680 274.35767 275.92786 277.35812
 278.91599 280.35025 281.49997 282.44690 283.47488 284.53595 285.65192 286.66293
 287.57220 288.38190 289.08926 289.99069
 366.78100 356.34118 345.77936 334.65155 323.06073 311.26091 299.13709 286.94627
 274.66446 262.56764 250.58282 239.89000 230.01818 221.12837 213.31655 206.32473
 200.16491 195.10909 191.69728 189.74546 188.78864 188.85882 189.70000 191.01419
 192.74537 194.84655 197.11573 199.48091 201.93210 204.41828 206.51246 208.36064
 209.99282 211.14401 211.37919 211.61337 211.55655 211.26773 210.90692 210.54310
 210.16628 209.88246 209.69664 209.56683 209.50101 209.83819 210.23037 210.62555
 211.42474 212.60892 213.86510 215.65428 217.58846 219.63765 221.73883 223.82801
 225.89419 227.98437 230.08756 232.19974 234.33492 236.51310 238.77528 241.15147
 243.77865 246.03583 248.04401 249.81519 251.23838 252.36756 253.19574 253.51792
 253.56110 253.34129 252.70747 251.66165 250.27383 248.44101 246.35620 244.19538
 241.99256 239.80274 237.62892 235.47411 233.34029 231.21347 229.24565 227.40883
 225.69802 224.17620 222.81238 221.59056 220.47874 219.44493 218.55511 217.70229
 216.95047 216.13665 215.24084 214.61102 214.06720 214.28250 214.74420 214.41446
 213.50639 212.89639 213.60710 215.42236 218.20065 222.00470 226.77773 230.86095
 234.20244 237.94789 241.98711 246.12474 250.14417 254.00211 257.67322 261.05240
 264.01956 266.48346 268.62973 270.71484 272.55643 274.20822 275.73425 277.17905
 278.57779 279.93588 281.10715 282.13629 283.27463 284.41574 285.45682 286.39999
 287.24826 288.00363 288.66351 289.50449
 366.78100 356.34167 345.78035 334.65302 323.06269 311.26337 299.14004 286.94971
 274.66839 262.57206 250.58773 239.89541 230.02408 221.13475 213.32343 206.33210
 200.17277 195.11745 191.70612 189.75479 188.79847 188.86914 189.71081 191.02549
 192.75716 194.85883 197.12851 199.49418 201.94585 204.43253 206.52720 208.37587
 210.00855 211.16022 211.39589 211.63057 211.57424 211.28591 210.92559 210.56226
 210.18593 209.90261 209.71728 209.58795 209.52263 209.86030 210.25297 210.64865
 211.44832 212.63299 213.88967 215.67934 217.61401 219.66369 221.76536 223.85503
 225.92171 228.01238 230.11605 232.22873 234.36440 236.54307 238.80575 241.18242
 243.81009 246.06777 248.07644 249.84811 251.27179 252.40146 253.23013 253.55281
 253.59648 253.37715 252.74383 251.69850 250.31117 248.47885 246.39452 244.23419
 242.03187 239.84254 237.66921 235.51489 233.38156 231.25523 229.28791 227.45158
 225.74125 224.21993 222.85660 221.63527 220.52395 219.49062 218.60129 217.74897
 216.99764 216.18431 215.28899 214.65966 214.11633 214.33942 214.78282 214.45332
 213.48689 212.71725 213.43576 215.44090 218.30817 222.13290 226.98331 231.00816
 234.34042 238.09383 242.13995 246.26460 250.27089 254.11090 257.75137 261.09753
 264.04199 266.54095 268.74274 270.81485 272.64426 274.18262 275.71149 277.23340
 278.56006 279.86334 281.40848 282.82675 284.05414 285.14005 286.13080 287.02832
 287.83557 288.55441 289.18237 289.98267
 366.78100 356.34434 345.78568 334.66103 323.07337 311.27671 299.15605 286.96840
 274.68974 262.59608 250.61442 239.92477 230.05611 221.16945 213.36079 206.37214
 200.21548 195.16282 191.75416 189.80551 188.85185 188.92519 189.76953 191.08688
 192.82122 194.92556 197.19790 199.56624 202.02059 204.50993 206.60727 208.45861
 210.09396 211.24830 211.48664 211.72398 211.67033 211.38467 211.02701 210.66635
 210.29270 210.01204 209.82938 209.70272 209.64007 209.98041 210.37575 210.77409
 211.57644 212.76378 214.02312 215.81546 217.75280 219.80515 221.90949 224.00183
 226.07117 228.16452 230.27086 232.38620 234.52454 236.70589 238.97123 241.35057
 243.98091 246.24126 248.25260 250.02694 251.45328 252.58563 253.41697 253.74231
 253.78865 253.57200 252.94134 251.89868 250.51402 248.68436 246.60271 244.44505
 242.24539 240.05873 237.88808 235.73642 233.60576 231.48210 229.51745 227.68379
 225.97613 224.45747 223.09682 221.87816 220.76950 219.73884 218.85219 218.00253
 217.25387 216.44321 215.55055 214.92390 214.38324 214.48476 214.70190 214.56439
 213.62115 212.61861 213.10196 215.13602 218.07153 222.03314 226.98550 231.02277
 234.38356 238.18152 242.27362 246.43887 250.46477 254.30890 257.94446 261.32263
 264.32922 266.90323 269.10889 271.22565 273.15970 274.56018 275.74146 277.32639
 278.73795 280.42679 282.08133 283.53412 284.79141 285.90378 286.91867 287.83807
 288.66498 289.40134 290.04459 290.86438
 366.78100 356.34439 345.78579 334.66118 323.07358 311.27697 299.15637 286.96876
 274.69015 262.59655 250.61494 239.92534 230.05673 221.17013 213.36152 206.37291
 200.21631 195.16370 191.75510 189.80649 188.85289 188.92628 189.77067 191.08807
 192.82246 194.92686 197.19925 199.56765 202.02204 204.51143 206.60883 208.46022
 210.09562 211.25001 211.48841 211.72580 211.67219 211.38659 211.02898 210.66838
 210.29477 210.01417 209.83156 209.70495 209.64235 209.98274 210.37814 210.77653
 211.57893 212.76632 214.02571 215.81811 217.75550 219.80790 221.91229 224.00469
 226.07408 228.16747 230.27387 232.38926 234.52766 236.70905 238.97445 241.35384
 243.98423 246.24463 248.25602 250.03042 251.45681 252.58921 253.42060 253.74599
 253.79239 253.57578 252.94518 251.90257 250.51797 248.68836 246.60675 244.44915
 242.24954 240.06294 237.89233 235.74073 233.61012 231.48651 229.52191 227.68830
 225.98070 224.46209 223.10148 221.88288 220.77427 219.74367 218.85706 218.00746
 217.25885 216.44824 215.55564 214.92903 214.38843 214.48529 214.69919 214.62526
 213.87991 212.84470 212.99406 214.82387 217.77951 221.78389 226.64674 230.83121
 234.24057 238.09534 242.23540 246.43956 250.45963 254.27167 257.87082 261.19763
 264.18414 266.78763 269.07275 271.23038 273.20975 274.69809 275.84225 277.41373
 279.10034 280.61682 282.09100 283.52893 284.86154 286.04053 287.11621 288.09070
 288.96713 289.74759 290.42941 291.29828
 366.78100 356.34411 345.78522 334.66033 323.07244 311.27555 299.15466 286.96677
 274.68788 262.59399 250.61210 239.92221 230.05332 221.16643 213.35754 206.36865
 200.21176 195.15887 191.74998 189.80109 188.84720 188.92031 189.76442 191.08153
 192.81564 194.91975 197.19186 199.55997 202.01408 204.50319 206.60030 208.45141
 210.08653 211.24064 211.47875 211.71586 211.66197 211.37608 211.01819 210.65730
 210.28341 210.00252 209.81963 209.69274 209.62985 209.96996 210.36507 210.76318
 211.56529 212.75240 214.01151 215.80362 217.74073 219.79284 221.89695 223.98906
 226.05817 228.15128 230.25739 232.37250 234.51061 236.69172 238.95683 241.33594
 243.96605 246.22616 248.23727 250.01138 251.43749 252.56960 253.40071 253.72582
 253.77193 253.55504 252.92415 251.88126 250.49637 248.66648 246.58459 244.42670
 242.22681 240.03992 237.86903 235.71714 233.58625 231.46236 229.49747 227.66358
 225.95569 224.43680 223.07591 221.85702 220.74813 219.71724 218.83035 217.98047
 217.23158 216.42069 215.52780 214.90091 214.36002 214.47401 214.72534 214.62933
 213.95399 213.03160 213.17789 214.80804 217.59906 221.54297 226.41026 230.59839
 234.05342 237.95287 242.13765 246.36658 250.40436 254.21788 257.79730 261.08859
 264.00223 266.49637 268.72891 270.88611 272.82986 274.34479 275.69598 277.20261
 278.90799 280.41885 281.92813 283.25232 284.45752 285.57617 286.59677 287.52136
 288.35294 289.09344 289.74036 290.56476
 366.78100 356.34529 345.78759 334.66388 323.07718 311.28147 299.16176 286.97506
 274.69735 262.60464 250.62394 239.93523 230.06753 221.18182 213.37411 206.38641
 200.23070 195.17899 191.77129 189.82358 188.87088 188.94517 189.79046 191.10876
 192.84405 194.94934 197.22264 199.59193 202.04723 204.53752 206.63581 208.48811
 210.12440 211.27969 211.51899 211.75728 211.70458 211.41987 211.06316 210.70346
 210.33075 210.05105 209.86934 209.74363 209.68193 210.02322 210.41951 210.81881
 211.62210 212.81040 214.07069 215.86398 217.80228 219.85557 221.96086 224.05416
 226.12445 228.21875 230.32604 232.44233 234.58163 236.76392 239.03021 241.41051
 244.04180 246.30310 248.31539 250.09068 251.51798 252.65127 253.48356 253.80986
 253.85715 253.64145 253.01174 251.97003 250.58633 248.75762 246.67692 244.52021
 242.32150 240.13580 237.96609 235.81538 233.68568 231.56297 229.59927 227.76656
 226.05985 224.54215 223.18244 221.96473 220.85703 219.82732 218.94162 218.09291
 217.34520 216.53550 215.64379 215.01808 214.47838 214.55246 214.71230 214.61586
 213.95834 212.97250 213.33139 215.10808 217.73709 221.53271 226.32971 230.48897
 233.92834 237.85333 242.08430 246.36223 250.43408 254.27402 257.86774 261.15610
 264.03839 266.48584 268.65811 270.75095 272.62241 274.03677 275.64868 277.15546
 278.62134 280.32645 281.89423 283.27536 284.54526 285.66879 286.69385 287.62250
 288.45767 289.20145 289.85117 290.67917
 366.78100 356.34652 345.79005 334.66757 323.08210 311.28762 299.16914 286.98367
 274.70719 262.61572 250.63624 239.94876 230.08229 221.19781 213.39134 206.40486
 200.25038 195.19991 191.79343 189.84695 188.89548 188.97100 189.81753 191.13705
 192.87357 194.98010 197.25462 199.62515 202.08167 204.57319 206.67272 208.52624
 210.16377 211.32029 211.56081 211.80034 211.74886 211.46539 211.10991 210.75143
 210.37996 210.10148 209.92101 209.79653 209.73605 210.07858 210.47610 210.87663
 211.68115 212.87067 214.13220 215.92672 217.86625 219.92077 222.02729 224.12182
 226.19334 228.28886 230.39739 232.51491 234.65544 236.83896 239.10648 241.48801
 244.12053 246.38306 248.39658 250.17310 251.60163 252.73615 253.56968 253.89720
 253.94572 253.73125 253.10277 252.06230 250.67982 248.85234 246.77287 244.61739
 242.41992 240.23544 238.06696 235.91749 233.78901 231.66754 229.70506 227.87358
 226.16811 224.65163 223.29316 222.07668 220.97020 219.94173 219.05725 218.20977
 217.46330 216.65482 215.76435 215.13987 214.60139 214.63594 214.70779 214.62392
 214.00334 212.98624 213.28262 215.06621 217.73772 221.56990 226.36227 230.45508
 233.87001 237.80147 242.06708 246.37502 250.47243 254.33543 257.95761 261.27820
 264.18784 266.65152 268.79614 270.82224 272.53983 273.92682 275.56137 277.15283
 278.68146 280.40747 281.97375 283.35849 284.55685 285.61710 286.58441 287.46072
 288.24887 288.95071 289.56384 290.34518
 366.78100 356.34691 345.79083 334.66874 323.08365 311.28957 299.17148 286.98639
 274.71031 262.61922 250.64013 239.95305 230.08696 221.20287 213.39679 206.41070
 200.25661 195.20653 191.80044 189.85435 188.90327 188.97918 189.82609 191.14601
 192.88292 194.98983 197.26475 199.63566 202.09257 204.58449 206.68440 208.53831
 210.17623 211.33314 211.57405 211.81397 211.76288 211.47979 211.12471 210.76662
 210.39553 210.11745 209.93736 209.81327 209.75319 210.09610 210.49401 210.89493
 211.69984 212.88975 214.15167 215.94658 217.88649 219.94141 222.04832 224.14323
 226.21515 228.31106 230.41997 232.53789 234.67880 236.86271 239.13063 241.51254
 244.14545 246.40837 248.42228 250.19919 251.62811 252.76302 253.59693 253.92485
 253.97376 253.75967 253.13159 252.09150 250.70941 248.88233 246.80324 244.64815
 242.45107 240.26698 238.09889 235.94981 233.82172 231.70063 229.73855 227.90746
 226.20237 224.68629 223.32820 222.11211 221.00603 219.97794 219.09385 218.24677
 217.50068 216.69260 215.80251 215.17842 214.64034 214.67108 214.73230 214.64978
 214.09991 213.06694 213.08562 214.80046 217.64488 221.57964 226.42551 230.47624
 233.86952 237.79648 242.06458 246.37659 250.47339 254.32741 257.95416 261.31131
 264.28418 266.80240 268.94394 270.92859 272.59103 273.89963 275.51520 277.17279
 278.77335 280.53027 282.15140 283.64890 284.94485 286.09146 287.13754 288.08524
 288.93759 289.69659 290.35965 291.20465
 366.78100 356.34704 345.79108 334.66912 323.08416 311.29020 299.17223 286.98727
 274.71131 262.62035 250.64139 239.95443 230.08847 221.20451 213.39855 206.41259
 200.25863 195.20866 191.80270 189.85674 188.90578 188.98182 189.82886 191.14890
 192.88594 194.99298 197.26802 199.63906 202.09609 204.58813 206.68817 208.54221
 210.18025 211.33729 211.57833 211.81837 211.76741 211.48445 211.12949 210.77152
 210.40056 210.12260 209.94264 209.81868 209.75872 210.10176 210.49980 210.90084
 211.70588 212.89592 214.15795 215.95299 217.89303 219.94807 222.05511 224.15015
 226.22219 228.31823 230.42727 232.54531 234.68634 236.87038 239.13842 241.52046
 244.15350 246.41654 248.43058 250.20762 251.63666 252.77170 253.60574 253.93377
 253.98281 253.76885 253.14089 252.10093 250.71897 248.89201 246.81305 244.65809
 242.46113 240.27717 238.10920 235.96024 233.83228 231.71132 229.74936 227.91840
 226.21344 224.69748 223.33952 222.12356 221.01760 219.98963 219.10567 218.25871
 217.51275 216.70479 215.81483 215.19087 214.65291 214.68874 214.75941 214.67928
 214.19827 213.18887 212.93253 214.48808 217.48795 221.54062 226.44389 230.49272
 233.87273 237.79977 242.07474 246.38976 250.47194 254.29651 257.90729 261.28363
 264.31659 266.90652 269.07709 271.04266 272.67087 273.93494 275.59476 277.10471
 278.90472 280.66449 282.29816 283.78961 285.08032 286.22229 287.26416 288.20804
 289.05692 289.81287 290.47327 291.31485
 366.78100 356.34759 345.79218 334.67077 323.08636 311.29295 299.17554 286.99113
 274.71572 262.62531 250.64689 239.96048 230.09507 221.21166 213.40625 206.42084
 200.26743 195.21802 191.81261 189.86720 188.91679 188.99338 189.84097 191.16156
 192.89915 195.00674 197.28233 199.65392 202.11151 204.60409 206.70468 208.55927
 210.19786 211.35545 211.59704 211.83763 211.78722 211.50481 211.15040 210.79299
 210.42258 210.14517 209.96576 209.84235 209.78294 210.12653 210.52512 210.92670
 211.73229 212.92288 214.18547 215.98106 217.92165 219.97724 222.08483 224.18042
 226.25301 228.34960 230.45919 232.57778 234.71937 236.90396 239.17255 241.55514
 244.18873 246.45232 248.46690 250.24449 251.67408 252.80967 253.64426 253.97285
 254.02244 253.80903 253.18162 252.14221 250.76080 248.93439 246.85598 244.70157
 242.50516 240.32175 238.15434 236.00593 233.87852 231.75810 229.79669 227.96628
 226.26187 224.74646 223.38905 222.17364 221.06823 220.04082 219.15741 218.31100
 217.56559 216.75818 215.86877 215.24536 214.70795 214.72549 214.75757 214.69939
 214.30963 213.33823 212.90602 214.24841 217.30446 221.44681 226.35959 230.43652
 233.82089 237.76808 242.06541 246.39308 250.46306 254.25597 257.83524 261.21664
 264.30139 266.98215 269.22910 271.22382 272.87607 274.15497 275.53003 277.19849
 279.05893 280.84854 282.55502 284.15906 285.54724 286.77539 287.89594 288.91104
 289.82401 290.63702 291.34726 292.25238
 366.78100 356.34806 345.79313 334.67219 323.08825 311.29532 299.17838 286.99445
 274.71951 262.62957 250.65164 239.96570 230.10076 221.21783 213.41289 206.42796
 200.27502 195.22608 191.82115 189.87621 188.92627 189.00334 189.85140 191.17247
 192.91053 195.01859 197.29466 199.66672 202.12478 204.61785 206.71891 208.57398
 210.21304 211.37110 211.61317 211.85423 211.80429 211.52236 211.16842 210.81148
 210.44155 210.16461 209.98568 209.86274 209.80380 210.14787 210.54693 210.94899
 211.75506 212.94612 214.20919 216.00525 217.94631 220.00238 222.11044 224.20650
 226.27957 228.37663 230.48670 232.60576 234.74782 236.93289 239.20195 241.58501
 244.21908 246.48314 248.49820 250.27627 251.70633 252.84240 253.67746 254.00652
 254.05659 253.84365 253.21671 252.17778 250.79684 248.97091 246.89297 244.73903
 242.54310 240.36016 238.19322 236.04529 233.91835 231.79842 229.83748 228.00754
 226.30361 224.78867 223.43173 222.21680 221.11186 220.08493 219.20199 218.35605
 217.61112 216.80418 215.91524 215.29231 214.75537 214.75653 214.75092 214.69127
 214.40059 213.48184 213.00871 214.18803 217.20294 221.36362 226.24457 230.35651
 233.73882 237.70779 242.02681 246.35712 250.40138 254.14970 257.68222 261.04083
 264.14304 266.87384 269.19861 271.22446 272.91306 274.27353 275.65308 277.34424
 279.20572 280.98447 282.60004 284.24023 285.66327 286.92227 288.07092 289.11154
 290.04745 290.88089 291.60895 292.53680
 366.78100 356.34869 345.79437 334.67406 323.09074 311.29843 299.18211 286.99880
 274.72448 262.63517 250.65785 239.97254 230.10822 221.22591 213.42159 206.43728
 200.28496 195.23665 191.83233 189.88802 188.93870 189.01639 189.86507 191.18676
 192.92544 195.03413 197.31081 199.68350 202.14218 204.63587 206.73755 208.59324
 210.23292 211.39161 211.63429 211.87598 211.82666 211.54535 211.19203 210.83572
 210.46640 210.19009 210.01177 209.88946 209.83114 210.17583 210.57551 210.97820
 211.78488 212.97657 214.24025 216.03694 217.97862 220.03531 222.14399 224.24068
 226.31436 228.41205 230.52273 232.64242 234.78510 236.97079 239.24047 241.62416
 244.25884 246.52353 248.53921 250.31790 251.74858 252.88527 253.72095 254.05064
 254.10132 253.88901 253.26269 252.22438 250.84406 249.01875 246.94143 244.78812
 242.59280 240.41049 238.24417 236.09686 233.97054 231.85123 229.89091 228.06160
 226.35828 224.84397 223.48765 222.27334 221.16902 220.14271 219.26039 218.41508
 217.67076 216.86445 215.97613 215.35382 214.81750 214.79874 214.75053 214.70572
 214.46031 213.54755 213.06009 214.19556 217.17386 221.32037 226.19138 230.30469
 233.69324 237.67738 242.01218 246.34700 250.38295 254.09505 257.57770 260.89923
 264.00092 266.75217 269.09433 271.10449 272.76712 274.14462 275.64368 277.38193
 279.28049 281.06360 282.68231 284.25842 285.62241 286.82919 287.93018 288.92761
 289.82471 290.62357 291.32141 292.21075
 366.78100 356.35014 345.79728 334.67842 323.09656 311.30570 299.19084 287.00898
 274.73612 262.64826 250.67240 239.98854 230.12568 221.24482 213.44196 206.45910
 200.30824 195.26138 191.85853 189.91567 188.96781 189.04695 189.89709 191.22023
 192.96037 195.07051 197.34865 199.72279 202.18293 204.67807 206.78121 208.63835
 210.27949 211.43963 211.68377 211.92691 211.87905 211.59919 211.24733 210.89247
 210.52461 210.24975 210.07289 209.95203 209.89517 210.24131 210.64245 211.04659
 211.85473 213.04787 214.31301 216.11115 218.05429 220.11243 222.22258 224.32072
 226.39586 228.49500 230.60714 232.72828 234.87242 237.05956 239.33070 241.71584
 244.35198 246.61812 248.63526 250.41540 251.84754 252.98568 253.82282 254.15396
 254.20610 253.99524 253.37038 252.33352 250.95466 249.13080 247.05494 244.90308
 242.70922 240.52836 238.36350 236.21764 234.09278 231.97492 230.01606 228.18820
 226.48634 224.97348 223.61863 222.40577 221.30291 220.27805 219.39719 218.55333
 217.81047 217.00561 216.11875 215.49789 214.96303 214.88696 214.72079 214.72813
 214.53253 213.56313 212.99490 214.15413 217.14951 221.28856 226.17729 230.27510
 233.67970 237.67845 242.02406 246.36923 250.42491 254.13951 257.60477 260.89789
 264.00241 266.79135 269.15674 271.17694 272.82150 274.22516 275.74780 277.50113
 279.41669 281.22433 282.94940 284.53787 285.91254 287.12878 288.23843 289.24368
 290.14780 290.95291 291.65625 292.55258
 366.78100 356.35001 345.79703 334.67804 323.09605 311.30506 299.19008 287.00809
 274.73510 262.64711 250.67113 239.98714 230.12415 221.24316 213.44018 206.45719
 200.30620 195.25921 191.85623 189.91324 188.96525 189.04426 189.89428 191.21729
 192.95730 195.06731 197.34533 199.71934 202.17935 204.67436 206.77738 208.63439
 210.27540 211.43541 211.67943 211.92244 211.87445 211.59446 211.24248 210.88749
 210.51950 210.24452 210.06753 209.94654 209.88955 210.23557 210.63658 211.04059
 211.84860 213.04162 214.30663 216.10464 218.04765 220.10567 222.21568 224.31369
 226.38870 228.48772 230.59973 232.72074 234.86475 237.05177 239.32278 241.70779
 244.34380 246.60982 248.62683 250.40684 251.83885 252.97687 253.81388 254.14489
 254.19690 253.98592 253.36093 252.32394 250.94495 249.12097 247.04498 244.89299
 242.69901 240.51802 238.35303 236.20704 234.08206 231.96407 230.00508 228.17709
 226.47511 224.96212 223.60713 222.39414 221.29116 220.26617 219.38518 218.54119
 217.79821 216.99322 216.10623 215.48524 214.95026 214.89270 214.74704 214.67943
 214.63239 213.63058 212.97433 214.11813 217.11391 221.23804 226.07431 230.19435
 233.60049 237.63049 242.00589 246.36897 250.43672 254.14967 257.60315 260.89090
 264.00806 266.84616 269.29657 271.35092 273.02341 274.43240 275.96762 277.65097
 279.48178 281.25836 282.90408 284.46613 285.81796 287.01398 288.10516 289.09372
 289.98279 290.77451 291.46616 292.34756
 366.78100 356.34793 345.79286 334.67179 323.08772 311.29464 299.17757 286.99350
 274.71843 262.62836 250.65029 239.96422 230.09915 221.21608 213.41101 206.42593
 200.27286 195.22379 191.81872 189.87365 188.92358 189.00051 189.84844 191.16937
 192.90730 195.01522 197.29115 199.66308 202.12101 204.61394 206.71487 208.56980
 210.20873 211.36666 211.60859 211.84951 211.79944 211.51737 211.16330 210.80623
 210.43616 210.15909 209.98002 209.85695 209.79787 210.14180 210.54073 210.94266
 211.74859 212.93952 214.20245 215.99838 217.93931 219.99524 222.10316 224.19909
 226.27202 228.36895 230.47888 232.59781 234.73974 236.92467 239.19360 241.57653
 244.21045 246.47438 248.48931 250.26724 251.69717 252.83310 253.66803 253.99696
 254.04689 253.83382 253.20674 252.16767 250.78660 248.96053 246.88246 244.72839
 242.53232 240.34925 238.18218 236.03410 233.90703 231.78696 229.82589 227.99582
 226.29175 224.77668 223.41961 222.20454 221.09947 220.07239 219.18932 218.34325
 217.59818 216.79111 215.90204 215.27897 214.74190 214.79419 214.86559 214.58432
 214.70464 213.75258 213.03574 214.06294 217.03801 221.14594 225.92851 230.05209
 233.49715 237.54770 241.93175 246.30675 250.37164 254.06754 257.50574 260.79291
 263.91272 266.78519 269.29562 271.41525 273.15128 274.62195 276.14923 277.81842
 279.52454 281.23404 282.80899 284.29483 285.70996 286.96201 288.10428 289.13910
 290.06982 290.89865 291.62268 292.54535
 366.78100 356.34649 345.78998 334.66747 323.08195 311.28744 299.16893 286.98342
 274.70691 262.61540 250.63589 239.94837 230.08186 221.19735 213.39084 206.40433
 200.24982 195.19931 191.79279 189.84628 188.89477 188.97026 189.81675 191.13624
 192.87273 194.97921 197.25370 199.62419 202.08068 204.57217 206.67166 208.52514
 210.16263 211.31912 211.55961 211.79910 211.74759 211.46408 211.10856 210.75005
 210.37854 210.10003 209.91952 209.79501 209.73450 210.07698 210.47447 210.87496
 211.67945 212.86894 214.13043 215.92492 217.86440 219.91889 222.02538 224.11987
 226.19136 228.28685 230.39534 232.51282 234.65331 236.83680 239.10429 241.48578
 244.11827 246.38076 248.39424 250.17073 251.59922 252.73371 253.56720 253.89469
 253.94318 253.72866 253.10015 252.05964 250.67713 248.84962 246.77011 244.61460
 242.41708 240.23257 238.06406 235.91455 233.78604 231.66453 229.70201 227.87050
 226.16499 224.64848 223.28997 222.07346 220.96695 219.93843 219.05392 218.20641
 217.45990 216.65139 215.76088 215.13637 214.59785 214.72055 214.96043 214.53380
 214.68774 213.79747 213.06955 213.98122 216.95482 221.05069 225.85207 229.95296
 233.45619 237.50348 241.88541 246.24557 250.30499 254.00958 257.44400 260.70847
 263.79926 266.66293 269.17447 271.31293 273.11569 274.69757 276.27283 277.95462
 279.58582 281.13269 282.58331 283.95749 285.18814 286.34073 287.40854 288.37589
 289.24591 290.02069 290.69751 291.56003
 366.78100 356.34741 345.79182 334.67023 323.08564 311.29206 299.17447 286.98988
 274.71429 262.62370 250.64511 239.95852 230.09293 221.20935 213.40376 206.41817
 200.26458 195.21499 191.80940 189.86381 188.91322 188.98964 189.83705 191.15746
 192.89487 195.00228 197.27769 199.64910 202.10651 204.59893 206.69934 208.55375
 210.19216 211.34957 211.59098 211.83139 211.78080 211.49822 211.14363 210.78604
 210.41545 210.13786 209.95827 209.83468 209.77509 210.11851 210.51692 210.91833
 211.72374 212.91415 214.17656 215.97197 217.91238 219.96780 222.07521 224.17062
 226.24303 228.33944 230.44885 232.56726 234.70867 236.89309 239.16150 241.54391
 244.17732 246.44073 248.45514 250.23255 251.66196 252.79738 253.63179 253.96020
 254.00961 253.79602 253.16843 252.12884 250.74725 248.92067 246.84208 244.68749
 242.49090 240.30731 238.13972 235.99113 233.86354 231.74296 229.78137 227.95078
 226.24619 224.73060 223.37301 222.15742 221.05183 220.02425 219.14066 218.29407
 217.54848 216.74089 215.85130 215.22771 214.69012 214.76782 214.92345 214.61961
 214.70428 213.69684 213.00755 213.92882 216.89658 221.03047 225.88078 229.93303
 233.44038 237.49255 241.89362 246.28955 250.36926 254.06039 257.46939 260.68564
 263.71524 266.53937 269.05002 271.18457 273.00763 274.63275 276.26114 277.94128
 279.53882 280.90152 282.18036 283.51663 284.72632 285.80652 286.82971 287.75668
 288.59039 289.33279 289.98135 290.80786
 366.78100 356.34947 345.79594 334.67641 323.09388 311.30235 299.18682 287.00429
 274.73076 262.64223 250.66570 239.98117 230.11764 221.23611 213.43258 206.44905
 200.29752 195.24999 191.84646 189.90293 188.95440 189.03287 189.88234 191.20481
 192.94428 195.05375 197.33122 199.70469 202.16416 204.65863 206.76110 208.61757
 210.25804 211.41751 211.66098 211.90345 211.85492 211.57439 211.22186 210.86633
 210.49780 210.22227 210.04474 209.92321 209.86568 210.21116 210.61163 211.01510
 211.82257 213.01504 214.27951 216.07698 218.01945 220.07692 222.18639 224.28386
 226.35833 228.45680 230.56827 232.68874 234.83221 237.01868 239.28915 241.67362
 244.30909 246.57456 248.59103 250.37050 251.80197 252.93944 253.77591 254.10638
 254.15785 253.94632 253.32079 252.28326 250.90373 249.07920 247.00267 244.85014
 242.65561 240.47408 238.30855 236.16202 234.03649 231.91796 229.95843 228.12990
 226.42737 224.91384 223.55831 222.34478 221.24125 220.21572 219.33419 218.48966
 217.74613 216.94060 216.05307 215.43154 214.89601 214.89035 214.85460 214.70604
 214.73399 213.70970 213.07259 214.07439 216.95439 220.99797 225.81223 229.90732
 233.40370 237.49187 241.92245 246.35101 250.47330 254.19272 257.61273 260.80963
 263.79272 266.54236 268.99057 271.09998 272.90604 274.57278 276.26013 277.92917
 279.42874 280.69028 281.91870 283.26923 284.54703 285.67755 286.70901 287.64340
 288.48383 289.23221 289.88596 290.71912
 366.78100 356.34869 345.79438 334.67407 323.09076 311.29845 299.18214 286.99883
 274.72451 262.63520 250.65789 239.97258 230.10827 221.22596 213.42165 206.43734
 200.28503 195.23672 191.83241 189.88810 188.93879 189.01648 189.86517 191.18685
 192.92554 195.03423 197.31092 199.68361 202.14230 204.63599 206.73768 208.59337
 210.23306 211.39175 211.63444 211.87613 211.82682 211.54550 211.19219 210.83588
 210.46657 210.19026 210.01195 209.88964 209.83133 210.17602 210.57571 210.97840
 211.78509 212.97678 214.24047 216.03716 217.97884 220.03553 222.14422 224.24091
 226.31460 228.41229 230.52298 232.64267 234.78536 236.97105 239.24074 241.62443
 244.25912 246.52381 248.53950 250.31818 251.74887 252.88556 253.72125 254.05094
 254.10163 253.88932 253.26301 252.22470 250.84439 249.01908 246.94177 244.78846
 242.59315 240.41084 238.24452 236.09721 233.97090 231.85159 229.89128 228.06197
 226.35866 224.84435 223.48804 222.27373 221.16942 220.14311 219.26080 218.41549
 217.67117 216.86486 215.97655 215.35424 214.81793 214.86371 214.92838 214.66766
 214.59328 213.93330 213.19284 214.01660 216.84422 220.90254 225.69473 229.77866
 233.29977 237.43253 241.93106 246.42424 250.57274 254.31810 257.76315 260.98193
 263.98706 266.75723 269.22781 271.34525 273.11899 274.76404 276.41843 278.02234
 279.37271 280.39807 281.75699 283.20654 284.52524 285.69199 286.75644 287.72076
 288.58807 289.36044 290.03513 290.89496
 366.78100 356.34769 345.79237 334.67106 323.08675 311.29343 299.17612 286.99180
 274.71649 262.62618 250.64786 239.96155 230.09624 221.21292 213.40761 206.42230
 200.26898 195.21967 191.81435 189.86904 188.91873 188.99541 189.84310 191.16379
 192.90147 195.00916 197.28485 199.65653 202.11422 204.60690 206.70759 208.56228
 210.20096 211.35865 211.60034 211.84102 211.79071 211.50840 211.15408 210.79677
 210.42645 210.14914 209.96983 209.84651 209.78720 210.13089 210.52957 210.93126
 211.73695 212.92763 214.19032 215.98600 217.92669 219.98238 222.09006 224.18575
 226.25844 228.35512 230.46481 232.58350 234.72518 236.90987 239.17855 241.56124
 244.19493 246.45861 248.47330 250.25099 251.68067 252.81636 253.65105 253.97973
 254.02942 253.81610 253.18879 252.14948 250.76816 248.94185 246.86354 244.70922
 242.51291 240.32960 238.16228 236.01397 233.88665 231.76634 229.80503 227.97471
 226.27040 224.75509 223.39777 222.18246 221.07715 220.04983 219.16652 218.32020
 217.57489 216.76758 215.87826 215.25495 214.71764 214.79292 214.96005 214.84258
 214.35014 213.80048 213.23984 213.95735 216.70110 220.76552 225.61435 229.66293
 233.22414 237.35132 241.81183 246.24811 250.38031 254.15138 257.63507 260.89661
 263.95700 266.79132 269.33594 271.53250 273.40286 275.07025 276.65799 278.15781
 279.47906 280.58850 281.55850 282.56018 283.65231 284.70294 285.77005 286.73679
 287.60623 288.38049 289.05688 289.91885
 366.78100 356.34848 345.79397 334.67345 323.08994 311.29742 299.18090 286.99739
 274.72287 262.63336 250.65584 239.97032 230.10581 221.22329 213.41878 206.43426
 200.28174 195.23323 191.82871 189.88419 188.93468 189.01216 189.86065 191.18213
 192.92061 195.02910 197.30558 199.67807 202.13655 204.63003 206.73152 208.58700
 210.22649 211.38497 211.62745 211.86894 211.81942 211.53791 211.18439 210.82787
 210.45836 210.18184 210.00333 209.88081 209.82229 210.16678 210.56626 210.96875
 211.77523 212.96671 214.23020 216.02668 217.96816 220.02465 222.13313 224.22962
 226.30310 228.40058 230.51107 232.63055 234.77304 236.95852 239.22800 241.61149
 244.24597 246.51046 248.52594 250.30442 251.73491 252.87139 253.70688 254.03636
 254.08684 253.87433 253.24781 252.20930 250.82878 249.00326 246.92575 244.77223
 242.57672 240.39420 238.22768 236.08017 233.95365 231.83413 229.87362 228.04410
 226.34059 224.82607 223.46955 222.25504 221.15052 220.12401 219.24149 218.39597
 217.65146 216.84494 215.95643 215.33391 214.79739 214.82025 214.87552 214.99582
 214.63860 213.82172 213.17363 213.74110 216.58485 220.72614 225.66966 229.54668
 233.16299 237.27875 241.75748 246.15387 250.25003 253.98126 257.44025 260.70081
 263.77744 266.64343 269.22971 271.48456 273.42426 275.13348 276.70609 278.16263
 279.42355 280.51431 281.49155 282.46619 283.44266 284.17099 284.96344 285.82697
 286.65906 287.40002 288.04733 288.87225
 366.78100 356.34741 345.79183 334.67024 323.08566 311.29207 299.17449 286.98990
 274.71432 262.62373 250.64515 239.95856 230.09298 221.20939 213.40381 206.41822
 200.26464 195.21505 191.80947 189.86388 188.91330 188.98971 189.83713 191.15754
 192.89496 195.00237 197.27779 199.64920 202.10662 204.59903 206.69945 208.55386
 210.19228 211.34969 211.59111 211.83152 211.78094 211.49835 211.14377 210.78618
 210.41560 210.13801 209.95843 209.83484 209.77526 210.11867 210.51709 210.91850
 211.72392 212.91433 214.17675 215.97216 217.91258 219.96799 222.07540 224.17082
 226.24323 228.33965 230.44906 232.56748 234.70889 236.89331 239.16172 241.54414
 244.17755 246.44097 248.45538 250.23280 251.66221 252.79763 253.63204 253.96046
 254.00987 253.79629 253.16870 252.12912 250.74753 248.92095 246.84236 244.68778
 242.49119 240.30761 238.14002 235.99144 233.86385 231.74327 229.78168 227.95110
 226.24651 224.73093 223.37334 222.15776 221.05217 220.02459 219.14100 218.29442
 217.54883 216.74125 215.85166 215.22808 214.69049 214.77698 214.97589 214.83174
 214.78555 213.80527 213.04808 213.60399 216.56090 220.75615 225.71442 229.64838
 233.17767 237.30989 241.80299 246.21710 250.30780 254.02010 257.44434 260.67209
 263.72672 266.58914 269.19592 271.49170 273.48126 275.22968 276.80878 278.21887
 279.38419 280.36520 281.27274 282.21103 283.19931 284.08624 284.92944 285.75818
 286.51947 287.19742 287.78964 288.54437
 366.78100 356.34565 345.78829 334.66494 323.07859 311.28323 299.16388 286.97753
 274.70017 262.60782 250.62747 239.93911 230.07176 221.18641 213.37905 206.39170
 200.23635 195.18499 191.77764 189.83028 188.87793 188.95258 189.79822 191.11687
 192.85252 194.95816 197.23181 199.60146 202.05710 204.54775 206.64640 208.49904
 210.13569 211.29134 211.53098 211.76963 211.71728 211.43292 211.07657 210.71722
 210.34486 210.06551 209.88416 209.75880 209.69745 210.03910 210.43574 210.83539
 211.63904 212.82768 214.08833 215.88197 217.82062 219.87427 221.97991 224.07356
 226.14421 228.23885 230.34650 232.46315 234.60279 236.78544 239.05209 241.43273
 244.06438 246.32603 248.33867 250.11432 251.54197 252.67561 253.50826 253.83491
 253.88255 253.66720 253.03785 251.99649 250.61314 248.78479 246.70443 244.54808
 242.34973 240.16437 237.99502 235.84466 233.71531 231.59296 229.62960 227.79725
 226.09090 224.57354 223.21419 221.99684 220.88948 219.86013 218.97478 218.12642
 217.37907 216.56972 215.67836 215.05301 214.51366 214.69962 215.11749 214.73700
 214.76070 213.72298 212.90562 213.49077 216.50883 220.75256 225.72771 229.74095
 233.21158 237.34921 241.84514 246.29672 250.40970 254.11996 257.51828 260.71002
 263.73462 266.58347 269.20523 271.54453 273.59833 275.40515 276.99203 278.32993
 279.37766 280.25589 281.09390 281.97034 283.01364 284.03998 284.98599 285.89081
 286.70459 287.42923 288.06229 288.86905
 366.78100 356.34532 345.78764 334.66396 323.07728 311.28160 299.16192 286.97524
 274.69756 262.60487 250.62419 239.93551 230.06783 221.18215 213.37447 206.38679
 200.23111 195.17943 191.77175 189.82407 188.87139 188.94571 189.79103 191.10935
 192.84467 194.94999 197.22330 199.59262 202.04794 204.53826 206.63658 208.48890
 210.12522 211.28054 211.51986 211.75818 211.70550 211.42082 211.06414 210.70446
 210.33178 210.05210 209.87042 209.74473 209.68305 210.02437 210.42069 210.82001
 211.62333 212.81165 214.07197 215.86529 217.80361 219.85693 221.96225 224.05557
 226.12589 228.22021 230.32753 232.44385 234.58317 236.76548 239.03180 241.41212
 244.04344 246.30476 248.31708 250.09240 251.51972 252.65304 253.48536 253.81168
 253.85900 253.64332 253.01364 251.97196 250.58828 248.75960 246.67891 244.52223
 242.32355 240.13787 237.96819 235.81751 233.68783 231.56515 229.60147 227.76879
 226.06211 224.54443 223.18475 221.96707 220.85939 219.82971 218.94403 218.09534
 217.34766 216.53798 215.64630 215.02062 214.48094 214.68813 215.15186 214.75624
 214.78110 213.69211 212.78951 213.38593 216.43828 220.71915 225.71509 229.75882
 233.21519 237.34714 241.84686 246.32623 250.45602 254.15871 257.53152 260.69278
 263.69250 266.53381 269.18283 271.58237 273.71869 275.59747 277.19284 278.47531
 279.45789 280.26794 280.91907 281.58762 282.58673 283.62454 284.59338 285.51099
 286.33624 287.07114 287.71313 288.53128
 366.78100 356.34593 345.78886 334.66579 323.07973 311.28466 299.16559 286.97952
 274.70245 262.61038 250.63032 239.94225 230.07518 221.19011 213.38304 206.39597
 200.24091 195.18984 191.78277 189.83570 188.88363 188.95856 189.80450 191.12343
 192.85936 194.96529 197.23922 199.60915 202.06508 204.55602 206.65495 208.50788
 210.14481 211.30074 211.54067 211.77961 211.72754 211.44347 211.08740 210.72833
 210.35626 210.07720 209.89613 209.77106 209.70999 210.05192 210.44885 210.84879
 211.65272 212.84165 214.10258 215.89651 217.83544 219.88937 221.99531 224.08924
 226.16017 228.25510 230.36303 232.47996 234.61990 236.80283 239.06976 241.45069
 244.08262 246.34455 248.35749 250.13342 251.56135 252.69528 253.52821 253.85514
 253.90308 253.68801 253.05894 252.01787 250.63480 248.80673 246.72666 244.57060
 242.37253 240.18746 238.01839 235.86832 233.73925 231.61719 229.65412 227.82205
 226.11598 224.59891 223.23984 222.02278 220.91571 219.88664 219.00157 218.15350
 217.40643 216.59737 215.70630 215.08123 214.54216 214.72668 215.13242 214.81581
 214.78340 213.64168 212.69154 213.38147 216.40874 220.68799 225.68796 229.76231
 233.19876 237.32661 241.82886 246.32617 250.47202 254.16725 257.51837 260.65411
 263.63239 266.46646 269.13940 271.60361 273.82803 275.77734 277.41028 278.71036
 279.71457 280.48154 280.94952 281.31805 282.12836 283.15863 284.15302 285.06015
 285.87604 286.60257 287.23724 288.04608
 366.78100 356.34656 345.79012 334.66769 323.08225 311.28781 299.16937 286.98393
 274.70750 262.61606 250.63662 239.94918 230.08274 221.19831 213.39187 206.40543
 200.25099 195.20055 191.79411 189.84768 188.89624 188.97180 189.81836 191.13792
 192.87449 194.98105 197.25561 199.62617 202.08273 204.57430 206.67386 208.52742
 210.16498 211.32154 211.56211 211.80167 211.75023 211.46679 211.11135 210.75292
 210.38148 210.10304 209.92260 209.79816 209.73773 210.08029 210.47785 210.87841
 211.68297 212.87254 214.13410 215.92866 217.86822 219.92278 222.02934 224.12391
 226.19547 228.29103 230.39959 232.51715 234.65772 236.84128 239.10884 241.49040
 244.12296 246.38553 248.39909 250.17565 251.60421 252.73877 253.57234 253.89990
 253.94846 253.73402 253.10558 252.06515 250.68271 248.85527 246.77583 244.62039
 242.42296 240.23852 238.07008 235.92064 233.79220 231.67076 229.70833 227.87689
 226.17145 224.65501 223.29657 222.08014 220.97370 219.94526 219.06082 218.21338
 217.46695 216.65851 215.76807 215.14363 214.60519 214.77307 215.12451 214.84827
 214.75197 213.69627 212.76694 213.50641 216.45305 220.66452 225.65567 229.72682
 233.16986 237.29666 241.81186 246.32507 250.48891 254.18495 257.53113 260.65207
 263.61243 266.43524 269.12860 271.65097 273.95291 275.99219 277.68005 279.02628
 280.06201 280.72672 280.92154 281.19104 282.32150 283.46268 284.50385 285.44705
 286.29538 287.05081 287.71075 288.55176
 366.78100 356.34633 345.78966 334.66698 323.08131 311.28664 299.16797 286.98230
 274.70563 262.61395 250.63428 239.94661 230.07994 221.19527 213.38859 206.40192
 200.24725 195.19658 191.78991 189.84324 188.89156 188.96689 189.81322 191.13255
 192.86888 194.97520 197.24953 199.61986 202.07619 204.56752 206.66685 208.52017
 210.15750 211.31383 211.55416 211.79349 211.74181 211.45814 211.10247 210.74380
 210.37213 210.09346 209.91278 209.78811 209.72744 210.06977 210.46710 210.86742
 211.67175 212.86108 214.12241 215.91674 217.85607 219.91039 222.01672 224.11105
 226.18238 228.27771 230.38603 232.50336 234.64369 236.82702 239.09435 241.47568
 244.10800 246.37033 248.38366 250.15999 251.58832 252.72264 253.55597 253.88330
 253.93163 253.71696 253.08829 252.04761 250.66494 248.83727 246.75760 244.60193
 242.40425 240.21958 238.05091 235.90124 233.77257 231.65089 229.68822 227.85655
 226.15088 224.63421 223.27554 222.05886 220.95219 219.92352 219.03885 218.19118
 217.44450 216.63583 215.74516 215.12049 214.58182 214.76987 215.15669 214.84848
 214.65813 213.72668 212.84077 213.54958 216.46231 220.64883 225.62605 229.67021
 233.12050 237.25044 241.78175 246.31566 250.49191 254.19664 257.54456 260.66306
 263.60779 266.42380 269.13837 271.71310 274.09531 276.21826 277.96707 279.37665
 280.36270 280.80313 280.70438 281.45578 282.68143 283.79684 284.81451 285.73642
 286.56558 287.30399 287.94901 288.77103
 366.78100 356.34673 345.79047 334.66820 323.08293 311.28867 299.17040 286.98513
 274.70887 262.61760 250.63833 239.95107 230.08480 221.20053 213.39427 206.40800
 200.25373 195.20347 191.79720 189.85093 188.89967 188.97540 189.82213 191.14187
 192.87860 194.98533 197.26007 199.63080 202.08753 204.57927 206.67900 208.53273
 210.17047 211.32720 211.56793 211.80767 211.75640 211.47313 211.11787 210.75960
 210.38833 210.11007 209.92980 209.80553 209.74527 210.08800 210.48573 210.88646
 211.69120 212.88093 214.14266 215.93740 217.87713 219.93186 222.03860 224.13333
 226.20506 228.30080 230.40953 232.52726 234.66800 236.85173 239.11946 241.50120
 244.13393 246.39666 248.41040 250.18713 251.61586 252.75060 253.58433 253.91206
 253.96080 253.74653 253.11826 252.07800 250.69573 248.86846 246.78920 244.63393
 242.43666 240.25240 238.08413 235.93486 233.80660 231.68533 229.72306 227.89180
 226.18653 224.67026 223.31200 222.09573 220.98946 219.96120 219.07693 218.22966
 217.48340 216.67513 215.78486 215.16060 214.62233 214.79384 215.14761 214.88229
 214.62500 213.70268 212.86853 213.53854 216.43040 220.61214 225.56755 229.59984
 233.05450 237.19269 241.73615 246.27435 250.44113 254.14445 257.48935 260.60281
 263.53915 266.36166 269.10776 271.73975 274.19608 276.37256 278.17740 279.62616
 280.64941 281.09183 280.91129 281.71545 282.88550 283.93692 284.89621 285.76526
 286.54684 287.24289 287.85092 288.62576
 366.78100 356.34698 345.79096 334.66894 323.08392 311.28990 299.17188 286.98686
 274.71084 262.61982 250.64080 239.95378 230.08776 221.20374 213.39772 206.41170
 200.25768 195.20766 191.80164 189.85562 188.90460 188.98058 189.82756 191.14754
 192.88452 194.99150 197.26648 199.63746 202.09445 204.58643 206.68641 208.54039
 210.17837 211.33535 211.57633 211.81631 211.76529 211.48227 211.12725 210.76923
 210.39821 210.12019 209.94017 209.81615 209.75613 210.09911 210.49709 210.89807
 211.70305 212.89303 214.15501 215.94999 217.88997 219.94495 222.05193 224.14691
 226.21889 228.31487 230.42385 232.54183 234.68281 236.86679 239.13477 241.51675
 244.14973 246.41271 248.42669 250.20367 251.63265 252.76763 253.60161 253.92959
 253.97857 253.76455 253.13653 252.09651 250.71449 248.88747 246.80845 244.65343
 242.45641 240.27239 238.10438 235.95536 233.82734 231.70632 229.74430 227.91328
 226.20826 224.69224 223.33422 222.11820 221.01218 219.98416 219.10014 218.25312
 217.50710 216.69908 215.80906 215.18504 214.64702 214.81023 215.14519 214.85249
 214.60384 213.68143 212.89468 213.51962 216.41110 220.60988 225.54401 229.57625
 233.02803 237.16672 241.71425 246.25232 250.40256 254.09184 257.41498 260.49854
 263.40250 266.20813 268.96954 271.65936 274.19391 276.46289 278.37469 279.88702
 280.75516 280.75830 280.45032 281.49884 282.69830 283.78357 284.77368 285.67068
 286.47742 287.19583 287.82343 288.62320
 366.78100 356.34645 345.78990 334.66736 323.08181 311.28726 299.16871 286.98316
 274.70662 262.61507 250.63552 239.94797 230.08142 221.19688 213.39033 206.40378
 200.24923 195.19869 191.79214 189.84559 188.89404 188.96949 189.81595 191.13540
 192.87185 194.97830 197.25275 199.62321 202.07966 204.57111 206.67056 208.52401
 210.16147 211.31792 211.55837 211.79782 211.74627 211.46273 211.10718 210.74863
 210.37708 210.09854 209.91799 209.79344 209.73289 210.07534 210.47280 210.87325
 211.67770 212.86715 214.12860 215.92306 217.86251 219.91696 222.02341 224.11786
 226.18932 228.28477 230.39322 232.51067 234.65112 236.83458 239.10203 241.48348
 244.11593 246.37839 248.39184 250.16829 251.59674 252.73119 253.56465 253.89210
 253.94055 253.72600 253.09745 252.05691 250.67436 248.84681 246.76726 244.61171
 242.41417 240.22962 238.06107 235.91152 233.78297 231.66143 229.69888 227.86733
 226.16178 224.64523 223.28669 222.07014 220.96359 219.93504 219.05050 218.20295
 217.45640 216.64785 215.75730 215.13276 214.59421 214.77724 215.17300 214.87448
 214.49922 213.57378 212.81923 213.42043 216.33487 220.59702 225.54878 229.61514
 233.06566 237.18842 241.72014 246.26054 250.42705 254.12497 257.44046 260.49109
 263.35193 266.11826 268.87555 271.59851 274.14325 276.37918 278.19391 279.46606
 280.11124 280.14978 280.05307 280.81366 281.93555 283.01843 284.02893 284.94440
 285.76773 286.50092 287.14142 287.95767
 366.78100 356.34634 345.78968 334.66702 323.08136 311.28670 299.16804 286.98238
 274.70572 262.61406 250.63440 239.94674 230.08008 221.19542 213.38876 206.40210
 200.24744 195.19678 191.79012 189.84346 188.89180 188.96714 189.81348 191.13282
 192.86916 194.97550 197.24984 199.62018 202.07652 204.56786 206.66720 208.52054
 210.15788 211.31422 211.55456 211.79390 211.74224 211.45858 211.10292 210.74426
 210.37260 210.09394 209.91328 209.78862 209.72796 210.07030 210.46764 210.86798
 211.67232 212.86166 214.12300 215.91734 217.85668 219.91102 222.01736 224.11170
 226.18304 228.27838 230.38672 232.50406 234.64440 236.82774 239.09508 241.47642
 244.10877 246.37111 248.38445 250.16079 251.58913 252.72347 253.55681 253.88415
 253.93249 253.71783 253.08917 252.04851 250.66585 248.83819 246.75853 244.60287
 242.40521 240.22055 238.05189 235.90223 233.77357 231.65191 229.68925 227.85759
 226.15193 224.63527 223.27661 222.05995 220.95329 219.92463 219.03997 218.19231
 217.44565 216.63699 215.74633 215.12167 214.58301 214.77199 215.18442 214.92317
 214.49545 213.53705 212.73007 213.30182 216.22740 220.51389 225.48010 229.56921
 233.04327 237.17484 241.71291 246.27028 250.46503 254.19284 257.52298 260.56445
 263.40280 266.14368 268.89212 271.63217 274.19769 276.42926 278.19336 279.36929
 279.90247 279.92834 279.72556 280.51074 281.66534 282.79211 283.85226 284.81268
 285.67648 286.44568 287.11765 287.97400
 366.78100 356.34547 345.78793 334.66440 323.07787 311.28233 299.16280 286.97627
 274.69873 262.60620 250.62567 239.93713 230.06960 221.18407 213.37653 206.38900
 200.23347 195.18193 191.77440 189.82687 188.87433 188.94880 189.79427 191.11273
 192.84820 194.95367 197.22713 199.59660 202.05207 204.54253 206.64100 208.49347
 210.12993 211.28540 211.52487 211.76333 211.71080 211.42627 211.06973 210.71020
 210.33767 210.05813 209.87660 209.75107 209.68953 210.03100 210.42747 210.82693
 211.63040 212.81887 214.07933 215.87280 217.81127 219.86473 221.97020 224.06367
 226.13413 228.22860 230.33607 232.45253 234.59200 236.77447 239.04093 241.42140
 244.05287 246.31433 248.32680 250.10227 251.52973 252.66320 253.49567 253.82213
 253.86960 253.65407 253.02453 251.98300 250.59947 248.77093 246.69040 244.53387
 242.33533 240.14980 237.98027 235.82973 233.70020 231.57767 229.61413 227.78160
 226.07507 224.55753 223.19800 221.98047 220.87293 219.84340 218.95787 218.10933
 217.36180 216.55227 215.66073 215.03520 214.49567 214.73297 215.24545 214.85374
 214.44154 213.52650 212.79436 213.27641 216.18253 220.46529 225.42798 229.52835
 233.01759 237.15114 241.69135 246.24858 250.44203 254.17842 257.52670 260.58301
 263.42273 266.15344 268.91003 271.69513 274.33017 276.64252 278.43298 279.58273
 280.05276 280.08136 279.84454 280.61285 281.77972 282.92200 283.99228 284.96188
 285.83395 286.61053 287.28894 288.15347
 366.78100 356.34414 345.78528 334.66042 323.07256 311.27570 299.15484 286.96698
 274.68811 262.59425 250.61239 239.92253 230.05367 221.16681 213.35795 206.36909
 200.21223 195.15937 191.75051 189.80165 188.84779 188.92093 189.76506 191.08220
 192.81634 194.92048 197.19262 199.56076 202.01490 204.50404 206.60118 208.45232
 210.08746 211.24160 211.47974 211.71688 211.66301 211.37715 211.01929 210.65843
 210.28457 210.00371 209.82085 209.69399 209.63113 209.97127 210.36641 210.76455
 211.56669 212.75383 214.01297 215.80510 217.74224 219.79438 221.89852 223.99066
 226.05980 228.15294 230.25908 232.37422 234.51236 236.69350 238.95864 241.33778
 243.96792 246.22805 248.23919 250.01333 251.43947 252.57161 253.40275 253.72789
 253.77403 253.55717 252.92631 251.88345 250.49859 248.66873 246.58687 244.42900
 242.22914 240.04228 237.87142 235.71956 233.58870 231.46484 229.49998 227.66612
 225.95826 224.43940 223.07854 221.85968 220.75082 219.71996 218.83309 217.98323
 217.23437 216.42351 215.53065 214.90379 214.36293 214.65797 215.32419 214.84492
 214.39101 213.33820 212.70164 213.20886 216.14030 220.45578 225.46234 229.54080
 233.03772 237.14749 241.65005 246.17953 250.35281 254.08589 257.44812 260.51843
 263.37686 266.13992 268.91687 271.71869 274.37744 276.67935 278.39737 279.49158
 280.03647 280.18802 280.31659 280.71674 281.72467 282.73032 283.67468 284.55133
 285.33978 286.04187 286.65524 287.43689
 366.78100 356.34366 345.78432 334.65898 323.07064 311.27331 299.15197 286.96363
 274.68429 262.58995 250.60761 239.91727 230.04793 221.16060 213.35126 206.36192
 200.20458 195.15124 191.74190 189.79256 188.83822 188.91089 189.75455 191.07121
 192.80487 194.90853 197.18019 199.54785 202.00151 204.49018 206.58684 208.43750
 210.07216 211.22582 211.46348 211.70014 211.64580 211.35947 211.00113 210.63979
 210.26545 209.98411 209.80077 209.67343 209.61009 209.94976 210.34442 210.74208
 211.54374 212.73040 213.98906 215.78072 217.71738 219.76905 221.87271 223.96437
 226.03303 228.12569 230.23135 232.34601 234.48367 236.66434 238.92900 241.30766
 243.93732 246.19698 248.20764 249.98130 251.40696 252.53863 253.36929 253.69395
 253.73961 253.52227 252.89093 251.84759 250.46225 248.63192 246.54958 244.39124
 242.19090 240.00356 237.83222 235.67988 233.54854 231.42421 229.45887 227.62453
 225.91619 224.39685 223.03551 221.81617 220.70683 219.67550 218.78816 217.93782
 217.18848 216.37714 215.48380 214.85646 214.31512 214.63110 215.35422 214.86807
 214.46498 213.35249 212.57175 213.01782 216.06133 220.41737 225.44185 229.52548
 233.04134 237.14111 241.63347 246.16147 250.32582 254.05196 257.41467 260.48868
 263.34619 266.10742 268.89856 271.72409 274.40594 276.70947 278.38708 279.41422
 279.94659 280.20935 280.46115 280.94443 281.80780 282.79010 283.70520 284.54303
 285.29712 285.96863 286.55524 287.30280
 366.78100 356.34368 345.78436 334.65904 323.07072 311.27340 299.15208 286.96376
 274.68444 262.59013 250.60781 239.91749 230.04817 221.16085 213.35153 206.36221
 200.20489 195.15157 191.74225 189.79293 188.83861 188.91129 189.75497 191.07165
 192.80533 194.90902 197.18070 199.54838 202.00206 204.49074 206.58742 208.43810
 210.07278 211.22646 211.46414 211.70082 211.64650 211.36018 211.00186 210.64054
 210.26622 209.98491 209.80159 209.67427 209.61095 209.95063 210.34531 210.74299
 211.54467 212.73135 213.99003 215.78171 217.71839 219.77007 221.87375 223.96543
 226.03411 228.12680 230.23248 232.34716 234.48484 236.66552 238.93020 241.30888
 243.93856 246.19824 248.20892 249.98260 251.40828 252.53996 253.37064 253.69532
 253.74100 253.52369 252.89237 251.84905 250.46373 248.63341 246.55109 244.39277
 242.19245 240.00513 237.83381 235.68149 233.55017 231.42585 229.46053 227.62621
 225.91789 224.39858 223.03726 221.81794 220.70862 219.67730 218.78998 217.93966
 217.19034 216.37902 215.48570 214.85838 214.31706 214.63231 215.35443 214.88821
 214.38870 213.38754 212.54141 212.89334 215.98894 220.37494 225.41656 229.53682
 233.05927 237.15591 241.63681 246.16130 250.32727 254.05904 257.43112 260.51443
 263.37466 266.13324 268.92651 271.76505 274.47562 276.79590 278.45581 279.46426
 280.01797 280.35413 280.68243 281.17374 282.01126 282.98740 283.89941 284.72983
 285.47699 286.14236 286.72360 287.46432
 366.78100 356.34354 345.78409 334.65863 323.07017 311.27271 299.15126 286.96280
 274.68334 262.58888 250.60643 239.91597 230.04651 221.15905 213.34960 206.36014
 200.20268 195.14923 191.73977 189.79031 188.83585 188.90840 189.75194 191.06848
 192.80202 194.90557 197.17711 199.54465 201.99820 204.48674 206.58328 208.43382
 210.06837 211.22191 211.45945 211.69599 211.64154 211.35508 210.99662 210.63516
 210.26071 209.97925 209.79579 209.66834 209.60488 209.94442 210.33896 210.73651
 211.53805 212.72459 213.98313 215.77468 217.71122 219.76276 221.86630 223.95785
 226.02639 228.11893 230.22448 232.33902 234.47656 236.65710 238.92165 241.30019
 243.92973 246.18927 248.19982 249.97336 251.39890 252.53045 253.36099 253.68553
 253.73107 253.51362 252.88216 251.83870 250.45324 248.62279 246.54033 244.38187
 242.18141 239.99396 237.82250 235.67004 233.53859 231.41413 229.44867 227.61421
 225.90576 224.38630 223.02484 221.80538 220.69593 219.66447 218.77701 217.92656
 217.17710 216.36564 215.47218 214.84473 214.30327 214.61949 215.35515 214.96027
 214.37146 213.42813 212.47594 212.68568 215.92064 220.35767 225.41057 229.53694
 233.08624 237.15730 241.61623 246.13979 250.29553 254.02518 257.41235 260.52158
 263.39957 266.16312 268.96048 271.81161 274.53049 276.83072 278.45978 279.46756
 280.02197 280.39462 280.79651 281.36108 282.15152 283.06546 283.94275 284.74582
 285.46396 286.10345 286.66211 287.37405
 366.78100 356.34260 345.78221 334.65581 323.06642 311.26802 299.14563 286.95623
 274.67583 262.58044 250.59704 239.90565 230.03525 221.14686 213.33646 206.34606
 200.18767 195.13327 191.72288 189.77248 188.81709 188.88869 189.73129 191.04690
 192.77950 194.88211 197.15271 199.51932 201.97192 204.45952 206.55513 208.40473
 210.03834 211.19094 211.42755 211.66315 211.60775 211.32036 210.96096 210.59857
 210.22317 209.94078 209.75638 209.62798 209.56359 209.90219 210.29580 210.69240
 211.49300 212.67861 213.93621 215.72682 217.66242 219.71303 221.81563 223.90623
 225.97384 228.06544 230.17005 232.28365 234.42026 236.59986 238.86346 241.24107
 243.86967 246.12828 248.13788 249.91049 251.33509 252.46569 253.29530 253.61890
 253.66351 253.44511 252.81272 251.76832 250.38192 248.55053 246.46713 244.30774
 242.10634 239.91795 237.74555 235.59215 233.45976 231.33436 229.36797 227.53257
 225.82318 224.30278 222.94038 221.71999 220.60959 219.57720 218.68880 217.83741
 217.08701 216.27461 215.38022 214.75182 214.20943 214.57349 215.40250 214.95781
 214.38522 213.33063 212.28462 212.64626 215.85469 220.27164 225.33771 229.55969
 233.08623 237.16978 241.62524 246.12392 250.28108 254.02541 257.42661 260.53848
 263.41046 266.16583 268.96893 271.83658 274.59341 276.91171 278.49884 279.48236
 280.03262 280.41022 280.87717 281.47012 282.31772 283.26144 284.17606 285.00858
 285.75732 286.42410 287.00656 287.74887
 366.78100 356.34286 345.78271 334.65657 323.06742 311.26928 299.14713 286.95799
 274.67784 262.58270 250.59956 239.90841 230.03827 221.15012 213.33998 206.34983
 200.19169 195.13754 191.72740 189.77726 188.82211 188.89397 189.73682 191.05268
 192.78553 194.88839 197.15925 199.52610 201.97896 204.46681 206.56267 208.41252
 210.04638 211.19923 211.43609 211.67195 211.61680 211.32966 210.97051 210.60837
 210.23322 209.95108 209.76693 209.63879 209.57465 209.91350 210.30736 210.70421
 211.50507 212.69092 213.94878 215.73963 217.67549 219.72635 221.82920 223.92006
 225.98791 228.07977 230.18462 232.29848 234.43533 236.61519 238.87905 241.25690
 243.88576 246.14461 248.15447 249.92732 251.35218 252.48304 253.31289 253.63675
 253.68160 253.46346 252.83131 251.78717 250.40102 248.56988 246.48674 244.32759
 242.12645 239.93830 237.76616 235.61301 233.48087 231.35572 229.38958 227.55444
 225.84529 224.32515 222.96300 221.74286 220.63271 219.60057 218.71242 217.86128
 217.11114 216.29899 215.40485 214.77670 214.23456 214.58992 215.38370 214.97278
 214.37650 213.31847 212.21133 212.57109 215.82986 220.24614 225.28535 229.57043
 233.12410 237.20239 241.65332 246.15199 250.29149 254.02411 257.45108 260.62021
 263.52380 266.27832 269.05280 271.93530 274.66113 276.90625 278.41278 279.27551
 279.85507 280.46777 281.17816 282.05298 283.04041 283.98444 284.85544 285.64447
 286.35416 286.98611 287.53818 288.24173
 366.78100 356.34284 345.78269 334.65653 323.06737 311.26921 299.14706 286.95790
 274.67774 262.58258 250.59943 239.90827 230.03811 221.14996 213.33980 206.34964
 200.19148 195.13733 191.72717 189.77701 188.82186 188.89370 189.73654 191.05238
 192.78523 194.88807 197.15891 199.52575 201.97860 204.46644 206.56228 208.41213
 210.04597 211.19881 211.43565 211.67150 211.61634 211.32918 210.97003 210.60787
 210.23271 209.95055 209.76640 209.63824 209.57408 209.91292 210.30677 210.70361
 211.50445 212.69030 213.94814 215.73898 217.67482 219.72567 221.82851 223.91935
 225.98719 228.07904 230.18388 232.29772 234.43457 236.61441 238.87825 241.25609
 243.88494 246.14378 248.15362 249.92647 251.35131 252.48215 253.31199 253.63584
 253.68068 253.46252 252.83036 251.78621 250.40005 248.56889 246.48574 244.32658
 242.12542 239.93726 237.76511 235.61195 233.47979 231.35463 229.38848 227.55332
 225.84416 224.32401 222.96185 221.74169 220.63153 219.59938 218.71122 217.86006
 217.10991 216.29775 215.40359 214.77543 214.23328 214.56702 215.32608 215.00500
 214.37001 213.26044 212.09579 212.34763 215.80591 220.22185 225.23027 229.58287
 233.17992 237.23865 241.66385 246.15233 250.25478 253.97369 257.44415 260.67593
 263.62265 266.39819 269.17694 272.01685 274.72321 276.92853 278.36603 279.26105
 280.01038 280.82040 281.68619 282.61392 283.52621 284.36545 285.14566 285.84253
 286.46930 287.02747 287.51505 288.13641
 354.97500 345.04800 334.58700 324.11500 313.32600 302.53700 291.65000 280.76700
 269.93100 259.19300 248.62200 238.61700 229.08700 220.35500 212.54000 205.53500
 199.46400 194.49300 191.14300 189.19000 188.08900 188.01400 188.72400 189.90600
 191.46900 193.38200 195.40300 197.55600 199.80700 202.06000 204.28800 206.47900
 208.55200 210.37800 212.02500 213.65900 214.99800 216.11800 217.17200 218.25900
 219.49400 220.64500 221.67900 222.61400 223.54500 224.98200 226.57100 228.19000
 229.79700 231.81100 233.86500 235.97200 238.24200 240.55300 242.89900 245.25300
 247.48800 249.53500 251.36600 252.84800 254.09800 255.16700 256.02700 256.25300
 256.09500 255.54300 253.93500 252.56600 251.38400 250.24500 249.05200 247.70100
 246.01600 243.99600 241.78400 239.39300 236.81300 234.22300 231.65800 229.14400
 226.74000 224.47300 222.33500 220.32500 218.44000 216.67700 214.96200 213.47200
 212.20000 211.10800 210.26000 209.63900 209.24400 209.03100 209.05800 209.33300
 209.78400 210.62600 211.33100 212.39100 213.62500 214.84668 217.72949 219.47640
 220.32566 220.86828 220.88710 220.27371 219.43733 218.84250 219.04934 220.86203
 222.60583 225.72206 229.03064 232.61777 236.12270 239.51333 242.70767 245.68587
 248.41061 250.90679 253.19353 254.91714 256.48655 257.94920 259.39966 260.69384
 261.81714 262.77997 263.71679 264.54570 265.26305 265.89772 266.47676 267.00133
 267.47312 267.89325 268.26027 268.72800
