|-------------------------------------------------------------------------|
|   File Name : in_temp.dat
|   Subject   : temperature profiles used for initial guess atmosphere
|   File Type : input of gmtr
|   Data Type : atmospherical data
|   Author/s  : WRF-Chem
|   Date      : Fri Jul 26 15:39:24 2024
|-------------------------------------------------------------------------|

 WRF-Chem temperature
#
 values of T (K)    (8f10.5)
#
 354.97500 345.04800 334.58700 324.11500 313.32600 302.53700 291.65000 280.76700
 269.93100 259.19300 248.62200 238.61700 229.08700 220.35500 212.54000 205.53500
 199.46400 194.49300 191.14300 189.19000 188.08900 188.01400 188.72400 189.90600
 191.46900 193.38200 195.40300 197.55600 199.80700 202.06000 204.28800 206.47900
 208.55200 210.37800 212.02500 213.65900 214.99800 216.11800 217.17200 218.25900
 219.49400 220.64500 221.67900 222.61400 223.54500 224.98200 226.57100 228.19000
 229.79700 231.81100 233.86500 235.97200 238.24200 240.55300 242.89900 245.25300
 247.48800 249.53500 251.36600 252.84800 254.09800 255.16700 256.02700 256.25300
 256.09500 255.54300 253.93500 252.56600 251.38400 250.24500 249.05200 247.70100
 246.01600 243.99600 241.78400 239.39300 236.81300 234.22300 231.65800 229.14400
 226.74000 224.47300 222.33500 220.32500 218.44000 216.67700 214.96200 213.47200
 212.20000 211.10800 210.26000 209.63900 209.24400 209.03100 209.05800 209.33300
 209.78400 210.62600 211.33100 212.39100 213.62500 214.84668 217.72949 219.47640
 220.32566 220.86828 220.88710 220.27371 219.43733 218.84250 219.04934 220.86203
 222.60583 225.72206 229.03064 232.61777 236.12270 239.51333 242.70767 245.68587
 248.41061 250.90679 253.19353 254.91714 256.48655 257.94920 259.39966 260.69384
 261.81714 262.77997 263.71679 264.54570 265.26305 265.89772 266.47676 267.00133
 267.47312 267.89325 268.26027 268.72800
 366.78100 356.33500 345.76700 334.63300 323.03600 311.23000 299.10000 286.90300
 274.61500 262.51200 250.52100 239.82200 229.94400 221.04800 213.23000 206.23200
 200.06600 195.00400 191.58600 189.62800 188.66500 188.72900 189.56400 190.87200
 192.59700 194.69200 196.95500 199.31400 201.75900 204.23900 206.32700 208.16900
 209.79500 210.94000 211.16900 211.39700 211.33400 211.03900 210.67200 210.30200
 209.91900 209.62900 209.43700 209.30100 209.22900 209.56000 209.94600 210.33500
 211.12800 212.30600 213.55600 215.33900 217.26700 219.31000 221.40500 223.48800
 225.54800 227.63200 229.72900 231.83500 233.96400 236.13600 238.39200 240.76200
 243.38300 245.63400 247.63600 249.40100 250.81800 251.94100 252.76300 253.07900
 253.11600 252.89000 252.25000 251.19800 249.80400 247.96500 245.87400 243.70700
 241.49800 239.30200 237.12200 234.96100 232.82100 230.68800 228.71400 226.87100
 225.15400 223.62600 222.25600 221.02800 219.91000 218.87000 217.97400 217.11500
 216.35700 215.53700 214.63500 213.99900 213.44900 212.85855 212.01316 212.61654
 214.26826 216.08686 218.14273 220.53346 223.40855 226.78828 231.49734 235.90155
 239.42278 243.28576 247.23140 251.11907 254.80144 258.23331 261.38913 264.27520
 266.89312 269.26852 271.44504 273.08845 274.58484 275.98591 277.39845 278.65879
 279.75272 280.69038 281.56708 282.34086 283.01050 283.60295 284.14348 284.63317
 285.07358 285.46577 285.80838 286.24500
 381.81900 372.39900 361.20600 349.77600 337.62200 324.85300 311.81000 298.35300
 284.86000 271.32400 258.56100 246.30400 236.08700 226.79600 218.44800 211.29000
 205.52200 200.89400 197.38100 194.84800 193.01500 192.31500 192.25000 192.43100
 192.91200 193.53700 194.13600 194.71200 195.26200 195.83100 196.39300 196.97600
 197.60400 198.14900 198.58400 199.05700 199.69500 200.37800 201.05400 201.70800
 202.31300 202.85700 203.35500 203.86200 204.56900 205.29700 206.02600 206.98700
 208.19300 209.44100 210.96900 212.57600 214.46200 216.51300 218.63000 220.85300
 223.34100 225.96200 228.73900 231.69700 234.70600 237.70600 240.69200 243.65700
 246.73700 249.69900 252.52100 255.06300 257.29000 259.23300 260.63300 261.68000
 262.46100 262.79800 262.69100 262.22400 261.06900 259.52500 257.70700 255.50700
 253.00100 250.30200 247.39800 244.45200 241.65400 239.05400 236.73300 234.59000
 232.59500 230.72500 228.83400 226.82600 224.66600 222.38700 220.10400 217.71500
 215.45900 213.06600 210.54600 208.09300 205.35400 202.08130 196.05959 200.71215
 209.01611 216.90438 223.84126 229.78593 235.00632 240.20838 245.98943 250.68668
 254.32982 257.93487 261.55666 264.96801 268.15192 271.06452 273.76717 276.25691
 278.57680 280.74479 282.77456 284.60533 286.27232 287.81705 289.31715 290.65561
 291.81734 292.81312 293.70701 294.49387 295.17482 295.77730 296.32696 296.82492
 297.27278 297.67160 298.02000 298.46400
 399.33000 389.90700 379.81300 368.66800 357.52200 345.30100 333.07400 320.22700
 307.21600 293.84800 280.37600 267.29600 254.61000 242.98700 232.15100 221.97700
 212.67200 204.28600 197.66900 192.82100 189.48600 187.45200 186.81400 187.08900
 187.78100 189.05400 190.64800 192.54200 194.63000 196.75200 198.67100 200.15800
 201.53500 202.48700 202.97500 203.34000 203.53900 203.49700 203.38500 203.24700
 203.00500 202.78600 202.60300 202.43700 202.42600 202.88800 203.42000 203.95100
 204.89500 205.99200 207.30100 208.95800 210.73800 213.10000 215.56400 218.18000
 220.96600 223.91800 226.96100 230.09200 233.29300 236.55700 239.95500 243.53700
 246.84500 249.39000 251.54200 253.47400 255.19500 256.48400 257.43100 258.05900
 258.21200 258.04000 257.58200 256.64300 255.23900 253.50700 251.40800 249.05600
 246.57600 243.99400 241.38900 238.83000 236.34400 233.98600 231.96900 230.11800
 228.42300 226.89900 225.54800 224.29700 223.10500 221.96500 220.95800 220.11300
 219.49000 218.92000 218.32500 217.88100 217.42300 216.96366 216.35568 216.80261
 217.73415 218.28582 218.64258 219.10077 220.44626 222.53987 226.38451 230.35736
 233.59734 237.39164 241.29814 245.22796 248.98002 252.51130 255.78595 258.80109
 261.54781 264.05210 266.34239 268.04198 269.58951 271.01303 272.35754 273.55718
 274.59842 275.49092 276.28989 276.99307 277.60161 278.14001 278.63122 279.07623
 279.47646 279.83287 280.14422 280.54100
 399.73800 389.78500 379.66200 368.15100 356.64100 344.35000 331.79200 318.88800
 305.72600 292.49300 279.20900 266.73800 254.69600 244.21100 234.45700 225.43300
 217.56900 210.45100 204.30000 199.30600 195.45800 192.57600 191.02700 190.38600
 190.23900 190.53400 191.16600 191.92500 192.79500 193.76600 194.73200 195.31200
 195.80000 196.05200 196.11500 196.11500 196.03900 195.72300 195.34000 194.98900
 194.75100 194.79200 195.13300 195.59800 196.50600 198.13600 199.85800 201.56600
 204.17900 206.82300 209.89300 213.28400 216.82800 220.60500 224.38700 228.20900
 232.03200 235.82500 239.56000 243.25800 246.84500 250.20100 253.70900 257.46800
 261.53000 264.22100 266.60100 268.68100 270.32900 271.74100 272.83600 273.47400
 273.89800 274.00200 273.75700 273.28800 272.37100 271.10000 269.58900 267.77900
 265.81600 263.72100 261.39300 258.91600 256.29800 253.42300 250.33100 247.11400
 243.83700 240.52900 237.24900 233.99900 230.72800 227.51500 224.25400 220.95200
 217.62700 213.65600 210.12100 206.78900 204.01000 201.99491 199.07309 198.76551
 199.40006 200.48994 201.46112 202.31912 203.45100 204.96110 207.47502 210.85391
 213.70530 217.29629 220.99574 224.72316 228.28753 231.64854 234.68024 237.40893
 239.70644 241.60899 243.46854 245.67368 247.68154 249.52395 251.24767 252.78566
 254.12057 255.26479 256.23740 257.09036 257.82852 258.48160 259.07744 259.61723
 260.10271 260.53504 260.91270 261.39400
 399.73800 389.78500 379.66200 368.15100 356.64100 344.35000 331.79200 318.88800
 305.72600 292.49300 279.20900 266.73800 254.69600 244.21100 234.45700 225.43300
 217.56900 210.45100 204.30000 199.30600 195.45800 192.57600 191.02700 190.38600
 190.23900 190.53400 191.16600 191.92500 192.79500 193.76600 194.73200 195.31200
 195.80000 196.05200 196.11500 196.11500 196.03900 195.72300 195.34000 194.98900
 194.75100 194.79200 195.13300 195.59800 196.50600 198.13600 199.85800 201.56600
 204.17900 206.82300 209.89300 213.28400 216.82800 220.60500 224.38700 228.20900
 232.03200 235.82500 239.56000 243.25800 246.84500 250.20100 253.70900 257.46800
 261.53000 264.22100 266.60100 268.68100 270.32900 271.74100 272.83600 273.47400
 273.89800 274.00200 273.75700 273.28800 272.37100 271.10000 269.58900 267.77900
 265.81600 263.72100 261.39300 258.91600 256.29800 253.42300 250.33100 247.11400
 243.83700 240.52900 237.24900 233.99900 230.72800 227.51500 224.25400 220.95200
 217.62700 213.65600 210.12100 206.78900 204.01000 201.99491 199.07309 198.76551
 199.40006 200.48994 201.46112 202.31912 203.45100 204.96110 207.47502 210.85391
 213.70530 217.29629 220.99574 224.72316 228.28753 231.64854 234.68024 237.40893
 239.70644 241.60899 243.46854 245.67368 247.68154 249.52395 251.24767 252.78566
 254.12057 255.26479 256.23740 257.09036 257.82852 258.48160 259.07744 259.61723
 260.10271 260.53504 260.91270 261.39400
 399.33000 389.90700 379.81300 368.66800 357.52200 345.30100 333.07400 320.22700
 307.21600 293.84800 280.37600 267.29600 254.61000 242.98700 232.15100 221.97700
 212.67200 204.28600 197.66900 192.82100 189.48600 187.45200 186.81400 187.08900
 187.78100 189.05400 190.64800 192.54200 194.63000 196.75200 198.67100 200.15800
 201.53500 202.48700 202.97500 203.34000 203.53900 203.49700 203.38500 203.24700
 203.00500 202.78600 202.60300 202.43700 202.42600 202.88800 203.42000 203.95100
 204.89500 205.99200 207.30100 208.95800 210.73800 213.10000 215.56400 218.18000
 220.96600 223.91800 226.96100 230.09200 233.29300 236.55700 239.95500 243.53700
 246.84500 249.39000 251.54200 253.47400 255.19500 256.48400 257.43100 258.05900
 258.21200 258.04000 257.58200 256.64300 255.23900 253.50700 251.40800 249.05600
 246.57600 243.99400 241.38900 238.83000 236.34400 233.98600 231.96900 230.11800
 228.42300 226.89900 225.54800 224.29700 223.10500 221.96500 220.95800 220.11300
 219.49000 218.92000 218.32500 217.88100 217.42300 216.96366 216.35568 216.80261
 217.73415 218.28582 218.64258 219.10077 220.44626 222.53987 226.38451 230.35736
 233.59734 237.39164 241.29814 245.22796 248.98002 252.51130 255.78595 258.80109
 261.54781 264.05210 266.34239 268.04198 269.58951 271.01303 272.35754 273.55718
 274.59842 275.49092 276.28989 276.99307 277.60161 278.14001 278.63122 279.07623
 279.47646 279.83287 280.14422 280.54100
 381.81900 372.39900 361.20600 349.77600 337.62200 324.85300 311.81000 298.35300
 284.86000 271.32400 258.56100 246.30400 236.08700 226.79600 218.44800 211.29000
 205.52200 200.89400 197.38100 194.84800 193.01500 192.31500 192.25000 192.43100
 192.91200 193.53700 194.13600 194.71200 195.26200 195.83100 196.39300 196.97600
 197.60400 198.14900 198.58400 199.05700 199.69500 200.37800 201.05400 201.70800
 202.31300 202.85700 203.35500 203.86200 204.56900 205.29700 206.02600 206.98700
 208.19300 209.44100 210.96900 212.57600 214.46200 216.51300 218.63000 220.85300
 223.34100 225.96200 228.73900 231.69700 234.70600 237.70600 240.69200 243.65700
 246.73700 249.69900 252.52100 255.06300 257.29000 259.23300 260.63300 261.68000
 262.46100 262.79800 262.69100 262.22400 261.06900 259.52500 257.70700 255.50700
 253.00100 250.30200 247.39800 244.45200 241.65400 239.05400 236.73300 234.59000
 232.59500 230.72500 228.83400 226.82600 224.66600 222.38700 220.10400 217.71500
 215.45900 213.06600 210.54600 208.09300 205.35400 202.08130 196.05959 200.71215
 209.01611 216.90438 223.84126 229.78593 235.00632 240.20838 245.98943 250.68668
 254.32982 257.93487 261.55666 264.96801 268.15192 271.06452 273.76717 276.25691
 278.57680 280.74479 282.77456 284.60533 286.27232 287.81705 289.31715 290.65561
 291.81734 292.81312 293.70701 294.49387 295.17482 295.77730 296.32696 296.82492
 297.27278 297.67160 298.02000 298.46400
 366.78100 356.33556 345.76811 334.63467 323.03822 311.23278 299.10333 286.90689
 274.61944 262.51700 250.52655 239.82811 229.95066 221.05522 213.23777 206.24033
 200.07488 195.01344 191.59599 189.63855 188.67610 188.74066 189.57621 190.88477
 192.61032 194.70588 196.96943 199.32899 201.77454 204.25510 206.34365 208.18621
 209.81276 210.95832 211.18787 211.41643 211.35398 211.05954 210.69309 210.32365
 209.94120 209.65176 209.46031 209.32487 209.25342 209.58498 209.97153 210.36109
 211.15464 212.33320 213.58375 215.36731 217.29586 219.33942 221.43497 223.51853
 225.57908 227.66364 229.76119 231.86775 233.99730 236.16986 238.42641 240.79697
 243.41852 245.67008 247.67263 249.43819 250.85574 251.97930 252.80185 253.11841
 253.15596 252.93052 252.29107 251.23963 249.84618 248.00774 245.91729 243.75085
 241.54240 239.34696 237.16751 235.00707 232.86762 230.73518 228.76173 226.91929
 225.20284 223.67540 222.30595 221.07851 219.96106 218.92162 218.02617 217.16773
 216.41028 215.59084 214.68939 214.05395 213.50450 212.98860 211.77625 212.22070
 213.61385 215.53738 216.96722 217.41650 218.61977 222.64246 228.60698 233.48010
 237.26385 241.02376 244.79152 248.51675 252.09862 255.19980 257.80496 260.25214
 262.87244 265.46060 267.87363 270.00742 272.04126 273.99323 275.64038 277.23685
 278.89999 280.54688 282.06366 283.42221 284.60489 285.65277 286.61414 287.49036
 288.28110 288.99081 289.61667 290.45218
 366.78100 356.33469 345.76639 334.63208 323.03478 311.22847 299.09816 286.90086
 274.61255 262.50925 250.51794 239.81864 229.94033 221.04402 213.22572 206.22741
 200.06111 194.99880 191.58049 189.62219 188.65888 188.72258 189.55727 190.86496
 192.58966 194.68435 196.94705 199.30574 201.75044 204.23013 206.31782 208.15952
 209.78521 210.92991 211.15860 211.38629 211.32299 211.02768 210.66038 210.29007
 209.90676 209.61646 209.42415 209.28785 209.21554 209.54624 209.93193 210.32062
 211.11332 212.29101 213.54071 215.32340 217.25109 219.29379 221.38848 223.47118
 225.53087 227.61456 229.71126 231.81695 233.94565 236.11734 238.37303 240.74273
 243.36342 245.61412 247.61581 249.38051 250.79720 251.91989 252.74159 253.05728
 253.09398 252.86767 252.22736 251.17506 249.78075 247.94145 245.85014 243.68283
 241.47353 239.27722 237.09692 234.93561 232.79531 230.66200 228.68769 226.84439
 225.12708 223.59878 222.22847 221.00016 219.88186 218.84155 217.94525 217.08594
 216.32763 215.50733 214.60502 213.96872 213.41841 212.95155 211.85388 212.33104
 213.72795 215.65213 217.00157 217.53387 218.60893 222.66814 228.54149 233.39159
 237.17142 240.94211 244.72636 248.43515 251.93631 255.01205 257.65884 260.14789
 262.70917 265.27304 267.73154 269.89182 271.92596 273.86874 275.50891 277.10452
 278.77002 280.42545 281.94733 283.30539 284.48810 285.53766 286.49860 287.37454
 288.16534 288.87762 289.50378 290.33987
 366.78100 356.33376 345.76451 334.62927 323.03102 311.22378 299.09254 286.89429
 274.60505 262.50081 250.50856 239.80832 229.92907 221.03183 213.21259 206.21334
 200.04610 194.98285 191.56361 189.60437 188.64012 188.70288 189.53664 190.84339
 192.56715 194.66090 196.92266 199.28042 201.72417 204.20293 206.28968 208.13044
 209.75520 210.89895 211.12671 211.35347 211.28922 210.99298 210.62473 210.25349
 209.86925 209.57800 209.38476 209.24751 209.17427 209.50403 209.88878 210.27654
 211.06830 212.24505 213.49381 215.27556 217.20232 219.24408 221.33783 223.41959
 225.47834 227.56110 229.65686 231.76161 233.88937 236.06013 238.31488 240.68364
 243.30339 245.55315 247.55391 249.31766 250.73342 251.85517 252.67593 252.99069
 253.02644 252.79920 252.15796 251.10471 249.70947 247.86922 245.77698 243.60874
 241.39849 239.20125 237.02000 234.85776 232.71652 230.58227 228.60703 226.76279
 225.04454 223.51530 222.14405 220.91481 219.79557 218.75432 217.85708 216.99683
 216.23759 215.41635 214.51310 213.87586 213.32462 212.90944 211.93279 212.45049
 213.84116 215.74634 217.03767 217.61476 218.64049 222.70728 228.48361 233.30486
 237.07683 240.85347 244.65111 248.34360 251.76604 254.82011 257.51718 260.05438
 262.55432 265.08749 267.58371 269.77045 271.80820 273.74271 275.37799 276.97537
 278.65051 280.31183 281.83755 283.19696 284.38062 285.42996 286.39099 287.26791
 288.06070 288.77155 289.39728 290.23596
 366.78100 356.33295 345.76290 334.62685 323.02781 311.21976 299.08771 286.88866
 274.59861 262.49356 250.50051 239.79947 229.91942 221.02137 213.20132 206.20127
 200.03322 194.96917 191.54913 189.58908 188.62403 188.68598 189.51893 190.82488
 192.54783 194.64079 196.90174 199.25869 201.70164 204.17959 206.26554 208.10549
 209.72944 210.87240 211.09935 211.32530 211.26025 210.96320 210.59415 210.22210
 209.83706 209.54501 209.35096 209.21291 209.13886 209.46781 209.85176 210.23872
 211.02967 212.20562 213.45357 215.23452 217.16047 219.20142 221.29438 223.37533
 225.43328 227.51523 229.61018 231.71413 233.84108 236.01104 238.26499 240.63294
 243.25189 245.50084 247.50079 249.26374 250.67870 251.79965 252.61960 252.93355
 252.96850 252.74045 252.09840 251.04436 249.64831 247.80726 245.71421 243.54516
 241.33411 239.13606 236.95402 234.79097 232.64892 230.51387 228.53782 226.69277
 224.97372 223.44368 222.07163 220.84158 219.72153 218.67948 217.78143 216.92038
 216.16033 215.33829 214.43424 213.79619 213.24414 212.87393 212.00261 212.57881
 213.95580 215.82036 217.09000 217.66719 218.70749 222.73808 228.43513 233.22163
 236.98184 240.76215 244.57051 248.24887 251.59409 254.62796 257.37851 259.96561
 262.40115 264.89957 267.42856 269.64575 271.69333 273.62369 275.25363 276.84998
 278.53928 280.20264 281.73413 283.09488 284.27841 285.32886 286.29117 287.16910
 287.95908 288.67148 289.29776 290.13806
 366.78100 356.33227 345.76154 334.62481 323.02508 311.21635 299.08362 286.88389
 274.59316 262.48744 250.49371 239.79198 229.91125 221.01252 213.19179 206.19106
 200.02233 194.95760 191.53687 189.57614 188.61041 188.67168 189.50395 190.80922
 192.53149 194.62376 196.88403 199.24031 201.68258 204.15985 206.24512 208.08439
 209.70766 210.84993 211.07620 211.30147 211.23574 210.93801 210.56828 210.19555
 209.80982 209.51709 209.32236 209.18363 209.10890 209.43718 209.82045 210.20672
 210.99699 212.17226 213.41953 215.19980 217.12507 219.16534 221.25761 223.33788
 225.39515 227.47642 229.57069 231.67396 233.80023 235.96950 238.22277 240.59005
 243.20832 245.45659 247.45586 249.21813 250.63240 251.75267 252.57194 252.88521
 252.91948 252.69075 252.04802 250.99329 249.59656 247.75483 245.66110 243.49137
 241.27964 239.08092 236.89819 234.73446 232.59173 230.45600 228.47927 226.63354
 224.91381 223.38308 222.01035 220.77962 219.65889 218.61616 217.71743 216.85570
 216.09497 215.27224 214.36751 213.72879 213.17606 212.84552 212.06702 212.70418
 214.06787 215.89001 217.15347 217.71677 218.80191 222.75331 228.39455 233.14554
 236.88724 240.66951 244.48375 248.14746 251.41714 254.43073 257.23795 259.87585
 262.25674 264.71063 267.26752 269.51498 271.57755 273.50763 275.14105 276.73849
 278.43094 280.10330 281.63721 282.99960 284.18298 285.23361 286.19717 287.07275
 287.86444 288.57742 289.20264 290.04352
 366.78100 356.33154 345.76009 334.62263 323.02217 311.21272 299.07926 286.87880
 274.58735 262.48089 250.48643 239.78398 229.90252 221.00307 213.18161 206.18015
 200.01070 194.94524 191.52378 189.56233 188.59587 188.65641 189.48796 190.79250
 192.51404 194.60559 196.86513 199.22067 201.66222 204.13876 206.22330 208.06185
 209.68439 210.82593 211.05148 211.27602 211.20957 210.91111 210.54065 210.16720
 209.78074 209.48728 209.29183 209.15237 209.07691 209.40446 209.78700 210.17254
 210.96209 212.13663 213.38317 215.16272 217.08726 219.12680 221.21835 223.29789
 225.35443 227.43498 229.52852 231.63107 233.75661 235.92515 238.17770 240.54424
 243.16178 245.40933 247.40787 249.16941 250.58296 251.70250 252.52104 252.83359
 252.86713 252.63767 251.99422 250.93876 249.54130 247.69885 245.60439 243.43393
 241.22148 239.02202 236.83857 234.67411 232.53065 230.39420 228.41674 226.57028
 224.84983 223.31837 221.94491 220.71346 219.59200 218.54854 217.64909 216.78663
 216.02517 215.20172 214.29626 213.65680 213.10335 212.81522 212.13597 212.82480
 214.17479 215.95831 217.21344 217.77786 218.91220 222.76360 228.36244 233.07716
 236.79590 240.57837 244.39465 248.03983 251.23582 254.22626 257.08679 259.77670
 262.11920 264.52512 267.09921 269.37036 271.45111 273.38989 275.04248 276.65842
 278.35419 280.01273 281.54495 282.90768 284.09039 285.14261 286.10437 286.97943
 287.77475 288.48508 289.11212 289.95407
 366.78100 356.33080 345.75861 334.62041 323.01921 311.20902 299.07482 286.87362
 274.58143 262.47423 250.47903 239.77584 229.89364 220.99344 213.17125 206.16905
 199.99885 194.93266 191.51046 189.54826 188.58107 188.64087 189.47167 190.77548
 192.49628 194.58708 196.84589 199.20069 201.64149 204.11729 206.20110 208.03890
 209.66070 210.80151 211.02631 211.25011 211.18292 210.88372 210.51252 210.13833
 209.75113 209.45693 209.26074 209.12054 209.04434 209.37115 209.75295 210.13775
 210.92656 212.10036 213.34616 215.12497 217.04877 219.08757 221.17838 223.25718
 225.31298 227.39279 229.48559 231.58739 233.71220 235.88000 238.13180 240.49761
 243.11441 245.36121 247.35902 249.11982 250.53262 251.65143 252.46923 252.78103
 252.81384 252.58364 251.93944 250.88325 249.48505 247.64185 245.54666 243.37546
 241.16226 238.96207 236.77787 234.61267 232.46848 230.33128 228.35308 226.50588
 224.78469 223.25249 221.87829 220.64610 219.52390 218.47970 217.57951 216.71631
 215.95411 215.12992 214.22372 213.58352 213.02933 212.78485 212.20795 212.94672
 214.27654 216.02617 217.26961 217.84122 219.01994 222.78337 228.33487 233.01402
 236.71193 240.49162 244.30830 247.93039 251.05499 254.01917 256.92618 259.66794
 261.97946 264.34683 266.92383 269.20865 271.30594 273.25394 274.92407 276.56375
 278.26599 279.96124 281.50351 282.86945 284.05450 285.10861 286.07352 286.95627
 287.75647 288.47546 289.10880 289.95041
 366.78100 356.33018 345.75736 334.61854 323.01672 311.20589 299.07107 286.86925
 274.57643 262.46861 250.47279 239.76897 229.88615 220.98533 213.16250 206.15968
 199.98886 194.92204 191.49922 189.53640 188.56858 188.62776 189.45794 190.76111
 192.48129 194.57147 196.82965 199.18383 201.62401 204.09919 206.18237 208.01955
 209.64072 210.78090 211.00508 211.22826 211.16044 210.86062 210.48880 210.11398
 209.72616 209.43133 209.23451 209.09369 209.01687 209.34305 209.72423 210.10841
 210.89659 212.06977 213.31494 215.09312 217.01630 219.05448 221.14466 223.22284
 225.27802 227.35720 229.44938 231.55055 233.67473 235.84191 238.09309 240.45827
 243.07445 245.32063 247.31781 249.07799 250.49016 251.60834 252.42552 252.73670
 252.76888 252.53806 251.89324 250.83642 249.43760 247.59377 245.49795 243.32613
 241.11231 238.91149 236.72667 234.56085 232.41603 230.27821 228.29938 226.45156
 224.72974 223.19692 221.82210 220.58928 219.46646 218.42164 217.52082 216.65699
 215.89417 215.06935 214.16253 213.52171 212.96689 212.76123 212.27538 213.06839
 214.37573 216.09706 217.33339 217.89499 219.12598 222.80943 228.31374 232.95125
 236.63062 240.40869 244.22530 247.82114 250.87692 253.81041 256.75641 259.54828
 261.83563 264.17630 266.74789 269.04581 271.16467 273.12421 274.80823 276.46494
 278.18829 279.92285 281.46976 282.83609 284.02280 285.07709 286.04468 286.92780
 287.73251 288.45456 289.08777 289.93176
 366.78100 356.32973 345.75645 334.61718 323.01491 311.20363 299.06836 286.86609
 274.57281 262.46454 250.46827 239.76399 229.88072 220.97945 213.15617 206.15290
 199.98163 194.91435 191.49108 189.52781 188.55953 188.61826 189.44799 190.75071
 192.47044 194.56017 196.81789 199.17162 201.61135 204.08607 206.16880 208.00553
 209.62625 210.76598 210.98970 211.21243 211.14416 210.84388 210.47161 210.09634
 209.70806 209.41279 209.21552 209.07424 208.99697 209.32270 209.70342 210.08715
 210.87488 212.04760 213.29233 215.07006 216.99278 219.03051 221.12024 223.19796
 225.25269 227.33142 229.42314 231.52387 233.64760 235.81432 238.06505 240.42978
 243.04550 245.29123 247.28796 249.04768 250.45941 251.57714 252.39386 252.70459
 252.73632 252.50504 251.85977 250.80250 249.40322 247.55895 245.46268 243.29040
 241.07613 238.87486 236.68958 234.52331 232.37804 230.23976 228.26049 226.41222
 224.68994 223.15667 221.78140 220.54812 219.42485 218.37958 217.47830 216.61403
 215.85075 215.02548 214.11821 213.47693 212.92166 212.74806 212.33794 213.18700
 214.47261 216.17331 217.40479 217.95207 219.23215 222.83820 228.29216 232.88914
 236.55150 240.33241 244.14638 247.71004 250.69641 253.59528 256.57397 259.41333
 261.68954 264.01074 266.57330 268.88818 271.03412 273.01199 274.70844 276.37796
 278.13297 279.88156 281.43121 282.79828 283.98615 285.04175 286.00952 286.89481
 287.70190 288.42395 289.06009 289.90576
 366.78100 356.32932 345.75564 334.61596 323.01327 311.20159 299.06591 286.86323
 274.56955 262.46087 250.46419 239.75950 229.87582 220.97414 213.15046 206.14678
 199.97510 194.90742 191.48373 189.52005 188.55137 188.60969 189.43901 190.74133
 192.46065 194.54996 196.80728 199.16060 201.59992 204.07424 206.15656 207.99288
 209.61319 210.75251 210.97583 211.19815 211.12947 210.82879 210.45611 210.08043
 209.69174 209.39606 209.19838 209.05670 208.97902 209.30434 209.68466 210.06797
 210.85529 212.02761 213.27193 215.04925 216.97157 219.00889 221.09820 223.17552
 225.22984 227.30816 229.39948 231.49980 233.62312 235.78943 238.03975 240.40407
 243.01939 245.26471 247.26103 249.02035 250.43166 251.54898 252.36530 252.67562
 252.70694 252.47526 251.82958 250.77189 249.37221 247.52753 245.43085 243.25817
 241.04349 238.84181 236.65612 234.48944 232.34376 230.20508 228.22540 226.37672
 224.65404 223.12035 221.74467 220.51099 219.38731 218.34163 217.43995 216.57527
 215.81158 214.98590 214.07822 213.43654 212.88086 212.73936 212.40506 213.29716
 214.56950 216.24680 217.48244 218.00604 219.35876 222.86426 228.27028 232.82634
 236.47186 240.25879 244.06833 247.59737 250.51671 253.37804 256.38315 259.26663
 261.54510 263.84961 266.40054 268.73279 270.91061 272.91083 274.62366 276.30627
 278.08685 279.84406 281.39536 282.76303 283.95239 285.00803 285.97800 286.86368
 287.67401 288.39978 289.03482 289.88199
 366.78100 356.32900 345.75500 334.61501 323.01201 311.20001 299.06401 286.86101
 274.56701 262.45802 250.46102 239.75602 229.87202 220.97002 213.14603 206.14203
 199.97003 194.90203 191.47803 189.51403 188.54504 188.60304 189.43204 190.73404
 192.45304 194.54205 196.79905 199.15205 201.59105 204.06505 206.14705 207.98306
 209.60306 210.74206 210.96506 211.18706 211.11807 210.81707 210.44407 210.06807
 209.67907 209.38307 209.18508 209.04308 208.96508 209.29008 209.67008 210.05309
 210.84009 212.01209 213.25609 215.03309 216.95509 218.99210 221.08110 223.15810
 225.21210 227.29010 229.38111 231.48111 233.60411 235.77011 238.02011 240.38411
 242.99912 245.24412 247.24012 248.99912 250.41012 251.52713 252.34313 252.65313
 252.68413 252.45213 251.80613 250.74814 249.34814 247.50314 245.40614 243.23314
 241.01815 238.81615 236.63015 234.46315 232.31715 230.17815 228.19816 226.34916
 224.62616 223.09216 221.71616 220.48217 219.35817 218.31217 217.41017 216.54517
 215.78117 214.95518 214.04718 213.40518 212.84918 212.73700 212.47195 213.41418
 214.66222 216.31781 217.55150 218.06581 219.48761 222.88567 228.25385 232.76665
 236.39342 240.18672 243.99020 247.48161 250.33461 253.15668 256.18359 259.10678
 261.40375 263.70364 266.24332 268.59534 270.80692 272.83572 274.56775 276.26257
 278.03625 279.78653 281.33731 282.70297 283.89056 284.94473 285.91187 286.79398
 287.60315 288.32245 288.94495 289.77737
 366.78100 356.32850 345.75401 334.61351 323.01002 311.19752 299.06103 286.85753
 274.56304 262.45354 250.45605 239.75055 229.86606 220.96356 213.13907 206.13457
 199.96208 194.89358 191.46908 189.50459 188.53509 188.59260 189.42110 190.72261
 192.44111 194.52962 196.78612 199.13863 201.57713 204.05064 206.13214 207.96765
 209.58715 210.72565 210.94816 211.16966 211.10017 210.79867 210.42518 210.04868
 209.65919 209.36269 209.16420 209.02170 208.94321 209.26771 209.64722 210.02972
 210.81623 211.98773 213.23123 215.00774 216.92924 218.96575 221.05425 223.13076
 225.18426 227.26177 229.35227 231.45178 233.57428 235.73979 237.98929 240.35280
 242.96730 245.21180 247.20731 248.96581 250.37632 251.49282 252.30833 252.61783
 252.64834 252.41584 251.76935 250.71085 249.31036 247.46486 245.36737 243.19387
 240.97838 238.77588 236.58938 234.42189 232.27539 230.13590 228.15540 226.30591
 224.58241 223.04792 221.67142 220.43693 219.31243 218.26594 217.36344 216.49795
 215.73345 214.90695 213.99846 213.35596 212.79947 212.72649 212.55408 213.54428
 214.73422 216.36391 217.65182 218.13301 219.64708 222.92331 228.21736 232.69031
 236.30569 240.10764 243.90042 247.34827 250.13431 252.92297 255.97266 258.93460
 261.27039 263.57993 266.10709 268.47882 270.72369 272.78458 274.53650 276.23676
 277.99396 279.73969 281.28922 282.65546 283.84329 284.89682 285.86453 286.74911
 287.55746 288.28159 288.90253 289.73724
 366.78100 356.32772 345.75244 334.61117 323.00689 311.19361 299.05633 286.85205
 274.55677 262.44650 250.44822 239.74194 229.85666 220.95338 213.12810 206.12283
 199.94955 194.88027 191.45499 189.48971 188.51944 188.57616 189.40388 190.70460
 192.42232 194.51004 196.76577 199.11749 201.55521 204.02793 206.10865 207.94337
 209.56210 210.69982 210.92154 211.14226 211.07198 210.76971 210.39543 210.01815
 209.62787 209.33059 209.13131 208.98804 208.90876 209.23248 209.61120 209.99292
 210.77864 211.94937 213.19209 214.96781 216.88853 218.92425 221.01198 223.08770
 225.14042 227.21714 229.30686 231.40558 233.52731 235.69203 237.94075 240.30347
 242.91719 245.16091 247.15564 248.91336 250.32308 251.43880 252.25352 252.56225
 252.59197 252.35869 251.71141 250.65213 249.25085 247.40458 245.30630 243.13202
 240.91574 238.71246 236.52518 234.35691 232.20963 230.06935 228.08807 226.23779
 224.51352 222.97824 221.60096 220.36568 219.24040 218.19312 217.28985 216.42357
 215.65829 214.83101 213.92173 213.27845 212.72118 212.70055 212.65182 213.70761
 214.79744 216.31839 217.76823 218.32106 219.78819 222.89148 228.17165 232.61290
 236.21414 240.02397 243.80447 247.20638 249.93423 252.69691 255.76610 258.76660
 261.16010 263.48373 265.98984 268.37781 270.65347 272.74979 274.52429 276.22778
 277.96533 279.69421 281.24097 282.60840 283.79556 284.84894 285.81619 286.70197
 287.51239 288.23572 288.85345 289.69409
 366.78100 356.32696 345.75092 334.60888 323.00384 311.18980 299.05177 286.84673
 274.55069 262.43965 250.44061 239.73357 229.84753 220.94349 213.11745 206.11141
 199.93738 194.86734 191.44130 189.47526 188.50422 188.56018 189.38714 190.68710
 192.40406 194.49102 196.74598 199.09695 201.53391 204.00587 206.08583 207.91979
 209.53775 210.67471 210.89567 211.11563 211.04459 210.74156 210.36652 209.98848
 209.59744 209.29940 209.09936 208.95532 208.87528 209.19824 209.57620 209.95717
 210.74213 211.91209 213.15405 214.92901 216.84897 218.88393 220.97089 223.04585
 225.09781 227.17377 229.26274 231.36070 233.48166 235.64562 237.89358 240.25554
 242.86850 245.11146 247.10542 248.86238 250.27135 251.38631 252.20027 252.50823
 252.53719 252.30315 251.65511 250.59507 249.19303 247.34599 245.24695 243.07192
 240.85488 238.65084 236.46280 234.29376 232.14572 230.00468 228.02264 226.17160
 224.44656 222.91053 221.53249 220.29645 219.17041 218.12237 217.21833 216.35129
 215.58525 214.75721 213.84717 213.20313 212.64510 212.67560 212.74770 213.86929
 214.94322 216.33588 217.72710 218.42700 219.92781 222.84911 228.13806 232.54259
 236.11824 239.93620 243.70276 247.06082 249.73994 252.47987 255.56296 258.59879
 261.06073 263.40674 265.89392 268.29828 270.60373 272.73376 274.53229 276.23267
 277.95410 279.65045 281.19540 282.56259 283.74768 284.80197 285.76794 286.65436
 287.46591 288.18451 288.80246 289.64447
 366.78100 356.32644 345.74988 334.60732 323.00176 311.18720 299.04863 286.84307
 274.54651 262.43495 250.43539 239.72783 229.84127 220.93671 213.11015 206.10359
 199.92903 194.85846 191.43190 189.46534 188.49378 188.54922 189.37566 190.67510
 192.39154 194.47798 196.73242 199.08286 201.51930 203.99073 206.07017 207.90361
 209.52105 210.65749 210.87793 211.09737 211.02581 210.72225 210.34669 209.96813
 209.57656 209.27800 209.07744 208.93288 208.85232 209.17476 209.55220 209.93264
 210.71708 211.88652 213.12796 214.90239 216.82183 218.85627 220.94271 223.01715
 225.06859 227.14403 229.23247 231.32991 233.45035 235.61379 237.86122 240.22266
 242.83510 245.07754 247.07098 248.82742 250.23586 251.35030 252.16374 252.47118
 252.49962 252.26505 251.61649 250.55593 249.15337 247.30581 245.20625 243.03069
 240.81313 238.60857 236.42001 234.25045 232.10189 229.96032 227.97776 226.12620
 224.40064 222.86408 221.48552 220.24896 219.12240 218.07384 217.16928 216.30172
 215.53515 214.70659 213.79603 213.15147 212.59291 212.66667 212.84096 213.98842
 215.12077 216.43723 217.67374 218.48824 220.05212 222.84996 228.09325 232.44742
 236.00652 239.83240 243.58438 246.89574 249.52940 252.25546 255.35289 258.42239
 260.96188 263.34518 265.82321 268.24237 270.57678 272.74646 274.57425 276.25787
 277.95102 279.60349 281.14963 282.51688 283.70377 284.75821 285.72455 286.61261
 287.42731 288.14062 288.76404 289.61026
 366.78100 356.32604 345.74907 334.60611 323.00014 311.18518 299.04621 286.84025
 274.54328 262.43132 250.43135 239.72339 229.83642 220.93146 213.10449 206.09753
 199.92256 194.85160 191.42463 189.45767 188.48570 188.54074 189.36677 190.66581
 192.38184 194.46788 196.72191 199.07195 201.50798 203.97902 206.05805 207.89109
 209.50812 210.64416 210.86419 211.08323 211.01126 210.70730 210.33133 209.95237
 209.56040 209.26144 209.06047 208.91551 208.83454 209.15658 209.53361 209.91365
 210.69768 211.86672 213.10775 214.88179 216.80082 218.83486 220.92089 222.99493
 225.04596 227.12100 229.20903 231.30607 233.42610 235.58914 237.83617 240.19721
 242.80924 245.05128 247.04431 248.80035 250.20838 251.32242 252.13545 252.44249
 252.47052 252.23556 251.58659 250.52563 249.12266 247.27470 245.17473 242.99877
 240.78080 238.57584 236.38687 234.21691 232.06794 229.92598 227.94301 226.09105
 224.36508 222.82812 221.44915 220.21219 219.08523 218.03626 217.13130 216.26333
 215.49637 214.66740 213.75644 213.11147 212.55251 212.66794 212.94069 214.08295
 215.26411 216.56227 217.68526 218.58699 220.17749 222.93668 228.04007 232.35100
 235.89363 239.72932 243.46013 246.71748 249.31146 252.02118 255.12537 258.21619
 260.83160 263.26746 265.74316 268.18631 270.55032 272.76382 274.64893 276.36417
 278.05225 279.62891 281.06766 282.41904 283.60117 284.64850 285.60641 286.48834
 287.30127 288.00906 288.63150 289.49365
 366.78100 356.32606 345.74913 334.60619 323.00026 311.18532 299.04639 286.84045
 274.54352 262.43158 250.43165 239.72371 229.83677 220.93184 213.10490 206.09797
 199.92303 194.85210 191.42516 189.45823 188.48629 188.54135 189.36742 190.66648
 192.38255 194.46861 196.72268 199.07274 201.50881 203.97987 206.05894 207.89200
 209.50906 210.64513 210.86519 211.08426 211.01232 210.70839 210.33245 209.95352
 209.56158 209.26264 209.06171 208.91677 208.83584 209.15790 209.53497 209.91503
 210.69910 211.86816 213.10923 214.88329 216.80235 218.83642 220.92248 222.99655
 225.04761 227.12268 229.21074 231.30781 233.42787 235.59093 237.83800 240.19906
 242.81113 245.05319 247.04626 248.80232 250.21039 251.32445 252.13752 252.44458
 252.47264 252.23771 251.58877 250.52784 249.12490 247.27697 245.17703 243.00110
 240.78316 238.57822 236.38929 234.21935 232.07042 229.92848 227.94555 226.09361
 224.36768 222.83074 221.45181 220.21487 219.08793 218.03900 217.13406 216.26613
 215.49919 214.67026 213.75932 213.11439 212.55545 212.69595 213.02792 214.20094
 215.35498 216.59879 217.73405 218.71857 220.29890 223.05836 227.98615 232.26862
 235.79591 239.64041 243.34486 246.54208 249.11200 251.80209 254.90767 258.01910
 260.71942 263.18600 265.66644 268.12177 270.50708 272.74164 274.67026 276.41379
 278.10226 279.65390 281.09988 282.45782 283.64313 284.69449 285.65637 286.54575
 287.36435 288.06238 288.68436 289.52332
 366.78100 356.32667 345.75035 334.60802 323.00269 311.18837 299.05004 286.84471
 274.54839 262.43706 250.43773 239.73041 229.84408 220.93975 213.11343 206.10710
 199.93277 194.86245 191.43612 189.46979 188.49847 188.55414 189.38081 190.68049
 192.39716 194.48383 196.73851 199.08918 201.52585 203.99753 206.07720 207.91087
 209.52855 210.66522 210.88589 211.10557 211.03424 210.73091 210.35559 209.97726
 209.58593 209.28761 209.08728 208.94295 208.86263 209.18530 209.56297 209.94365
 210.72832 211.89799 213.13967 214.91434 216.83401 218.86869 220.95536 223.03003
 225.08171 227.15738 229.24605 231.34373 233.46440 235.62807 237.87575 240.23742
 242.85009 245.09277 247.08644 248.84311 250.25179 251.36646 252.18013 252.48781
 252.51648 252.28215 251.63383 250.57350 249.17117 247.32385 245.22452 243.04919
 240.83187 238.62754 236.43921 234.26989 232.12156 229.98023 227.99791 226.14658
 224.42125 222.88493 221.50660 220.27027 219.14395 218.09562 217.19129 216.32397
 215.55764 214.72931 213.81899 213.17466 212.61633 212.75821 213.10641 214.35773
 215.34918 216.51656 217.79512 218.82195 220.37642 223.10558 227.90764 232.17685
 235.69624 239.55811 243.24574 246.39438 248.91997 251.56329 254.69441 257.85037
 260.65140 263.20828 265.68268 268.15363 270.54730 272.78763 274.77097 276.52719
 278.16153 279.68103 281.13672 282.50574 283.69473 284.75497 285.73398 286.62381
 287.42389 288.15363 288.81076 289.64819
 366.78100 356.32664 345.75028 334.60791 323.00255 311.18819 299.04983 286.84446
 274.54810 262.43674 250.43738 239.73001 229.84365 220.93929 213.11293 206.10656
 199.93220 194.86184 191.43548 189.46911 188.49775 188.55339 189.38003 190.67967
 192.39630 194.48294 196.73758 199.08822 201.52485 203.99649 206.07613 207.90977
 209.52740 210.66404 210.88468 211.10432 211.03295 210.72959 210.35423 209.97587
 209.58450 209.28614 209.08578 208.94142 208.86106 209.18369 209.56133 209.94197
 210.72661 211.89624 213.13788 214.91252 216.83216 218.86679 220.95343 223.02807
 225.07971 227.15534 229.24398 231.34162 233.46226 235.62590 237.87353 240.23517
 242.84781 245.09045 247.08408 248.84072 250.24936 251.36400 252.17763 252.48527
 252.51391 252.27955 251.63118 250.57082 249.16846 247.32110 245.22173 243.04637
 240.82901 238.62465 236.43629 234.26692 232.11856 229.97720 227.99484 226.14347
 224.41811 222.88175 221.50339 220.26702 219.14066 218.09230 217.18794 216.32057
 215.55421 214.72585 213.81549 213.17112 212.61276 212.78355 213.22266 214.53506
 215.32465 216.51154 217.87605 218.95335 220.53584 223.26192 227.83163 232.08424
 235.59032 239.41792 243.04634 246.13266 248.70808 251.38289 254.49089 257.63770
 260.52264 263.17334 265.72986 268.23068 270.63681 272.88614 274.89853 276.67932
 278.29721 279.77206 281.17584 282.54123 283.73135 284.79907 285.79077 286.70889
 287.59851 288.39932 289.09888 289.99039
 366.78100 356.32686 345.75071 334.60857 323.00343 311.18928 299.05114 286.84599
 274.54985 262.43871 250.43956 239.73242 229.84628 220.94213 213.11599 206.10984
 199.93570 194.86556 191.43941 189.47327 188.50213 188.55798 189.38484 190.68469
 192.40155 194.48841 196.74326 199.09412 201.53098 204.00283 206.08269 207.91654
 209.53440 210.67126 210.89211 211.11197 211.04083 210.73768 210.36254 209.98440
 209.59325 209.29511 209.09496 208.95082 208.87068 209.19353 209.57139 209.95225
 210.73710 211.90696 213.14881 214.92367 216.84353 218.87838 220.96524 223.04010
 225.09195 227.16781 229.25666 231.35452 233.47538 235.63923 237.88709 240.24895
 242.86180 245.10466 247.09851 248.85537 250.26423 251.37908 252.19294 252.50080
 252.52965 252.29551 251.64736 250.58722 249.18508 247.33793 245.23879 243.06365
 240.84650 238.64236 236.45422 234.28507 232.13693 229.99578 228.01364 226.16250
 224.43735 222.90121 221.52307 220.28692 219.16078 218.11263 217.20849 216.34135
 215.57520 214.74706 213.83692 213.19277 212.63463 212.81569 213.28352 214.65327
 215.53329 216.78729 218.01222 219.01598 220.59842 223.30771 227.74806 231.93341
 235.44252 239.20990 242.75127 245.75822 248.34058 251.05965 254.19301 257.36499
 260.29926 263.02765 265.66287 268.20267 270.63699 272.91843 274.97839 276.79208
 278.40497 279.83493 281.21094 282.57053 283.76019 284.82730 285.81815 286.74164
 287.62305 288.40799 289.09366 289.96750
 366.78100 356.32687 345.75074 334.60861 323.00349 311.18936 299.05123 286.84610
 274.54997 262.43884 250.43971 239.73259 229.84646 220.94233 213.11620 206.11007
 199.93594 194.86581 191.43969 189.47356 188.50243 188.55830 189.38517 190.68504
 192.40191 194.48878 196.74366 199.09453 201.53140 204.00327 206.08314 207.91701
 209.53488 210.67176 210.89263 211.11250 211.04137 210.73824 210.36311 209.98498
 209.59386 209.29573 209.09560 208.95147 208.87134 209.19421 209.57208 209.95296
 210.73783 211.90770 213.14957 214.92444 216.84431 218.87918 220.96606 223.04093
 225.09280 227.16867 229.25754 231.35541 233.47628 235.64015 237.88803 240.24990
 242.86277 245.10564 247.09951 248.85638 250.26525 251.38013 252.19400 252.50187
 252.53074 252.29661 251.64848 250.58835 249.18623 247.33910 245.23997 243.06484
 240.84771 238.64358 236.45545 234.28633 232.13820 229.99707 228.01494 226.16381
 224.43868 222.90255 221.52443 220.28830 219.16217 218.11404 217.20991 216.34278
 215.57665 214.74852 213.83840 213.19427 212.63614 212.83931 213.35364 214.70984
 215.71490 217.06500 218.19748 219.14532 220.72115 223.37686 227.71220 231.80411
 235.31303 239.01181 242.46660 245.39949 247.97958 250.74164 253.90945 257.10864
 260.07938 262.85736 265.53815 268.10947 270.56870 272.87286 274.95224 276.77530
 278.38766 279.84311 281.23944 282.60254 283.79102 284.85376 285.84372 286.75446
 287.61078 288.37717 289.04669 289.89990
 366.78100 356.32847 345.75394 334.61341 323.00988 311.19735 299.06082 286.85729
 274.56276 262.45323 250.45570 239.75017 229.86564 220.96311 213.13858 206.13405
 199.96152 194.89299 191.46846 189.50393 188.53440 188.59187 189.42034 190.72181
 192.44028 194.52875 196.78522 199.13769 201.57616 204.04963 206.13110 207.96657
 209.58604 210.72451 210.94698 211.16845 211.09892 210.79739 210.42386 210.04733
 209.65780 209.36127 209.16274 209.02021 208.94168 209.26615 209.64562 210.02809
 210.81456 211.98603 213.22949 215.00596 216.92743 218.96390 221.05237 223.12884
 225.18231 227.25978 229.35025 231.44972 233.57219 235.73766 237.98713 240.35060
 242.96507 245.20954 247.20501 248.96348 250.37395 251.49042 252.30589 252.61536
 252.64583 252.41330 251.76677 250.70824 249.30771 247.46218 245.36465 243.19112
 240.97559 238.77306 236.58653 234.41900 232.27247 230.13294 228.15241 226.30288
 224.57935 223.04482 221.66829 220.43376 219.30923 218.26270 217.36017 216.49464
 215.73011 214.90358 213.99505 213.35252 212.79599 212.94673 213.33385 214.79602
 215.80365 217.14012 218.41196 219.41264 220.99641 223.55136 227.77130 231.76666
 235.25719 238.89313 242.26245 245.12114 247.68849 250.47594 253.66727 256.89966
 259.93805 262.78510 265.50235 268.09033 270.53937 272.82260 274.88281 276.70270
 278.34079 279.81537 281.16919 282.53220 283.71323 284.76932 285.73956 286.61584
 287.40900 288.13489 288.76901 289.57715
 366.78100 356.32984 345.75668 334.61753 323.01537 311.20421 299.06905 286.86689
 274.57373 262.46558 250.46942 239.76526 229.88210 220.98094 213.15779 206.15463
 199.98347 194.91631 191.49315 189.52999 188.56184 188.62068 189.45052 190.75336
 192.47320 194.56305 196.82089 199.17473 201.61457 204.08941 206.17225 208.00910
 209.62994 210.76978 210.99362 211.21646 211.14831 210.84815 210.47599 210.10083
 209.71267 209.41751 209.22036 209.07920 209.00204 209.32788 209.70872 210.09257
 210.88041 212.05325 213.29809 215.07593 216.99877 219.03662 221.12646 223.20430
 225.25914 227.33798 229.42983 231.53067 233.65451 235.82135 238.07219 240.43703
 243.05288 245.29872 247.29556 249.05540 250.46724 251.58509 252.40193 252.71277
 252.74461 252.51345 251.86829 250.81114 249.41198 247.56782 245.47166 243.29950
 241.08535 238.88419 236.69903 234.53287 232.38771 230.24955 228.27040 226.42224
 224.70008 223.16692 221.79176 220.55861 219.43545 218.39029 217.48913 216.62497
 215.86181 215.03666 214.12950 213.48834 212.93318 213.04665 213.32678 214.87344
 215.95659 217.26057 218.55898 219.58194 221.21216 223.69820 227.83211 231.74666
 235.17786 238.73268 241.98894 244.78261 247.36374 250.19978 253.43599 256.73026
 259.86060 262.78000 265.50262 268.07248 270.48724 272.73438 274.78287 276.61859
 278.29471 279.81891 281.15860 282.40311 283.56146 284.60825 285.57401 286.42401
 287.18820 287.89355 288.53467 289.35168
 366.78100 356.33026 345.75751 334.61877 323.01703 311.20628 299.07154 286.86980
 274.57705 262.46931 250.47357 239.76983 229.88708 220.98634 213.16360 206.16085
 199.99011 194.92337 191.50062 189.53788 188.57014 188.62939 189.45965 190.76291
 192.48316 194.57342 196.83168 199.18594 201.62619 204.10145 206.18471 208.02196
 209.64322 210.78348 211.00773 211.23099 211.16325 210.86350 210.49176 210.11702
 209.72927 209.43453 209.23779 209.09704 209.02030 209.34656 209.72782 210.11207
 210.90033 212.07359 213.31884 215.09710 217.02036 219.05861 221.14887 223.22713
 225.28238 227.36164 229.45390 231.55515 233.67941 235.84667 238.09793 240.46318
 243.07944 245.32570 247.32295 249.08321 250.49547 251.61372 252.43098 252.74224
 252.77449 252.54375 251.89901 250.84226 249.44352 247.59978 245.50403 243.33229
 241.11855 238.91781 236.73306 234.56732 232.42258 230.28483 228.30609 226.45835
 224.73660 223.20386 221.82912 220.59637 219.47363 218.42889 217.52814 216.66440
 215.90166 215.07692 214.17017 213.52943 212.97469 213.09627 213.38350 214.95793
 216.11215 217.44717 218.68091 219.70157 221.36266 223.78995 227.85295 231.72820
 235.07489 238.53874 241.67107 244.40813 247.03606 249.96172 253.25502 256.60242
 259.79739 262.75870 265.47705 268.02621 270.41870 272.65366 274.70410 276.56638
 278.29709 279.85867 281.22583 282.41318 283.42651 284.47034 285.42798 286.22137
 286.94104 287.63510 288.27466 289.15201
 366.78100 356.33013 345.75726 334.61839 323.01652 311.20565 299.07078 286.86891
 274.57604 262.46817 250.47230 239.76843 229.88556 220.98469 213.16182 206.15895
 199.98808 194.92121 191.49834 189.53547 188.56760 188.62673 189.45686 190.75999
 192.48012 194.57025 196.82838 199.18251 201.62264 204.09777 206.18090 208.01803
 209.63916 210.77929 211.00342 211.22655 211.15868 210.85881 210.48694 210.11207
 209.72420 209.42933 209.23246 209.09159 209.01472 209.34085 209.72198 210.10611
 210.89424 212.06737 213.31250 215.09063 217.01375 219.05188 221.14201 223.22014
 225.27527 227.35440 229.44653 231.54766 233.67179 235.83892 238.09005 240.45518
 243.07131 245.31744 247.31457 249.07470 250.48683 251.60496 252.42209 252.73322
 252.76535 252.53448 251.88961 250.83274 249.43387 247.59000 245.49413 243.32226
 241.10839 238.90752 236.72265 234.55678 232.41191 230.27404 228.29517 226.44730
 224.72543 223.19256 221.81769 220.58482 219.46195 218.41708 217.51621 216.65234
 215.88947 215.06460 214.15773 213.51686 212.96199 213.12120 213.49739 215.01076
 216.20882 217.60974 218.74185 219.77917 221.50250 223.86841 227.87088 231.72951
 235.02261 238.39233 241.39682 244.05864 246.71838 249.72551 253.08606 256.48859
 259.73160 262.72913 265.47327 268.03101 270.41229 272.63251 274.68683 276.57397
 278.32343 279.88467 281.23743 282.40442 283.49570 284.52670 285.44351 286.03793
 286.75571 287.44714 288.07526 288.97198
 366.78100 356.32886 345.75472 334.61457 323.01143 311.19929 299.06315 286.86000
 274.56586 262.45672 250.45958 239.75443 229.87029 220.96815 213.14401 206.13986
 199.96772 194.89958 191.47544 189.51129 188.54215 188.60001 189.42887 190.73073
 192.44958 194.53844 196.79530 199.14816 201.58701 204.06087 206.14273 207.97859
 209.59844 210.73730 210.96016 211.18202 211.11287 210.81173 210.43859 210.06245
 209.67331 209.37716 209.17902 209.03688 208.95874 209.28359 209.66345 210.04631
 210.83317 212.00502 213.24888 215.02574 216.94760 218.98445 221.07331 223.15017
 225.20403 227.28188 229.37274 231.47260 233.59546 235.76132 238.01117 240.37503
 242.98989 245.23475 247.23060 248.98946 250.40032 251.51718 252.33303 252.64289
 252.67375 252.44161 251.79546 250.73732 249.33718 247.49204 245.39489 243.22175
 241.00661 238.80447 236.61833 234.45118 232.30504 230.16590 228.18576 226.33661
 224.61347 223.07933 221.70319 220.46904 219.34490 218.29876 217.39662 216.53147
 215.76733 214.94119 214.03305 213.39090 212.83476 213.08455 213.67468 215.11404
 216.13045 217.68085 218.82098 219.77600 221.59706 223.94510 227.93050 231.78796
 235.01825 238.28648 241.16071 243.74084 246.43671 249.51392 252.93604 256.38727
 259.68475 262.73605 265.52551 268.09772 270.46613 272.66034 274.70474 276.59485
 278.34183 279.89670 281.25165 282.41656 283.51804 284.52414 285.34604 286.01718
 286.78046 287.48724 288.15515 289.05972
 366.78100 356.33022 345.75744 334.61866 323.01688 311.20610 299.07132 286.86953
 274.57675 262.46897 250.47319 239.76941 229.88663 220.98585 213.16307 206.16029
 199.98951 194.92273 191.49995 189.53716 188.56938 188.62860 189.45882 190.76204
 192.48226 194.57248 196.83070 199.18492 201.62514 204.10036 206.18358 208.02079
 209.64201 210.78223 211.00645 211.22967 211.16189 210.86211 210.49033 210.11555
 209.72777 209.43299 209.23621 209.09542 209.01864 209.34486 209.72608 210.11030
 210.89852 212.07174 213.31696 215.09518 217.01840 219.05662 221.14684 223.22505
 225.28027 227.35949 229.45171 231.55293 233.67715 235.84437 238.09559 240.46081
 243.07703 245.32325 247.32047 249.08068 250.49290 251.61112 252.42834 252.73956
 252.77178 252.54100 251.89622 250.83944 249.44066 247.59688 245.50110 243.32931
 241.11553 238.91475 236.72997 234.56419 232.41941 230.28163 228.30285 226.45507
 224.73329 223.20051 221.82573 220.59294 219.47016 218.42538 217.52460 216.66082
 215.89804 215.07326 214.16648 213.52570 212.97092 213.18729 213.72449 215.23477
 216.21593 217.39015 218.73003 219.94984 221.79550 224.13730 228.00095 231.86414
 235.02631 238.20341 240.92647 243.37941 246.10172 249.27597 252.76169 256.28351
 259.63849 262.76602 265.64249 268.25323 270.61295 272.77588 274.80145 276.69299
 278.41922 279.95816 281.29337 282.44507 283.53635 284.55951 285.49457 286.35529
 287.17108 287.93311 288.59882 289.44714
 366.78100 356.33123 345.75947 334.62170 323.02093 311.21117 299.07740 286.87664
 274.58487 262.47810 250.48334 239.78057 229.89880 220.99904 213.17727 206.17551
 200.00574 194.93997 191.51821 189.55644 188.58967 188.64991 189.48114 190.78538
 192.50661 194.59784 196.85708 199.21231 201.65354 204.12978 206.21401 208.05225
 209.67448 210.81571 211.04095 211.26518 211.19841 210.89965 210.52888 210.15512
 209.76835 209.47458 209.27882 209.13905 209.06328 209.39052 209.77275 210.15799
 210.94722 212.12145 213.36769 215.14692 217.07115 219.11039 221.20162 223.28085
 225.33709 227.41732 229.51056 231.61279 233.73802 235.90626 238.15849 240.52472
 243.14196 245.38919 247.38743 249.14866 250.56189 251.68113 252.49936 252.81159
 252.84483 252.61506 251.97130 250.91553 249.51776 247.67500 245.58023 243.40946
 241.19670 238.99693 236.81317 234.64840 232.50463 230.36787 228.39010 226.54333
 224.82257 223.29080 221.91704 220.68527 219.56350 218.51974 217.61997 216.75720
 215.99544 215.17167 214.26590 213.62614 213.07237 213.28986 213.85927 215.14273
 216.20618 217.43965 218.89018 220.23013 221.98639 224.36211 228.04927 231.78217
 234.82643 237.86453 240.50197 242.97264 245.76749 249.04720 252.59219 256.15225
 259.56909 262.76553 265.71948 268.39935 270.81070 273.02158 275.08121 276.98730
 278.70566 280.20291 281.55814 282.89828 284.08698 285.15192 286.17307 287.13019
 287.99103 288.75760 289.42728 290.28070
 366.78100 356.33286 345.76272 334.62658 323.02744 311.21930 299.08715 286.88801
 274.59787 262.49273 250.49959 239.79845 229.91831 221.02017 213.20003 206.19989
 200.03175 194.96760 191.54746 189.58732 188.62218 188.68404 189.51690 190.82276
 192.54562 194.63848 196.89934 199.25620 201.69905 204.17691 206.26277 208.10263
 209.72649 210.86935 211.09621 211.32207 211.25693 210.95979 210.59065 210.21850
 209.83336 209.54122 209.34708 209.20894 209.13480 209.46366 209.84752 210.23438
 211.02524 212.20110 213.44895 215.22981 217.15567 219.19653 221.28939 223.37025
 225.42811 227.50997 229.60483 231.70869 233.83555 236.00540 238.25926 240.62712
 243.24598 245.49484 247.49470 249.25756 250.67242 251.79328 252.61314 252.92700
 252.96185 252.73371 252.09157 251.03743 249.64129 247.80015 245.70701 243.53787
 241.32673 239.12859 236.94645 234.78330 232.64116 230.50602 228.52988 226.68474
 224.96560 223.43546 222.06332 220.83318 219.71304 218.67090 217.77275 216.91161
 216.15147 215.32933 214.42519 213.78705 213.23491 213.41283 213.93079 215.17613
 216.45607 217.77966 219.13504 220.55093 222.28479 224.75006 228.24341 231.78709
 234.70610 237.51376 240.05328 242.56587 245.41927 248.69191 252.19824 255.72307
 259.10382 262.32318 265.35815 268.17303 270.76178 273.15771 275.39560 277.43661
 279.27179 280.96060 282.49707 283.88559 285.16531 286.31320 287.36050 288.30927
 289.16257 289.92242 290.58624 291.43219
 366.78100 356.33490 345.76679 334.63269 323.03558 311.22948 299.09938 286.90227
 274.61417 262.51107 250.51996 239.82086 229.94275 221.04665 213.22855 206.23044
 200.06434 195.00223 191.58413 189.62603 188.66292 188.72682 189.56172 190.86961
 192.59451 194.68940 196.95230 199.31120 201.75609 204.23599 206.32388 208.16578
 209.79168 210.93657 211.16547 211.39336 211.33026 211.03516 210.66805 210.29795
 209.91485 209.62474 209.43264 209.29653 209.22443 209.55533 209.94122 210.33012
 211.12301 212.30091 213.55081 215.33370 217.26160 219.30450 221.39939 223.48229
 225.54218 227.62608 229.72298 231.82887 233.95777 236.12966 238.38556 240.75546
 243.37635 245.62725 247.62915 249.39404 250.81094 251.93383 252.75573 253.07163
 253.10852 252.88242 252.24231 251.19021 249.79611 247.95700 245.86590 243.69879
 241.48969 239.29359 237.11348 234.95238 232.81228 230.67917 228.70507 226.86196
 225.14486 223.61676 222.24665 221.01855 219.90044 218.86034 217.96424 217.10513
 216.34703 215.52693 214.62482 213.98872 213.43861 213.53320 213.91139 215.32419
 216.65767 217.97409 219.38872 220.82843 222.55029 225.03741 228.38135 231.95514
 234.76540 237.40790 239.72672 242.05119 244.84032 248.19162 251.82356 255.40120
 258.82135 262.06421 265.10297 267.89670 270.45654 272.84009 275.08966 277.21332
 279.15411 280.89609 282.45050 283.90118 285.19666 286.34280 287.38849 288.33582
 289.18784 289.94656 290.60938 291.45404
 366.78100 356.33752 345.77204 334.64056 323.04608 311.24260 299.11512 286.92064
 274.63516 262.53468 250.54620 239.84972 229.97424 221.08076 213.26528 206.26981
 200.10633 195.04685 191.63137 189.67589 188.71541 188.78193 189.61945 190.92997
 192.65749 194.75501 197.02053 199.38205 201.82957 204.31209 206.40261 208.24713
 209.87565 211.02317 211.25469 211.48521 211.42473 211.13225 210.76777 210.40029
 210.01981 209.73233 209.54285 209.40937 209.33990 209.67342 210.06194 210.45346
 211.24898 212.42950 213.68202 215.46754 217.39806 219.44358 221.54110 223.62662
 225.68914 227.77566 229.87518 231.98370 234.11522 236.28974 238.54826 240.92078
 243.54430 245.79782 247.80234 249.56986 250.98938 252.11490 252.93942 253.25794
 253.29746 253.07399 252.43651 251.38703 249.99555 248.15907 246.07059 243.90611
 241.69963 239.50615 237.32867 235.17019 233.03271 230.90223 228.93075 227.09027
 225.37579 223.85031 222.48283 221.25735 220.14187 219.10439 218.21091 217.35443
 216.59895 215.78147 214.88199 214.24851 213.70103 213.67561 213.80505 215.43285
 217.05505 218.37679 219.61125 220.86916 222.46973 224.88834 228.27374 231.73665
 234.47018 236.97687 239.18738 241.50145 244.42744 247.97063 251.72554 255.39365
 258.85806 262.11511 265.12668 267.85458 270.31363 272.58661 274.74854 276.82443
 278.81274 280.60422 282.17319 283.60092 284.91415 286.07605 287.13608 288.09641
 288.96011 289.72925 290.40112 291.25739
 366.78100 356.34103 345.77906 334.65109 323.06012 311.26015 299.13618 286.94521
 274.66324 262.56627 250.58130 239.88833 230.01636 221.12639 213.31442 206.32245
 200.16248 195.10651 191.69453 189.74256 188.78559 188.85562 189.69665 191.01068
 192.74171 194.84274 197.11177 199.47680 201.92783 204.41386 206.50789 208.35592
 209.98795 211.13898 211.37401 211.60804 211.55107 211.26210 210.90113 210.53716
 210.16019 209.87622 209.69025 209.56028 209.49431 209.83134 210.22337 210.61840
 211.41743 212.60146 213.85749 215.64652 217.58055 219.62957 221.73060 223.81963
 225.88566 227.97569 230.07872 232.19075 234.32578 236.50381 238.76584 241.14187
 243.76890 246.02593 248.03396 249.80499 251.22802 252.35705 253.18508 253.50711
 253.55014 253.33017 252.69620 251.65023 250.26226 248.42929 246.34432 244.18335
 241.98038 239.79041 237.61644 235.46147 233.32750 231.20053 229.23256 227.39559
 225.68461 224.16264 222.79867 221.57670 220.46473 219.43076 218.54079 217.68782
 216.93585 216.12188 215.22591 214.59594 214.05197 213.87259 213.71873 215.52014
 217.32126 218.69168 219.87080 221.03279 222.55409 224.79886 228.07491 231.54048
 234.24585 236.67960 238.77583 241.05907 244.05255 247.76936 251.81633 255.50204
 258.95517 262.15662 265.11481 267.75287 270.06607 272.18570 274.36349 276.50525
 278.56345 280.37897 282.00735 283.52420 284.85193 286.02661 287.09833 288.06921
 288.94244 289.72006 290.39935 291.26505
 366.78100 356.34087 345.77873 334.65060 323.05947 311.25933 299.13520 286.94407
 274.66193 262.56480 250.57967 239.88653 230.01440 221.12427 213.31213 206.32000
 200.15987 195.10373 191.69160 189.73947 188.78234 188.85220 189.69307 191.00694
 192.73780 194.83867 197.10754 199.47240 201.92327 204.40914 206.50300 208.35087
 209.98274 211.13360 211.36847 211.60234 211.54520 211.25607 210.89494 210.53080
 210.15367 209.86954 209.68340 209.55327 209.48714 209.82400 210.21587 210.61074
 211.40960 212.59347 213.84934 215.63820 217.57207 219.62094 221.72180 223.81067
 225.87654 227.96640 230.06927 232.18114 234.31601 236.49387 238.75574 241.13161
 243.75847 246.01534 248.02321 249.79407 251.21694 252.34581 253.17367 253.49554
 253.53841 253.31827 252.68414 251.63801 250.24987 248.41674 246.33161 244.17047
 241.96734 239.77721 237.60307 235.44794 233.31381 231.18667 229.21854 227.38141
 225.67027 224.14814 222.78401 221.56187 220.44974 219.41561 218.52547 217.67234
 216.92021 216.10607 215.20994 214.57981 214.03568 213.87906 213.76825 215.63382
 217.35455 218.79243 219.96008 221.12460 222.62328 224.83691 228.08339 231.58424
 234.31952 236.62982 238.50558 240.61919 243.80556 247.78549 251.80791 255.49666
 258.94983 262.15155 265.09061 267.64035 269.82990 271.88824 274.07712 276.26718
 278.28366 280.07440 281.65430 283.09372 284.38705 285.53134 286.57529 287.52106
 288.37167 289.12915 289.79086 290.63416
 366.78100 356.33669 345.77038 334.63807 323.04275 311.23844 299.11013 286.91482
 274.62851 262.52720 250.53789 239.84057 229.96426 221.06995 213.25364 206.25733
 200.09302 195.03271 191.61639 189.66008 188.69877 188.76446 189.60115 190.91084
 192.63753 194.73421 196.99890 199.35959 201.80628 204.28797 206.37766 208.22135
 209.84903 210.99572 211.22641 211.45610 211.39479 211.10148 210.73617 210.36785
 209.98654 209.69823 209.50792 209.37361 209.30330 209.63599 210.02368 210.41436
 211.20905 212.38874 213.64043 215.42512 217.35481 219.39950 221.49618 223.58087
 225.64256 227.72825 229.82694 231.93463 234.06532 236.23900 238.49669 240.86838
 243.49107 245.74376 247.74745 249.51414 250.93282 252.05751 252.88120 253.19889
 253.23758 253.01327 252.37496 251.32464 249.93233 248.09502 246.00571 243.84040
 241.63309 239.43878 237.26046 235.10115 232.96284 230.83153 228.85922 227.01791
 225.30260 223.77628 222.40797 221.18166 220.06535 219.02704 218.13273 217.27542
 216.51910 215.70079 214.80048 214.16617 213.61786 213.65120 213.83957 215.99408
 217.27469 218.37444 219.88721 221.07764 222.57953 224.83005 228.34032 231.42813
 234.29353 236.50200 238.34065 240.43993 243.53761 247.52548 251.57309 255.31473
 258.80301 262.04352 264.99136 267.58176 269.87216 272.04596 274.22672 276.32169
 278.19943 279.79071 281.12048 282.26898 283.40918 284.42981 285.41855 286.38358
 287.25150 288.02438 288.69955 289.56000
 366.78100 356.33543 345.76786 334.63429 323.03772 311.23215 299.10259 286.90602
 274.61845 262.51588 250.52531 239.82674 229.94917 221.05360 213.23603 206.23846
 200.07290 195.01133 191.59376 189.63619 188.67362 188.73805 189.57348 190.88191
 192.60734 194.70277 196.96620 199.32564 201.77107 204.25150 206.33993 208.18236
 209.80879 210.95422 211.18365 211.41208 211.34951 211.05495 210.68838 210.31881
 209.93624 209.64667 209.45510 209.31953 209.24796 209.57939 209.96582 210.35526
 211.14869 212.32712 213.57755 215.36098 217.28941 219.33284 221.42827 223.51170
 225.57213 227.65656 229.75400 231.86043 233.98986 236.16229 238.41872 240.78915
 243.41058 245.66201 247.66444 249.42987 250.84731 251.97074 252.79317 253.10960
 253.14703 252.92146 252.28189 251.23032 249.83675 247.99818 245.90761 243.74105
 241.53248 239.33691 237.15734 234.99677 232.85720 230.72463 228.75106 226.90849
 225.19192 223.66436 222.29479 221.06722 219.94965 218.91008 218.01451 217.15594
 216.39837 215.57880 214.67723 214.04166 213.49210 213.58492 213.80418 216.15871
 217.72618 218.43147 220.12790 221.37643 222.75688 224.90500 228.44711 231.40334
 234.02368 236.16179 237.94487 240.09532 243.28362 247.30299 251.41246 255.22093
 258.76489 262.03265 264.99789 267.57721 269.84766 272.00281 274.17493 276.26761
 278.15704 279.76083 281.10214 282.28784 283.40924 284.15231 284.69562 285.36829
 286.13611 286.83792 287.48819 288.34525
 366.78100 356.33518 345.76736 334.63354 323.03672 311.23090 299.10108 286.90426
 274.61644 262.51362 250.52280 239.82398 229.94616 221.05034 213.23252 206.23469
 200.06887 195.00705 191.58923 189.63141 188.66859 188.73277 189.56795 190.87613
 192.60131 194.69649 196.95967 199.31885 201.76403 204.24421 206.33239 208.17457
 209.80075 210.94593 211.17511 211.40329 211.34047 211.04565 210.67883 210.30901
 209.92619 209.63637 209.44455 209.30872 209.23690 209.56808 209.95426 210.34344
 211.13662 212.31480 213.56498 215.34816 217.27634 219.31952 221.41470 223.49788
 225.55806 227.64224 229.73942 231.84560 233.97478 236.14696 238.40314 240.77332
 243.39450 245.64568 247.64786 249.41304 250.83022 251.95340 252.77558 253.09175
 253.12893 252.90311 252.26329 251.21147 249.81765 247.97883 245.88801 243.72119
 241.51237 239.31655 237.13673 234.97591 232.83609 230.70327 228.72945 226.88663
 225.16981 223.64199 222.27217 221.04435 219.92653 218.88671 217.99089 217.13207
 216.37425 215.55443 214.65261 214.01679 213.46696 213.59778 213.90683 216.08978
 217.88319 218.55675 220.24515 221.71785 223.08046 225.05888 228.40044 231.37242
 233.83102 235.84915 237.55814 239.76358 243.09132 247.17085 251.29442 255.16336
 258.72668 262.00430 264.97388 267.55795 269.82645 271.96509 274.10648 276.15790
 278.03680 279.65372 281.00613 282.22128 283.40323 284.17908 284.73404 285.34100
 286.09686 286.79260 287.42395 288.29156
 366.78100 356.33502 345.76705 334.63307 323.03609 311.23011 299.10014 286.90316
 274.61518 262.51220 250.52123 239.82225 229.94427 221.04829 213.23032 206.23234
 200.06636 195.00438 191.58641 189.62843 188.66545 188.72948 189.56450 190.87252
 192.59754 194.69257 196.95559 199.31461 201.75963 204.23966 206.32768 208.16970
 209.79572 210.94075 211.16977 211.39779 211.33481 211.03984 210.67286 210.30288
 209.91991 209.62993 209.43795 209.30197 209.23000 209.56102 209.94704 210.33606
 211.12909 212.30711 213.55713 215.34015 217.26818 219.31120 221.40622 223.48924
 225.54927 227.63329 229.73031 231.83634 233.96536 236.13738 238.39340 240.76343
 243.38445 245.63547 247.63749 249.40252 250.81954 251.94256 252.76458 253.08061
 253.11763 252.89165 252.25167 251.19970 249.80572 247.96674 245.87577 243.70879
 241.49981 239.30383 237.12386 234.96288 232.82290 230.68992 228.71595 226.87297
 225.15599 223.62801 222.25804 221.03006 219.91208 218.87210 217.97613 217.11715
 216.35917 215.53920 214.63722 214.00124 213.45126 213.61266 213.99397 216.11717
 217.94011 218.69904 220.33005 221.93794 223.31122 225.21158 228.38760 231.33981
 233.67720 235.53986 237.18837 239.46732 242.92136 247.04568 251.18027 255.08875
 258.67639 261.97278 264.95361 267.54343 269.79861 271.90866 274.01215 276.03119
 277.90332 279.51498 280.87247 282.12817 283.31741 284.18552 284.74527 285.37305
 286.13510 286.83527 287.47043 288.33276
 366.78100 356.33598 345.76896 334.63594 323.03992 311.23490 299.10588 286.90986
 274.62283 262.52081 250.53079 239.83277 229.95575 221.06073 213.24371 206.24669
 200.08167 195.02065 191.60363 189.64661 188.68459 188.74957 189.58555 190.89453
 192.62050 194.71648 196.98046 199.34044 201.78642 204.26740 206.35638 208.19936
 209.82634 210.97232 211.20230 211.43128 211.36926 211.07524 210.70922 210.34020
 209.95817 209.66915 209.47813 209.34311 209.27209 209.60407 209.99105 210.38103
 211.17501 212.35399 213.60497 215.38895 217.31793 219.36191 221.45789 223.54186
 225.60284 227.68782 229.78580 231.89278 234.02276 236.19574 238.45272 240.82370
 243.44568 245.69766 247.70064 249.46662 250.88460 252.00858 252.83156 253.14853
 253.18651 252.96149 252.32247 251.27145 249.87843 248.04041 245.95039 243.78437
 241.57635 239.38133 237.20231 235.04229 232.90327 230.77125 228.79822 226.95620
 225.24018 223.71316 222.34414 221.11712 220.00010 218.96108 218.06606 217.20804
 216.45102 215.63200 214.73098 214.09596 213.54694 213.68205 214.00130 216.19398
 218.03685 218.87671 220.49312 222.11346 223.44803 225.31326 228.39034 231.26929
 233.45592 235.16913 236.79248 239.17473 242.75568 246.91895 251.07375 255.02048
 258.63693 261.94504 264.92532 267.51361 269.76385 271.85852 273.93164 275.92722
 277.80078 279.43207 280.82547 282.00687 282.95221 283.97998 284.94058 285.51889
 286.26514 286.96045 287.59039 288.45670
 366.78100 356.33659 345.77017 334.63776 323.04234 311.23793 299.10951 286.91410
 274.62769 262.52627 250.53686 239.83944 229.96303 221.06861 213.25220 206.25579
 200.09137 195.03096 191.61454 189.65813 188.69671 188.76230 189.59889 190.90847
 192.63506 194.73164 196.99623 199.35682 201.80340 204.28499 206.37457 208.21816
 209.84574 210.99233 211.22292 211.45250 211.39109 211.09767 210.73226 210.36384
 209.98243 209.69402 209.50360 209.36919 209.29877 209.63136 210.01894 210.40953
 211.20412 212.38370 213.63529 215.41987 217.34946 219.39404 221.49063 223.57522
 225.63680 227.72239 229.82097 231.92856 234.05914 236.23273 238.49032 240.86190
 243.48449 245.73707 247.74066 249.50724 250.92583 252.05042 252.87400 253.19159
 253.23017 253.00576 252.36735 251.31693 249.92452 248.08710 245.99769 243.83227
 241.62486 239.43045 237.25203 235.09262 232.95420 230.82279 228.85037 227.00896
 225.29355 223.76713 222.39872 221.17230 220.05589 219.01747 218.12306 217.26565
 216.50923 215.69082 214.79040 214.15599 213.60757 213.73653 214.04117 216.18105
 218.21161 219.07141 220.67805 222.29030 223.59361 225.38708 228.37674 231.16145
 233.20490 234.79347 236.41594 238.90532 242.59506 246.79947 250.98387 254.96300
 258.59991 261.90848 264.88110 267.46692 269.71951 271.80231 273.83984 275.81097
 277.68143 279.32953 280.75143 281.92978 282.87924 283.91183 284.89337 285.64896
 286.40814 287.10516 287.73367 288.58978
 366.78100 356.33664 345.77029 334.63793 323.04257 311.23822 299.10986 286.91450
 274.62815 262.52679 250.53743 239.84008 229.96372 221.06936 213.25301 206.25665
 200.09229 195.03194 191.61558 189.65922 188.69787 188.76351 189.60015 190.90980
 192.63644 194.73308 196.99773 199.35837 201.80501 204.28665 206.37630 208.21994
 209.84758 210.99423 211.22487 211.45451 211.39316 211.09980 210.73444 210.36609
 209.98473 209.69637 209.50602 209.37166 209.30130 209.63395 210.02159 210.41223
 211.20688 212.38652 213.63816 215.42281 217.35245 219.39709 221.49374 223.57838
 225.64002 227.72567 229.82431 231.93195 234.06260 236.23624 238.49388 240.86553
 243.48817 245.74081 247.74446 249.51110 250.92974 252.05439 252.87803 253.19567
 253.23432 253.00996 252.37160 251.32125 249.92889 248.09153 246.00218 243.83682
 241.62946 239.43510 237.25675 235.09739 232.95903 230.82768 228.85532 227.01396
 225.29861 223.77225 222.40389 221.17754 220.06118 219.02282 218.12847 217.27111
 216.51475 215.69640 214.79604 214.16168 213.61333 213.76430 214.12099 216.12502
 218.32152 219.40082 220.91698 222.39896 223.65710 225.45271 228.38850 231.05643
 232.95425 234.41672 236.04475 238.65219 242.44057 246.69240 250.90683 254.91060
 258.56113 261.86584 264.82877 267.41385 269.67230 271.74698 273.75040 275.69388
 277.56076 279.21616 280.63388 281.83606 282.91052 283.95209 284.93951 285.79053
 286.49033 287.18484 287.81396 288.66608
 366.78100 356.33711 345.77122 334.63933 323.04444 311.24055 299.11266 286.91777
 274.63188 262.53099 250.54210 239.84521 229.96932 221.07543 213.25954 206.26366
 200.09977 195.03988 191.62399 189.66810 188.70721 188.77332 189.61043 190.92054
 192.64765 194.74476 197.00987 199.37098 201.81809 204.30020 206.39031 208.23442
 209.86253 211.00964 211.24075 211.47086 211.40997 211.11708 210.75219 210.38430
 210.00341 209.71552 209.52563 209.39174 209.32186 209.65497 210.04308 210.43419
 211.22930 212.40941 213.66152 215.44663 217.37674 219.42185 221.51896 223.60407
 225.66618 227.75229 229.85140 231.95951 234.09062 236.26473 238.52284 240.89495
 243.51806 245.77117 247.77528 249.54239 250.96150 252.08661 252.91072 253.22883
 253.26794 253.04405 252.40617 251.35628 249.96439 248.12750 246.03861 243.87372
 241.66683 239.47294 237.29505 235.13616 232.99827 230.86738 228.89549 227.05460
 225.33971 223.81382 222.44593 221.22004 220.10415 219.06626 218.17237 217.31548
 216.55959 215.74170 214.84181 214.20792 213.66003 213.81126 214.16855 216.12105
 218.40939 219.67502 221.11696 222.50398 223.72923 225.56435 228.45892 230.96753
 232.68298 234.00633 235.66473 238.42014 242.30598 246.59926 250.83771 254.86201
 258.52594 261.82907 264.78552 267.36884 269.62195 271.66858 273.61746 275.53094
 277.39548 279.03174 280.49173 281.83987 283.01706 284.06827 285.04865 285.93307
 286.71170 287.40469 288.01602 288.83624
 366.78100 356.33752 345.77204 334.64056 323.04608 311.24260 299.11512 286.92064
 274.63516 262.53468 250.54620 239.84972 229.97424 221.08076 213.26528 206.26980
 200.10632 195.04684 191.63136 189.67588 188.71540 188.78192 189.61944 190.92996
 192.65748 194.75500 197.02052 199.38204 201.82956 204.31208 206.40260 208.24712
 209.87564 211.02316 211.25468 211.48520 211.42472 211.13224 210.76776 210.40028
 210.01980 209.73232 209.54284 209.40936 209.33988 209.67339 210.06191 210.45343
 211.24895 212.42947 213.68199 215.46751 217.39803 219.44355 221.54107 223.62659
 225.68911 227.77563 229.87515 231.98367 234.11519 236.28971 238.54823 240.92075
 243.54427 245.79779 247.80231 249.56983 250.98935 252.11487 252.93939 253.25791
 253.29743 253.07395 252.43647 251.38699 249.99551 248.15903 246.07055 243.90607
 241.69959 239.50611 237.32863 235.17015 233.03267 230.90219 228.93071 227.09023
 225.37575 223.85027 222.48279 221.25731 220.14183 219.10435 218.21087 217.35439
 216.59891 215.78143 214.88195 214.24847 213.70099 213.85368 214.21448 216.14114
 218.47090 219.90347 221.28734 222.63084 223.85606 225.70457 228.53938 230.87485
 232.37527 233.56073 235.29071 238.22443 242.19745 246.51447 250.76999 254.81268
 258.48862 261.78934 264.73651 267.31772 269.56262 271.57330 273.47879 275.37772
 277.19812 278.95389 280.50027 281.86566 283.04984 284.10718 285.09433 285.98514
 286.77899 287.47531 288.08765 288.91360
 366.78100 356.33778 345.77257 334.64135 323.04714 311.24392 299.11670 286.92249
 274.63727 262.53706 250.54884 239.85262 229.97741 221.08419 213.26898 206.27376
 200.11054 195.05133 191.63611 189.68090 188.72068 188.78746 189.62525 190.93603
 192.66382 194.76160 197.02738 199.38917 201.83695 204.31974 206.41052 208.25530
 209.88409 211.03187 211.26366 211.49444 211.43422 211.14201 210.77779 210.41058
 210.03036 209.74314 209.55393 209.42071 209.35150 209.68528 210.07406 210.46585
 211.26163 212.44242 213.69520 215.48098 217.41177 219.45755 221.55534 223.64112
 225.70390 227.79069 229.89047 231.99926 234.13104 236.30583 238.56461 240.93739
 243.56118 245.81496 247.81975 249.58753 251.00731 252.13310 252.95788 253.27667
 253.31645 253.09323 252.45602 251.40680 250.01559 248.17937 246.09115 243.92694
 241.72072 239.52751 237.35029 235.19207 233.05486 230.92464 228.95343 227.11321
 225.39899 223.87378 222.50656 221.28135 220.16613 219.12891 218.23570 217.37948
 216.62427 215.80705 214.90783 214.27462 213.72740 213.88870 214.26979 216.16583
 218.50325 220.09935 221.45865 222.78360 224.02602 225.82854 228.58446 230.79195
 232.07419 233.12170 234.94153 238.05272 242.09576 246.42696 250.69519 254.75444
 258.44153 261.74225 264.68329 267.27002 269.52277 271.52786 273.40143 275.28210
 277.13593 278.82501 280.37442 281.73965 282.92078 283.97031 284.92685 285.81662
 286.64127 287.37021 287.99500 288.83423
 366.78100 356.33809 345.77319 334.64228 323.04838 311.24547 299.11856 286.92466
 274.63975 262.53984 250.55194 239.85603 229.98113 221.08822 213.27331 206.27841
 200.11550 195.05659 191.64169 189.68678 188.72688 188.79397 189.63206 190.94316
 192.67125 194.76934 197.03544 199.39753 201.84563 204.32872 206.41981 208.26491
 209.89400 211.04209 211.27419 211.50528 211.44538 211.15347 210.78956 210.42266
 210.04275 209.75584 209.56694 209.43403 209.36513 209.69922 210.08831 210.48041
 211.27650 212.45759 213.71069 215.49678 217.42788 219.47397 221.57206 223.65816
 225.72125 227.80834 229.90844 232.01753 234.14963 236.32472 238.58381 240.95691
 243.58100 245.83510 247.84019 249.60828 251.02838 252.15447 252.97956 253.29866
 253.33875 253.11585 252.47894 251.43003 250.03913 248.20322 246.11531 243.95141
 241.74550 239.55260 237.37569 235.21778 233.08088 230.95097 228.98006 227.14016
 225.42625 223.90135 222.53444 221.30953 220.19463 219.15772 218.26481 217.40891
 216.65400 215.83710 214.93819 214.30528 213.75838 213.92691 214.32507 216.19524
 218.53064 220.25713 221.64607 222.96558 224.20854 225.91518 228.59866 230.72224
 231.80969 232.72350 234.62863 237.89526 241.99725 246.34145 250.61946 254.68823
 258.37939 261.67444 264.60797 267.20200 269.47681 271.50336 273.33868 275.13153
 277.04340 278.75003 280.30222 281.67139 282.85620 283.90710 284.87039 285.75955
 286.57715 287.31219 287.94638 288.79407
 366.78100 356.33827 345.77354 334.64281 323.04909 311.24636 299.11963 286.92590
 274.64117 262.54144 250.55372 239.85799 229.98326 221.09053 213.27580 206.28107
 200.11834 195.05962 191.64489 189.69016 188.73043 188.79770 189.63597 190.94725
 192.67552 194.77379 197.04006 199.40233 201.85060 204.33387 206.42515 208.27042
 209.89969 211.04796 211.28023 211.51150 211.45178 211.16005 210.79632 210.42959
 210.04986 209.76313 209.57440 209.44168 209.37295 209.70722 210.09649 210.48876
 211.28503 212.46631 213.71958 215.50585 217.43712 219.48339 221.58166 223.66793
 225.73121 227.81848 229.91875 232.02802 234.16029 236.33556 238.59484 240.96811
 243.59238 245.84665 247.85192 249.62019 251.04046 252.16674 252.99201 253.31128
 253.35155 253.12882 252.49209 251.44337 250.05264 248.21691 246.12918 243.96545
 241.75972 239.56699 237.39027 235.23254 233.09581 230.96608 228.99535 227.15562
 225.44190 223.91717 222.55044 221.32571 220.21098 219.17425 218.28152 217.42580
 216.67107 215.85434 214.95561 214.32288 213.77615 213.95810 214.38795 216.22565
 218.55920 220.37971 221.84491 223.17325 224.39644 225.98659 228.60567 230.64815
 231.57385 232.36877 234.34669 237.74580 241.90347 246.26047 250.54277 254.61050
 258.29807 261.58749 264.52444 267.13882 269.43802 271.45236 273.21320 274.92542
 276.94717 278.72946 280.28284 281.65167 282.83786 283.89273 284.86044 285.74820
 286.56110 287.29510 287.94025 288.80783
 366.78100 356.33829 345.77357 334.64286 323.04915 311.24643 299.11972 286.92601
 274.64130 262.54158 250.55387 239.85816 229.98344 221.09073 213.27602 206.28130
 200.11859 195.05988 191.64517 189.69045 188.73074 188.79803 189.63631 190.94760
 192.67589 194.77417 197.04046 199.40275 201.85103 204.33432 206.42561 208.27090
 209.90018 211.04847 211.28076 211.51204 211.45233 211.16062 210.79690 210.43019
 210.05048 209.76376 209.57505 209.44234 209.37363 209.70791 210.09720 210.48949
 211.28577 212.46706 213.72035 215.50663 217.43792 219.48421 221.58250 223.66878
 225.73207 227.81936 229.91964 232.02893 234.16122 236.33650 238.59579 240.96908
 243.59336 245.84765 247.85294 249.62123 251.04151 252.16780 252.99309 253.31237
 253.35266 253.12995 252.49323 251.44452 250.05381 248.21809 246.13038 243.96667
 241.76096 239.56824 237.39153 235.23382 233.09710 230.96739 228.99668 227.15696
 225.44325 223.91854 222.55183 221.32711 220.21240 219.17569 218.28297 217.42726
 216.67255 215.85583 214.95712 214.32441 213.77769 213.98090 214.46100 216.24806
 218.57988 220.47926 222.03346 223.37999 224.58386 226.06458 228.60687 230.56143
 231.34956 232.04825 234.09163 237.60942 241.81935 246.18542 250.46526 254.52576
 258.20651 261.49219 264.43591 267.06290 269.35376 271.32147 273.07397 275.00824
 276.84116 278.62744 280.19626 281.57440 282.76743 283.82364 284.79486 285.67896
 286.48401 287.20819 287.84442 288.71680
 366.78100 356.33822 345.77345 334.64267 323.04890 311.24612 299.11935 286.92557
 274.64080 262.54102 250.55325 239.85747 229.98270 221.08992 213.27515 206.28037
 200.11760 195.05882 191.64405 189.68927 188.72950 188.79672 189.63495 190.94617
 192.67440 194.77262 197.03885 199.40107 201.84930 204.33252 206.42375 208.26897
 209.89819 211.04642 211.27864 211.50987 211.45009 211.15832 210.79454 210.42777
 210.04799 209.76122 209.57244 209.43967 209.37089 209.70512 210.09434 210.48657
 211.28279 212.46402 213.71724 215.50347 217.43469 219.48092 221.57914 223.66537
 225.72859 227.81582 229.91604 232.02527 234.15749 236.33272 238.59194 240.96517
 243.58939 245.84361 247.84884 249.61706 251.03729 252.16351 252.98874 253.30796
 253.34819 253.12541 252.48864 251.43986 250.04909 248.21331 246.12554 243.96176
 241.75599 239.56321 237.38644 235.22866 233.09189 230.96211 228.99134 227.15156
 225.43779 223.91301 222.54624 221.32146 220.20669 219.16991 218.27714 217.42136
 216.66658 215.84981 214.95103 214.31826 213.77148 214.00058 214.54182 216.26434
 218.58975 220.57324 222.20822 223.57219 224.76906 226.15985 228.60257 230.45265
 231.13080 231.76439 233.86688 237.48006 241.74042 246.11482 250.38756 254.43840
 258.11221 261.39468 264.34213 266.98026 269.27527 271.22849 272.96896 274.95563
 276.78445 278.56119 280.12692 281.50488 282.69727 283.75540 284.72522 285.61084
 286.41644 287.14127 287.78033 288.65186
 366.78100 356.33814 345.77328 334.64241 323.04855 311.24569 299.11883 286.92496
 274.64010 262.54024 250.55238 239.85651 229.98165 221.08879 213.27393 206.27907
 200.11620 195.05734 191.64248 189.68762 188.72775 188.79489 189.63303 190.94417
 192.67231 194.77044 197.03658 199.39872 201.84686 204.32999 206.42113 208.26627
 209.89541 211.04354 211.27568 211.50682 211.44696 211.15510 210.79123 210.42437
 210.04451 209.75765 209.56878 209.43592 209.36706 209.70120 210.09033 210.48247
 211.27861 212.45975 213.71289 215.49902 217.43016 219.47630 221.57444 223.66057
 225.72371 227.81085 229.91099 232.02013 234.15226 236.32740 238.58654 240.95968
 243.58381 245.83795 247.84309 249.61123 251.03136 252.15750 252.98264 253.30178
 253.34192 253.11905 252.48219 251.43333 250.04247 248.20660 246.11874 243.95488
 241.74902 239.55616 237.37929 235.22143 233.08457 230.95471 228.98384 227.14398
 225.43012 223.90526 222.53839 221.31353 220.19867 219.16181 218.26895 217.41308
 216.65822 215.84136 214.94250 214.30963 213.76277 214.02010 214.62808 216.28424
 218.58839 220.65962 222.37166 223.74844 224.94554 226.26738 228.59299 230.32037
 230.91293 231.51146 233.67165 237.37354 241.67433 246.05215 250.31364 254.35060
 258.01437 261.29199 264.24152 266.89429 269.20013 271.13300 272.78143 274.83682
 276.73163 278.51404 280.07773 281.45483 282.64706 283.70496 284.67633 285.56415
 286.37390 287.10281 287.74448 288.61954
 366.78100 356.33795 345.77291 334.64186 323.04782 311.24477 299.11772 286.92368
 274.63863 262.53859 250.55054 239.85450 229.97945 221.08640 213.27136 206.27631
 200.11327 195.05422 191.63917 189.68413 188.72408 188.79104 189.62899 190.93995
 192.66790 194.76585 197.03181 199.39376 201.84172 204.32467 206.41562 208.26058
 209.88953 211.03749 211.26944 211.50040 211.44035 211.14830 210.78426 210.41721
 210.03717 209.75012 209.56107 209.42803 209.35898 209.69294 210.08189 210.47385
 211.26980 212.45075 213.70371 215.48966 217.42062 219.46657 221.56452 223.65048
 225.71343 227.80039 229.90034 232.00930 234.14125 236.31620 238.57516 240.94811
 243.57207 245.82602 247.83097 249.59893 251.01888 252.14484 252.96979 253.28874
 253.32870 253.10565 252.46861 251.41956 250.02852 248.19247 246.10442 243.94038
 241.73433 239.54129 237.36424 235.20619 233.06915 230.93910 228.96806 227.12801
 225.41397 223.88892 222.52187 221.29683 220.18178 219.14474 218.25169 217.39564
 216.64060 215.82355 214.92451 214.29146 213.74442 214.03566 214.72375 216.31264
 218.57373 220.72571 222.51698 223.91406 225.11253 226.37759 228.58557 230.17192
 230.68748 231.27657 233.50189 237.29156 241.62277 245.99574 250.24133 254.25821
 257.90604 261.17288 264.12418 266.79346 269.11661 271.06216 272.70032 274.74741
 276.67725 278.46146 280.02454 281.40219 282.59531 283.65369 284.62430 285.51389
 286.32605 287.05429 287.69693 288.57358
 366.78100 356.33760 345.77220 334.64080 323.04640 311.24299 299.11559 286.92119
 274.63579 262.53539 250.54699 239.85059 229.97519 221.08179 213.26638 206.27098
 200.10758 195.04818 191.63278 189.67738 188.71698 188.78358 189.62118 190.93178
 192.65937 194.75697 197.02257 199.38417 201.83177 204.31437 206.40497 208.24957
 209.87817 211.02576 211.25736 211.48796 211.42756 211.13516 210.77076 210.40336
 210.02296 209.73556 209.54615 209.41275 209.34335 209.67695 210.06555 210.45715
 211.25275 212.43335 213.68595 215.47155 217.40214 219.44774 221.54534 223.63094
 225.69354 227.78014 229.87974 231.98834 234.11994 236.29453 238.55313 240.92573
 243.54933 245.80293 247.80753 249.57513 250.99473 252.12033 252.94492 253.26352
 253.30312 253.07972 252.44232 251.39292 250.00152 248.16512 246.07672 243.91232
 241.70591 239.51251 237.33511 235.17671 233.03931 230.90891 228.93751 227.09711
 225.38271 223.85730 222.48990 221.26450 220.14910 219.11170 218.21830 217.36190
 216.60650 215.78910 214.88969 214.25629 213.70889 214.04109 214.82597 216.35481
 218.54871 220.77272 222.65761 224.08017 225.26802 226.48090 228.58011 230.02202
 230.46437 231.06561 233.36555 237.23459 241.58807 245.94907 250.17262 254.16275
 257.78934 261.04663 264.00488 266.69278 269.02072 270.97183 272.67505 274.64386
 276.60791 278.39886 279.96292 281.34116 282.53616 283.59573 284.56763 285.45737
 286.26981 287.00372 287.64545 288.52341
 366.78100 356.33714 345.77127 334.63941 323.04454 311.24068 299.11281 286.91795
 274.63209 262.53122 250.54236 239.84549 229.96963 221.07577 213.25990 206.26404
 200.10017 195.04031 191.62444 189.66858 188.70772 188.77385 189.61099 190.92112
 192.64826 194.74540 197.01053 199.37167 201.81880 204.30094 206.39107 208.23521
 209.86335 211.01048 211.24162 211.47175 211.41089 211.11803 210.75316 210.38530
 210.00443 209.71657 209.52670 209.39284 209.32298 209.65611 210.04425 210.43538
 211.23052 212.41066 213.66279 215.44793 217.37806 219.42320 221.52033 223.60547
 225.66761 227.75374 229.85288 231.96101 234.09215 236.26629 238.52442 240.89656
 243.51969 245.77283 247.77696 249.54410 250.96324 252.08837 252.91251 253.23064
 253.26978 253.04592 252.40805 251.35819 249.96632 248.12946 246.04059 243.87573
 241.66887 239.47500 237.29714 235.13827 233.00041 230.86955 228.89768 227.05682
 225.34195 223.81609 222.44822 221.22236 220.10650 219.06863 218.17477 217.31790
 216.56204 215.74417 214.84431 214.21045 213.66258 214.04042 214.93311 216.39934
 218.51660 220.80428 222.79060 224.24425 225.41086 226.57532 228.57835 229.86760
 230.23306 230.86740 233.24799 237.19304 241.56590 245.91083 250.10620 254.06100
 257.65875 260.90161 263.86722 266.57831 268.92099 270.87357 272.69986 274.69553
 276.59738 278.37863 279.94049 281.31589 282.50885 283.56885 284.53955 285.42947
 286.24380 286.98041 287.62210 288.50107
 366.78100 356.33664 345.77027 334.63791 323.04255 311.23818 299.10982 286.91445
 274.62809 262.52673 250.53736 239.84000 229.96364 221.06927 213.25291 206.25654
 200.09218 195.03182 191.61545 189.65909 188.69773 188.76336 189.60000 190.90963
 192.63627 194.73291 196.99754 199.35818 201.80482 204.28645 206.37609 208.21972
 209.84736 210.99400 211.22463 211.45427 211.39291 211.09954 210.73418 210.36581
 209.98445 209.69609 209.50572 209.37136 209.30100 209.63363 210.02127 210.41190
 211.20654 212.38618 213.63781 215.42245 217.35209 219.39672 221.49336 223.57799
 225.63963 227.72527 229.82390 231.93154 234.06218 236.23581 238.49345 240.86508
 243.48772 245.74036 247.74399 249.51063 250.92927 252.05390 252.87754 253.19517
 253.23381 253.00945 252.37108 251.32072 249.92836 248.09099 246.00163 243.83626
 241.62890 239.43454 237.25617 235.09681 232.95845 230.82708 228.85472 227.01335
 225.29799 223.77163 222.40326 221.17690 220.06054 219.02217 218.12781 217.27044
 216.51408 215.69572 214.79535 214.16099 213.61263 214.03679 215.03891 216.44832
 218.48941 220.82219 222.89713 224.39049 225.54652 226.67294 228.57169 229.71831
 230.02383 230.70758 233.15982 237.16669 241.55209 245.87653 250.04076 253.95898
 257.53046 260.76514 263.74017 266.46564 268.79852 270.76620 272.60248 274.61551
 276.56924 278.34894 279.90686 281.27844 282.46909 283.52597 284.49350 285.38223
 286.19528 286.92813 287.56964 288.40729
 366.78100 356.33611 345.76922 334.63633 323.04044 311.23555 299.10666 286.91077
 274.62388 262.52199 250.53210 239.83421 229.95732 221.06243 213.24554 206.24865
 200.08376 195.02287 191.60598 189.64909 188.68720 188.75231 189.58842 190.89753
 192.62364 194.71975 196.98386 199.34397 201.79008 204.27118 206.36029 208.20340
 209.83051 210.97662 211.20673 211.43584 211.37395 211.08006 210.71417 210.34528
 209.96339 209.67450 209.48361 209.34872 209.27783 209.60994 209.99705 210.38716
 211.18127 212.36038 213.61149 215.39560 217.32471 219.36882 221.46493 223.54904
 225.61015 227.69526 229.79337 231.90048 234.03059 236.20370 238.46081 240.83192
 243.45403 245.70614 247.70925 249.47536 250.89347 252.01758 252.84069 253.15780
 253.19591 252.97102 252.33213 251.28124 249.88835 248.05046 245.96057 243.79468
 241.58679 239.39190 237.21301 235.05312 232.91423 230.78233 228.80944 226.96755
 225.25166 223.72477 222.35588 221.12899 220.01210 218.97321 218.07832 217.22043
 216.46354 215.64465 214.74376 214.10887 213.55998 214.02917 215.13768 216.51746
 218.47940 220.82722 222.96910 224.50233 225.64845 226.73843 228.56772 229.59935
 229.83862 230.57175 233.09854 237.15656 241.55075 245.85451 249.98529 253.86299
 257.40320 260.62198 263.60324 266.35416 268.71075 270.67090 272.49808 274.70020
 276.57538 278.32224 279.87476 281.24490 282.43219 283.48776 284.45401 285.34091
 286.15421 286.88544 287.52335 288.35703
 366.78100 356.33543 345.76785 334.63428 323.03771 311.23213 299.10256 286.90599
 274.61841 262.51584 250.52527 239.82669 229.94912 221.05355 213.23597 206.23840
 200.07283 195.01125 191.59368 189.63611 188.67353 188.73796 189.57339 190.88181
 192.60724 194.70267 196.96609 199.32552 201.77095 204.25137 206.33980 208.18223
 209.80865 210.95408 211.18351 211.41193 211.34936 211.05479 210.68821 210.31864
 209.93607 209.64649 209.45492 209.31935 209.24777 209.57920 209.96563 210.35505
 211.14848 212.32691 213.57733 215.36076 217.28919 219.33261 221.42804 223.51147
 225.57189 227.65632 229.75375 231.86017 233.98960 236.16203 238.41845 240.78888
 243.41031 245.66173 247.66416 249.42959 250.84701 251.97044 252.79287 253.10929
 253.14672 252.92115 252.28157 251.23000 249.83643 247.99785 245.90728 243.74071
 241.53213 239.33656 237.15699 234.99642 232.85684 230.72427 228.75070 226.90812
 225.19155 223.66398 222.29440 221.06683 219.94926 218.90968 218.01411 217.15554
 216.39796 215.57839 214.67682 214.04124 213.49167 214.01088 215.23755 216.60275
 218.49324 220.83000 223.00890 224.55896 225.71936 226.84978 228.55975 229.42714
 229.62177 230.44682 233.06197 237.16454 241.56728 245.85406 249.95438 253.79453
 257.30356 260.50302 263.48038 266.23572 268.56946 270.51456 272.52786 274.61411
 276.55441 278.28528 279.83060 281.19867 282.38361 283.43622 284.39954 285.28381
 286.09366 286.82565 287.45670 288.28760
 366.78100 356.33461 345.76622 334.63183 323.03444 311.22805 299.09766 286.90027
 274.61188 262.50848 250.51709 239.81770 229.93931 221.04292 213.22453 206.22614
 200.05975 194.99736 191.57897 189.62058 188.65719 188.72080 189.55541 190.86302
 192.58763 194.68224 196.94485 199.30345 201.74806 204.22767 206.31528 208.15689
 209.78250 210.92711 211.15572 211.38333 211.31994 211.02455 210.65716 210.28677
 209.90338 209.61299 209.42060 209.28421 209.21181 209.54242 209.92803 210.31664
 211.10925 212.28686 213.53647 215.31908 217.24669 219.28930 221.38391 223.46652
 225.52613 227.60974 229.70635 231.81196 233.94057 236.11218 238.36778 240.73739
 243.35800 245.60861 247.61022 249.37483 250.79144 251.91405 252.73566 253.05127
 253.08788 252.86149 252.22110 251.16871 249.77432 247.93493 245.84354 243.67614
 241.46675 239.27036 237.08997 234.92858 232.78819 230.65480 228.68041 226.83702
 225.11963 223.59124 222.22085 220.99246 219.87407 218.83368 217.93729 217.07790
 216.31950 215.49911 214.59672 213.96033 213.40994 213.98355 215.33875 216.69467
 218.52629 220.84048 223.03423 224.59109 225.76186 226.93941 228.53792 229.24187
 229.40410 230.33917 233.04491 237.18448 241.59358 245.86501 249.93732 253.74245
 257.22330 260.40619 263.37924 266.13922 268.46509 270.42676 272.47104 274.56128
 276.49619 278.22696 279.77097 281.13651 282.32101 283.37061 284.33167 285.21411
 286.02219 286.75177 287.37766 288.20416
 366.78100 356.33382 345.76464 334.62945 323.03127 311.22409 299.09291 286.89473
 274.60554 262.50136 250.50918 239.80900 229.92982 221.03263 213.21345 206.21427
 200.04709 194.98391 191.56472 189.60554 188.64136 188.70418 189.53799 190.84481
 192.56863 194.66245 196.92427 199.28208 201.72590 204.20472 206.29154 208.13236
 209.75717 210.90099 211.12881 211.35563 211.29145 210.99526 210.62708 210.25590
 209.87172 209.58054 209.38735 209.25017 209.17699 209.50681 209.89163 210.27944
 211.07126 212.24808 213.49690 215.27872 217.20553 219.24735 221.34117 223.42299
 225.48181 227.56462 229.66044 231.76526 233.89308 236.06390 238.31871 240.68753
 243.30735 245.55717 247.55798 249.32180 250.73762 251.85944 252.68026 252.99507
 253.03089 252.80371 252.16253 251.10935 249.71416 247.87398 245.78180 243.61362
 241.40344 239.20625 237.02507 234.86289 232.72171 230.58753 228.61234 226.76816
 225.04998 223.52080 222.14962 220.92043 219.80125 218.76007 217.86289 217.00271
 216.24352 215.42234 214.51916 213.88198 213.33080 213.95441 215.42773 216.79660
 218.56967 220.85971 223.06557 224.61832 225.76143 226.97684 228.51411 229.07957
 229.19608 230.23410 233.03499 237.20872 241.62494 245.88383 249.93080 253.70351
 257.15625 260.32162 263.28503 266.04404 268.37463 270.36908 272.37836 274.52911
 276.43295 278.15430 279.69537 281.05902 282.24265 283.29025 284.24936 285.13043
 285.93622 286.66837 287.28766 288.10706
 366.78100 356.33309 345.76317 334.62726 323.02835 311.22044 299.08852 286.88961
 274.59970 262.49478 250.50187 239.80096 229.92105 221.02313 213.20322 206.20331
 200.03540 194.97148 191.55157 189.59166 188.62674 188.68883 189.52192 190.82801
 192.55109 194.64418 196.90527 199.26235 201.70544 204.18353 206.26962 208.10970
 209.73379 210.87688 211.10397 211.33005 211.26514 210.96823 210.59931 210.22740
 209.84249 209.55058 209.35666 209.21875 209.14484 209.47392 209.85801 210.24510
 211.03619 212.21227 213.46036 215.24145 217.16753 219.20862 221.30171 223.38280
 225.44088 227.52297 229.61806 231.72215 233.84923 236.01932 238.27341 240.64149
 243.26058 245.50967 247.50976 249.27284 250.68793 251.80902 252.62910 252.94319
 252.97828 252.75037 252.10845 251.05454 249.65863 247.81772 245.72480 243.55589
 241.34498 239.14706 236.96515 234.80224 232.66033 230.52541 228.54950 226.70459
 224.98567 223.45576 222.08385 220.85394 219.73402 218.69211 217.79420 216.93328
 216.17337 215.35146 214.44755 213.80963 213.25772 213.92570 215.50386 216.91881
 218.61919 220.87830 223.09500 224.64452 225.73700 226.97639 228.49149 228.94751
 229.00172 230.12726 233.02773 237.23425 241.65651 245.90118 249.92201 253.66272
 257.08972 260.24234 263.20740 265.98264 268.32898 270.34500 272.29257 274.47952
 276.36902 278.06653 279.59949 280.96051 282.14148 283.18658 284.14377 285.02042
 285.82565 286.55399 287.17102 287.99347
 366.78100 356.33253 345.76206 334.62560 323.02613 311.21766 299.08519 286.88573
 274.59526 262.48979 250.49632 239.79485 229.91439 221.01592 213.19545 206.19498
 200.02652 194.96205 191.54158 189.58111 188.61564 188.67718 189.50971 190.81524
 192.53777 194.63031 196.89084 199.24737 201.68990 204.16744 206.25297 208.09250
 209.71603 210.85856 211.08510 211.31063 211.24516 210.94769 210.57823 210.20576
 209.82029 209.52782 209.33335 209.19489 209.12042 209.44895 209.83248 210.21902
 211.00955 212.18508 213.43261 215.21314 217.13868 219.17921 221.27174 223.35227
 225.40981 227.49134 229.58587 231.68940 233.81593 235.98547 238.23900 240.60653
 243.22506 245.47360 247.47313 249.23566 250.65019 251.77073 252.59026 252.90379
 252.93832 252.70985 252.06739 251.01292 249.61645 247.77498 245.68152 243.51205
 241.30058 239.10211 236.91964 234.75618 232.61371 230.47824 228.50177 226.65631
 224.93684 223.40637 222.03390 220.80343 219.68297 218.64050 217.74203 216.88056
 216.12010 215.29763 214.39316 213.75469 213.20222 213.90396 215.56186 217.06067
 218.69299 220.89713 223.09682 224.65031 225.70741 226.95450 228.45052 228.82823
 228.83238 230.03346 233.02827 237.26495 241.69162 245.92137 249.91579 253.62532
 257.02728 260.16550 263.12241 265.89984 268.26361 270.34399 272.37103 274.43246
 276.29675 277.98047 279.49756 280.84631 282.01785 283.05945 284.01306 284.88663
 285.69510 286.42581 287.04156 287.85660
 366.78100 356.33188 345.76076 334.62363 323.02351 311.21439 299.08127 286.88115
 274.59003 262.48390 250.48978 239.78766 229.90654 221.00742 213.18630 206.18517
 200.01605 194.95093 191.52981 189.56869 188.60257 188.66344 189.49532 190.80020
 192.52208 194.61396 196.87383 199.22971 201.67159 204.14847 206.23335 208.07223
 209.69510 210.83698 211.06286 211.28774 211.22162 210.92350 210.55337 210.18025
 209.79413 209.50101 209.30589 209.16676 209.09164 209.41952 209.80240 210.18828
 210.97816 212.15303 213.39991 215.17979 217.10467 219.14455 221.23643 223.31630
 225.37318 227.45406 229.54794 231.65082 233.77670 235.94557 238.19845 240.56533
 243.18321 245.43109 247.42996 249.19184 250.60572 251.72560 252.54448 252.85736
 252.89123 252.66211 252.01899 250.96387 249.56675 247.72463 245.63050 243.46038
 241.24826 239.04914 236.86602 234.70190 232.55877 230.42265 228.44553 226.59941
 224.87929 223.34816 221.97504 220.74392 219.62280 218.57968 217.68056 216.81843
 216.05731 215.23419 214.32907 213.68995 213.13683 213.87424 215.61647 217.21492
 218.79425 220.91994 223.06841 224.62923 225.68820 226.92615 228.37158 228.69014
 228.67790 229.95682 233.04019 237.30415 241.73483 245.95335 249.92746 253.61012
 256.98575 260.10022 263.03421 265.80283 268.19104 270.33685 272.39661 274.37469
 276.22165 277.89566 279.40341 280.73941 281.90176 282.93854 283.88922 284.75961
 285.56445 286.29282 286.90656 287.71866
 366.78100 356.33105 345.75910 334.62115 323.02021 311.21026 299.07631 286.87536
 274.58341 262.47646 250.48152 239.77857 229.89662 220.99667 213.17472 206.17277
 200.00282 194.93688 191.51493 189.55298 188.58603 188.64608 189.47713 190.78119
 192.50224 194.59329 196.85234 199.20739 201.64844 204.12449 206.20855 208.04660
 209.66865 210.80970 211.03475 211.25880 211.19186 210.89291 210.52196 210.14801
 209.76106 209.46711 209.27116 209.13122 209.05527 209.38232 209.76437 210.14942
 210.93847 212.11253 213.35858 215.13763 217.06168 219.10073 221.19178 223.27083
 225.32689 227.40694 229.49999 231.60204 233.72709 235.89514 238.14720 240.51325
 243.13030 245.37735 247.37540 249.13645 250.54950 251.66856 252.48661 252.79866
 252.83171 252.60176 251.95781 250.90187 249.50392 247.66097 245.56602 243.39507
 241.18212 238.98217 236.79823 234.63328 232.48933 230.35238 228.37443 226.52748
 224.80654 223.27459 221.90064 220.66869 219.54674 218.50279 217.60284 216.73990
 215.97795 215.15400 214.24805 213.60810 213.05415 213.83095 215.66620 217.39375
 218.92308 220.94514 223.00890 224.57198 225.67091 226.90518 228.28363 228.56062
 228.54970 229.88383 233.04187 237.33440 241.77359 245.98776 249.94769 253.60643
 256.95627 260.04416 262.95206 265.71503 268.11523 270.29913 272.36728 274.30402
 276.14499 277.80927 279.30777 280.63251 281.77170 282.78973 283.72949 284.59860
 285.40546 286.12384 286.73764 287.54248
 366.78100 356.33142 345.75984 334.62226 323.02168 311.21210 299.07852 286.87794
 274.58636 262.47978 250.48520 239.78262 229.90104 221.00146 213.17988 206.17831
 200.00873 194.94315 191.52157 189.55999 188.59341 188.65383 189.48525 190.78967
 192.51109 194.60251 196.86193 199.21735 201.65877 204.13519 206.21961 208.05803
 209.68045 210.82187 211.04729 211.27171 211.20513 210.90655 210.53597 210.16239
 209.77581 209.48223 209.28665 209.14707 209.07149 209.39892 209.78134 210.16676
 210.95618 212.13060 213.37702 215.15644 217.08086 219.12028 221.21170 223.29112
 225.34754 227.42796 229.52138 231.62380 233.74922 235.91764 238.17006 240.53648
 243.15390 245.40132 247.39974 249.16116 250.57458 251.69400 252.51242 252.82484
 252.85826 252.62868 251.98511 250.92953 249.53195 247.68937 245.59479 243.42421
 241.21163 239.01205 236.82847 234.66389 232.52031 230.38373 228.40615 226.55957
 224.83899 223.30741 221.93383 220.70225 219.58067 218.53709 217.63751 216.77493
 216.01335 215.18977 214.28419 213.64461 213.09103 213.85130 215.64749 217.54506
 219.14307 221.03178 222.94290 224.44716 225.55565 226.78583 228.10052 228.40088
 228.40846 229.83171 233.06683 237.39854 241.84117 246.05666 250.01045 253.65256
 256.97443 260.02457 262.89429 265.65118 268.05307 270.23474 272.29367 274.21274
 276.04980 277.70999 279.20712 280.53903 281.70618 282.75354 283.71793 284.59821
 285.39252 286.09628 286.72379 287.53061
 366.78100 356.33199 345.76098 334.62397 323.02396 311.21495 299.08193 286.88192
 274.59091 262.48490 250.49089 239.78888 229.90787 221.00886 213.18785 206.18684
 200.01782 194.95281 191.53180 189.57079 188.60478 188.66577 189.49776 190.80275
 192.52474 194.61673 196.87671 199.23270 201.67469 204.15168 206.23667 208.07566
 209.69865 210.84064 211.06663 211.29162 211.22561 210.92759 210.55758 210.18457
 209.79856 209.50555 209.31054 209.17153 209.09652 209.42451 209.80750 210.19348
 210.98347 212.15846 213.40545 215.18544 217.11043 219.15042 221.24241 223.32240
 225.37939 227.46037 229.55436 231.65735 233.78334 235.95233 238.20532 240.57231
 243.19030 245.43829 247.43728 249.19927 250.61325 251.73324 252.55223 252.86522
 252.89921 252.67020 252.02719 250.97218 249.57517 247.73316 245.63914 243.46913
 241.25712 239.05811 236.87510 234.71109 232.56808 230.43207 228.45506 226.60905
 224.88904 223.35802 221.98501 220.75400 219.63299 218.58998 217.69097 216.82896
 216.06795 215.24494 214.33993 213.70091 213.14790 213.88976 215.65038 217.57515
 219.35152 221.15599 222.88258 224.31241 225.41603 226.61319 227.82924 228.25125
 228.12460 229.70853 233.05119 237.44470 241.96616 246.23370 250.18723 253.81429
 257.11517 260.13345 262.95596 265.62991 268.02045 270.18805 272.19406 274.09131
 275.89224 277.53809 279.01093 280.33496 281.50076 282.54373 283.51050 284.39499
 285.19531 285.90775 286.53009 287.32321
 366.78100 356.33297 345.76293 334.62690 323.02786 311.21983 299.08780 286.88876
 274.59873 262.49370 250.50066 239.79963 229.91959 221.02156 213.20153 206.20149
 200.03346 194.96943 191.54939 189.58936 188.62432 188.68629 189.51926 190.82522
 192.54819 194.64116 196.90212 199.25909 201.70205 204.18002 206.26599 208.10595
 209.72992 210.87288 211.09985 211.32582 211.26078 210.96375 210.59472 210.22268
 209.83765 209.54561 209.35158 209.21355 209.13951 209.46848 209.85245 210.23941
 211.03038 212.20634 213.45431 215.23528 217.16124 219.20221 221.29518 223.37614
 225.43411 227.51607 229.61104 231.71501 233.84197 236.01194 238.26590 240.63387
 243.25284 245.50180 247.50177 249.26474 250.67970 251.80067 252.62063 252.93460
 252.96957 252.74153 252.09950 251.04547 249.64943 247.80840 245.71536 243.54633
 241.33530 239.13726 236.95523 234.79220 232.65016 230.51513 228.53909 226.69406
 224.97503 223.44499 222.07296 220.84292 219.72289 218.68086 217.78282 216.92179
 216.16176 215.33972 214.43569 213.79765 213.24562 213.94670 215.63081 217.65506
 219.50114 221.20601 222.84937 224.25989 225.39249 226.56834 227.66119 228.16711
 227.79141 229.53540 233.03142 237.49490 242.06563 246.35622 250.32253 253.93329
 257.20255 260.17844 262.96692 265.60446 267.94440 270.10843 272.07367 274.03366
 275.74841 277.37561 278.84729 280.16925 281.32568 282.37088 283.34143 284.25745
 285.08722 285.82611 286.47162 287.29422
 366.78100 356.33389 345.76477 334.62966 323.03155 311.22443 299.09332 286.89521
 274.60609 262.50198 250.50987 239.80975 229.93064 221.03353 213.21441 206.21530
 200.04819 194.98508 191.56596 189.60685 188.64274 188.70562 189.53951 190.84640
 192.57028 194.66417 196.92606 199.28394 201.72783 204.20672 206.29360 208.13449
 209.75938 210.90326 211.13115 211.35804 211.29392 210.99781 210.62970 210.25858
 209.87447 209.58336 209.39024 209.25313 209.18002 209.50990 209.89479 210.28268
 211.07456 212.25145 213.50034 215.28223 217.20911 219.25100 221.34489 223.42677
 225.48566 227.56855 229.66443 231.76932 233.89721 236.06809 238.32298 240.69187
 243.31175 245.56164 247.56253 249.32641 250.74230 251.86419 252.68507 252.99996
 253.03585 252.80873 252.16762 251.11451 249.71939 247.87928 245.78717 243.61905
 241.40894 239.21183 237.03072 234.86860 232.72749 230.59338 228.61826 226.77415
 225.05604 223.52692 222.15581 220.92670 219.80758 218.76647 217.86936 217.00924
 216.25013 215.42902 214.52590 213.88879 213.33768 213.99591 215.60490 217.75966
 219.60373 221.24646 222.87259 224.26967 225.43039 226.55917 227.52504 227.97974
 227.64218 229.51476 233.07841 237.50789 242.06789 246.44704 250.42975 254.04314
 257.30313 260.25342 262.99832 265.61038 267.87518 270.02698 272.06937 273.93063
 275.61459 277.23175 278.67508 279.97495 281.12851 282.17551 283.17636 284.09131
 284.91418 285.64694 286.28708 287.10287
 366.78100 356.33331 345.76361 334.62792 323.02922 311.22153 299.08983 286.89114
 274.60144 262.49675 250.50405 239.80336 229.92366 221.02597 213.20627 206.20658
 200.03888 194.97519 191.55549 189.59580 188.63110 188.69341 189.52671 190.83302
 192.55632 194.64963 196.91093 199.26824 201.71154 204.18985 206.27615 208.11646
 209.74076 210.88407 211.11137 211.33768 211.27298 210.97629 210.60759 210.23590
 209.85120 209.55951 209.36581 209.22812 209.15442 209.48373 209.86803 210.25534
 211.04665 212.22295 213.47126 215.25256 217.17887 219.22017 221.31348 223.39478
 225.45309 227.53539 229.63070 231.73500 233.86231 236.03261 238.28692 240.65522
 243.27453 245.52383 247.52414 249.28744 250.70275 251.82405 252.64436 252.95866
 252.99397 252.76627 252.12458 251.07088 249.67519 247.83449 245.74180 243.57310
 241.36241 239.16471 236.98302 234.82032 232.67863 230.54393 228.56824 226.72354
 225.00485 223.47515 222.10346 220.87376 219.75407 218.71237 217.81468 216.95398
 216.19429 215.37260 214.46890 213.83121 213.27951 213.96628 215.64622 217.84288
 219.71556 221.36690 222.91042 224.27507 225.49500 226.59200 227.46605 227.77609
 227.50520 229.44145 233.09204 237.53700 242.09227 246.43034 250.44408 254.09734
 257.37302 260.31735 263.04453 265.60727 267.83820 269.97308 272.04288 273.89499
 275.62021 277.18747 278.61694 279.93494 281.10294 282.16547 283.20374 284.14651
 284.99445 285.74954 286.40915 287.24979
 366.78100 356.33193 345.76086 334.62379 323.02372 311.21465 299.08158 286.88151
 274.59044 262.48437 250.49030 239.78823 229.90717 221.00810 213.18703 206.18596
 200.01689 194.95182 191.53075 189.56968 188.60361 188.66454 189.49647 190.80140
 192.52333 194.61526 196.87519 199.23112 201.67305 204.14998 206.23491 208.07384
 209.69677 210.83870 211.06463 211.28957 211.22350 210.92543 210.55536 210.18229
 209.79622 209.50315 209.30808 209.16901 209.09394 209.42187 209.80480 210.19073
 210.98066 212.15559 213.40252 215.18245 217.10738 219.14731 221.23924 223.31917
 225.37610 227.45704 229.55097 231.65390 233.77983 235.94876 238.20169 240.56862
 243.18655 245.43448 247.43341 249.19534 250.60927 251.72920 252.54813 252.86106
 252.89499 252.66592 252.02285 250.96778 249.57071 247.72864 245.63457 243.46450
 241.25244 239.05337 236.87030 234.70623 232.56316 230.42709 228.45002 226.60395
 224.88388 223.35281 221.97974 220.74867 219.62760 218.58453 217.68546 216.82339
 216.06232 215.23925 214.33418 213.69511 213.14204 213.89470 215.72107 217.93108
 219.87695 221.45374 222.86444 224.22502 225.49510 226.52519 227.36807 227.64117
 227.33434 229.33949 233.07706 237.57434 242.12845 246.43867 250.45142 254.12708
 257.42966 260.37430 263.08887 265.67902 267.83987 269.94693 272.02222 273.86200
 275.53635 277.10999 278.51569 279.80252 280.96082 282.01169 283.02728 283.95929
 284.79755 285.54401 286.19608 287.02710
 366.78100 356.33157 345.76013 334.62270 323.02227 311.21283 299.07940 286.87897
 274.58753 262.48110 250.48667 239.78423 229.90280 221.00336 213.18193 206.18050
 200.01106 194.94563 191.52420 189.56276 188.59633 188.65690 189.48846 190.79303
 192.51460 194.60616 196.86573 199.22130 201.66286 204.13943 206.22400 208.06256
 209.68513 210.82670 211.05226 211.27683 211.21039 210.91196 210.54153 210.16809
 209.78166 209.48823 209.29279 209.15336 209.07793 209.40549 209.78806 210.17363
 210.96319 212.13776 213.38433 215.16389 217.08846 219.12803 221.21959 223.29916
 225.35573 227.43629 229.52986 231.63242 233.75799 235.92656 238.17912 240.54569
 243.16326 245.41082 247.40939 249.17096 250.58452 251.70409 252.52266 252.83522
 252.86879 252.63936 251.99592 250.94049 249.54306 247.70062 245.60619 243.43575
 241.22332 239.02389 236.84045 234.67602 232.53259 230.39615 228.41872 226.57229
 224.85185 223.32042 221.94699 220.71555 219.59412 218.55069 217.65125 216.78882
 216.02739 215.20395 214.29852 213.65909 213.10565 213.87775 215.74266 217.95734
 220.09016 221.61220 222.86133 224.14600 225.43834 226.41318 227.23073 227.40851
 227.19464 229.30591 233.10304 237.61182 242.17674 246.50745 250.52228 254.17769
 257.47162 260.41660 263.10980 265.62170 267.85065 269.84747 271.91559 273.85556
 275.55005 277.00812 278.32837 279.54974 280.65732 281.68088 282.66794 283.58289
 284.40576 285.13855 285.77872 286.59451
 366.78100 356.33310 345.76320 334.62730 323.02840 311.22050 299.08860 286.88971
 274.59981 262.49491 250.50201 239.80111 229.92121 221.02331 213.20341 206.20351
 200.03561 194.97171 191.55181 189.59192 188.62702 188.68912 189.52222 190.82832
 192.55142 194.64452 196.90562 199.26272 201.70582 204.18392 206.27002 208.11012
 209.73423 210.87733 211.10443 211.33053 211.26563 210.96873 210.59983 210.22793
 209.84303 209.55113 209.35723 209.21933 209.14543 209.47454 209.85864 210.24574
 211.03684 212.21294 213.46104 215.24214 217.16824 219.20934 221.30244 223.38354
 225.44164 227.52375 229.61885 231.72295 233.85005 236.02015 238.27425 240.64235
 243.26145 245.51055 247.51065 249.27375 250.68885 251.80995 252.63006 252.94416
 252.97926 252.75136 252.10946 251.05556 249.65966 247.81876 245.72586 243.55696
 241.34606 239.14816 236.96626 234.80337 232.66147 230.52657 228.55067 226.70577
 224.98687 223.45697 222.08507 220.85517 219.73527 218.69337 217.79547 216.93458
 216.17468 215.35278 214.44888 213.81098 213.25908 213.96323 215.66190 217.95216
 220.37009 221.92358 222.88367 224.00296 225.36487 226.44363 227.13789 227.30910
 227.01765 229.14449 233.06496 237.66173 242.26726 246.59042 250.60559 254.26614
 257.56201 260.49582 263.14417 265.67307 267.79407 269.78430 271.89594 273.77710
 275.40964 276.79718 278.07227 279.24771 280.26624 281.15686 282.05115 282.91925
 283.70795 284.41031 285.02386 285.80576
 366.78100 356.33745 345.77190 334.64035 323.04579 311.24224 299.11469 286.92014
 274.63459 262.53404 250.54549 239.84893 229.97338 221.07983 213.26428 206.26873
 200.10518 195.04563 191.63008 189.67452 188.71397 188.78042 189.61787 190.92832
 192.65577 194.75322 197.01866 199.38011 201.82756 204.31001 206.40046 208.24491
 209.87336 211.02080 211.25225 211.48270 211.42215 211.12960 210.76505 210.39750
 210.01695 209.72939 209.53984 209.40629 209.33674 209.67019 210.05864 210.45009
 211.24553 212.42598 213.67843 215.46388 217.39433 219.43978 221.53723 223.62267
 225.68512 227.77157 229.87102 231.97947 234.11092 236.28537 238.54382 240.91626
 243.53971 245.79316 247.79761 249.56506 250.98451 252.10996 252.93440 253.25285
 253.29230 253.06875 252.43120 251.38165 249.99010 248.15354 246.06499 243.90044
 241.69389 239.50034 237.32279 235.16424 233.02668 230.89613 228.92458 227.08403
 225.36948 223.84393 222.47638 221.25083 220.13527 219.09772 218.20417 217.34762
 216.59207 215.77452 214.87497 214.24141 213.69386 214.20833 215.53917 217.99657
 220.58084 222.07889 223.10944 224.09167 225.34787 226.39783 226.86862 227.08276
 227.08447 229.29863 233.13446 237.67038 242.25655 246.61067 250.66132 254.35635
 257.69757 260.61301 263.22372 265.71802 267.61859 269.80786 271.99936 273.70300
 275.23395 276.56815 277.75882 278.86636 279.98871 281.06149 282.04367 282.93347
 283.73376 284.44641 285.06897 285.86234
 366.78100 356.33933 345.77567 334.64600 323.05334 311.25167 299.12600 286.93334
 274.64967 262.55101 250.56434 239.86968 229.99601 221.10434 213.29068 206.29701
 200.13535 195.07768 191.66401 189.71035 188.75168 188.82002 189.65935 190.97169
 192.70102 194.80035 197.06769 199.43102 201.88036 204.36469 206.45702 208.30336
 209.93369 211.08303 211.31636 211.54870 211.49003 211.19936 210.83670 210.47103
 210.09237 209.80670 209.61903 209.48737 209.41970 209.75504 210.14537 210.53871
 211.33604 212.51837 213.77271 215.56004 217.49238 219.53971 221.63904 223.72638
 225.79071 227.87905 229.98038 232.09072 234.22405 236.40038 238.66072 241.03505
 243.66039 245.91572 247.92205 249.69139 251.11272 252.24006 253.06639 253.38673
 253.42806 253.20639 252.57073 251.52306 250.13340 248.29873 246.21206 244.04940
 241.84473 239.65307 237.47740 235.32074 233.18507 231.05640 229.08674 227.24807
 225.53541 224.01174 222.64607 221.42241 220.30874 219.27308 218.38141 217.52674
 216.77308 215.95741 215.05975 214.42808 213.88242 214.33424 215.59192 217.97827
 220.68582 222.44075 223.53391 224.39320 225.45345 226.17615 226.67555 226.45442
 226.81956 229.21489 233.17456 237.74883 242.35181 246.73727 250.81691 254.54012
 257.90674 260.86447 263.55701 265.88235 267.67535 269.75180 271.78293 273.66440
 275.13077 276.48499 278.03778 279.55142 280.86133 282.02029 283.07767 284.03555
 284.89709 285.66428 286.33447 287.18857
 366.78100 356.33557 345.76814 334.63471 323.03827 311.23284 299.10341 286.90698
 274.61955 262.51712 250.52669 239.82825 229.95082 221.05539 213.23796 206.24053
 200.07510 195.01367 191.59623 189.63880 188.67637 188.74094 189.57651 190.88508
 192.61065 194.70621 196.96978 199.32935 201.77492 204.25549 206.34406 208.18663
 209.81319 210.95876 211.18833 211.41690 211.35447 211.06004 210.69361 210.32418
 209.94174 209.65231 209.46088 209.32545 209.25402 209.58559 209.97216 210.36172
 211.15529 212.33386 213.58443 215.36800 217.29657 219.34014 221.43570 223.51927
 225.57984 227.66441 229.76198 231.86855 233.99812 236.17068 238.42725 240.79782
 243.41939 245.67096 247.67353 249.43910 250.85666 251.98023 252.80280 253.11937
 253.15694 252.93151 252.29208 251.24064 249.84721 248.00878 245.91835 243.75192
 241.54349 239.34806 237.16862 235.00819 232.86876 230.73633 228.76290 226.92047
 225.20404 223.67660 222.30717 221.07974 219.96231 218.92288 218.02745 217.16902
 216.41158 215.59215 214.69072 214.05529 213.50586 214.15854 215.80717 217.92085
 220.48108 222.64474 223.85664 224.62595 225.51469 226.25784 226.53734 226.09157
 226.41936 228.93323 233.06721 237.70038 242.31877 246.70897 250.81529 254.58546
 257.98981 261.05328 263.81195 266.21631 268.03650 269.68298 271.78369 273.78067
 275.39059 276.98810 278.58600 280.25873 281.71393 283.00140 284.17606 285.24020
 286.19727 287.04956 287.79410 288.74292
 366.78100 356.33281 345.76262 334.62643 323.02724 311.21905 299.08687 286.88768
 274.59749 262.49230 250.49911 239.79792 229.91773 221.01954 213.19935 206.19916
 200.03097 194.96678 191.54660 189.58641 188.62122 188.68303 189.51584 190.82165
 192.54446 194.63727 196.89808 199.25489 201.69770 204.17552 206.26133 208.10114
 209.72495 210.86776 211.09457 211.32038 211.25519 210.95800 210.58881 210.21662
 209.83143 209.53925 209.34506 209.20687 209.13268 209.46149 209.84530 210.23211
 211.02292 212.19873 213.44654 215.22735 217.15317 219.19398 221.28679 223.36760
 225.42541 227.50722 229.60203 231.70584 233.83265 236.00246 238.25627 240.62408
 243.24290 245.49171 247.49152 249.25433 250.66914 251.78995 252.60976 252.92357
 252.95838 252.73019 252.08800 251.03382 249.63763 247.79644 245.70325 243.53406
 241.32287 239.12468 236.94249 234.77930 232.63711 230.50192 228.52574 226.68055
 224.96136 223.43117 222.05898 220.82879 219.70860 218.66641 217.76822 216.90703
 216.14684 215.32465 214.42047 213.78228 213.23009 214.01222 215.94125 218.07840
 220.29677 222.52289 223.83698 224.61948 225.51707 226.41402 226.72531 226.19154
 226.41107 228.78200 232.94981 237.56433 242.11299 246.48523 250.57471 254.32831
 257.73987 260.81564 263.61417 266.08609 268.09506 269.77249 271.81485 273.82455
 275.50797 277.13815 278.69626 280.16034 281.55096 282.78131 283.90381 284.92072
 285.83530 286.64975 287.36124 288.26794
 366.78100 356.33530 345.76759 334.63389 323.03718 311.23148 299.10177 286.90507
 274.61736 262.51466 250.52395 239.82525 229.94754 221.05184 213.23413 206.23643
 200.07072 195.00902 191.59131 189.63361 188.67090 188.73520 189.57049 190.87879
 192.60408 194.69938 196.96267 199.32197 201.76726 204.24756 206.33585 208.17815
 209.80444 210.94974 211.17903 211.40733 211.34462 211.04992 210.68321 210.31351
 209.93080 209.64110 209.44939 209.31369 209.24198 209.57328 209.95957 210.34887
 211.14216 212.32046 213.57075 215.35405 217.28234 219.32564 221.42093 223.50423
 225.56452 227.64882 229.74611 231.85241 233.98170 236.15400 238.41029 240.78059
 243.40188 245.65318 247.65547 249.42077 250.83806 251.96136 252.78365 253.09995
 253.13724 252.91154 252.27183 251.22013 249.82642 247.98772 245.89701 243.73031
 241.52160 239.32590 237.14619 234.98549 232.84578 230.71308 228.73937 226.89667
 225.17996 223.65226 222.28255 221.05485 219.93714 218.89744 218.00173 217.14303
 216.38532 215.56562 214.66391 214.02821 213.47850 214.13554 215.82607 218.24409
 220.51541 222.45789 223.67609 224.42606 225.36296 226.35814 226.82059 226.40872
 226.59509 228.87021 232.97112 237.56538 242.09554 246.43144 250.49803 254.21918
 257.60867 260.64819 263.41861 265.94824 268.04092 269.76611 271.75192 273.74426
 275.41901 277.04861 278.61212 280.07208 281.44135 282.65277 283.75806 284.75934
 285.65988 286.46182 287.16238 288.05518
 366.78100 356.33934 345.77567 334.64601 323.05335 311.25168 299.12602 286.93336
 274.64969 262.55103 250.56436 239.86970 229.99604 221.10437 213.29071 206.29705
 200.13538 195.07772 191.66406 189.71039 188.75173 188.82007 189.65940 190.97174
 192.70107 194.80041 197.06775 199.43108 201.88042 204.36476 206.45709 208.30343
 209.93377 211.08310 211.31644 211.54878 211.49011 211.19945 210.83678 210.47112
 210.09246 209.80679 209.61913 209.48747 209.41980 209.75514 210.14548 210.53881
 211.33615 212.51849 213.77282 215.56016 217.49250 219.53983 221.63917 223.72650
 225.79084 227.87918 229.98051 232.09085 234.22419 236.40052 238.66086 241.03520
 243.66053 245.91587 247.92221 249.69154 251.11288 252.24021 253.06655 253.38689
 253.42822 253.20656 252.57090 251.52323 250.13357 248.29891 246.21224 244.04958
 241.84492 239.65325 237.47759 235.32093 233.18526 231.05660 229.08693 227.24827
 225.53561 224.01194 222.64628 221.42262 220.30895 219.27329 218.38163 217.52696
 216.77330 215.95764 215.05997 214.42831 213.88264 214.35442 215.65309 218.26663
 220.80637 222.55530 223.67874 224.34872 225.20943 226.18768 226.66457 226.31743
 226.58600 228.91756 233.03981 237.64188 242.17273 246.51271 250.57927 254.30188
 257.68094 260.71179 263.44626 265.97968 268.15414 269.95508 271.77762 273.72757
 275.40704 276.93011 278.49722 279.96204 281.37961 282.63376 283.77802 284.81464
 285.74695 286.57715 287.30243 288.22672
 366.78100 356.34158 345.78017 334.65275 323.06233 311.26292 299.13950 286.94908
 274.66767 262.57125 250.58683 239.89442 230.02300 221.13358 213.32217 206.33075
 200.17133 195.11592 191.70450 189.75308 188.79667 188.86725 189.70883 191.02342
 192.75500 194.85658 197.12617 199.49175 201.94333 204.42992 206.52450 208.37308
 210.00567 211.15725 211.39283 211.62742 211.57100 211.28258 210.92217 210.55875
 210.18233 209.89892 209.71350 209.58408 209.51867 209.85625 210.24883 210.64442
 211.44400 212.62858 213.88517 215.67475 217.60933 219.65892 221.76050 223.85008
 225.91666 228.00725 230.11083 232.22341 234.35900 236.53758 238.80016 241.17675
 243.80433 246.06191 248.07050 249.84208 251.26566 252.39525 253.22383 253.54641
 253.59000 253.37058 252.73716 251.69175 250.30433 248.47191 246.38750 244.22708
 242.02466 239.83525 237.66183 235.50741 233.37400 231.24758 229.28016 227.44375
 225.73333 224.21191 222.84850 221.62708 220.51566 219.48225 218.59283 217.74041
 216.98900 216.17558 215.28016 214.65075 214.10733 214.49500 215.60077 218.20135
 220.96503 222.69836 223.79272 224.44826 225.21085 226.08244 226.46347 226.05724
 226.38249 228.85219 233.05225 237.67451 242.22285 246.56651 250.64351 254.39334
 257.78372 260.80377 263.52066 266.03485 268.23804 270.08813 271.85300 273.71896
 275.39972 276.80475 278.35443 279.80359 281.24841 282.52673 283.69299 284.74957
 285.69983 286.54605 287.28528 288.22733
 366.78100 356.34282 345.78263 334.65645 323.06726 311.26908 299.14689 286.95771
 274.67752 262.58234 250.59915 239.90797 230.03779 221.14960 213.33942 206.34923
 200.19105 195.13686 191.72668 189.77649 188.82131 188.89312 189.73594 191.05176
 192.78457 194.88739 197.15820 199.52502 201.97783 204.46565 206.56146 208.41128
 210.04509 211.19791 211.43473 211.67054 211.61536 211.32817 210.96899 210.60680
 210.23162 209.94943 209.76525 209.63706 209.57288 209.91170 210.30551 210.70233
 211.50314 212.68896 213.94677 215.73759 217.67340 219.72422 221.82703 223.91785
 225.98567 228.07748 230.18230 232.29611 234.43293 236.61274 238.87656 241.25437
 243.88319 246.14200 248.15182 249.92464 251.34945 252.48027 253.31008 253.63390
 253.67871 253.46053 252.82834 251.78416 250.39797 248.56679 246.48361 244.32442
 242.12324 239.93505 237.76287 235.60968 233.47750 231.35231 229.38613 227.55094
 225.84176 224.32158 222.95939 221.73921 220.62902 219.59684 218.70865 217.85747
 217.10728 216.29510 215.40091 214.77273 214.23055 214.58902 215.62083 218.11980
 221.00850 222.80171 223.92892 224.65446 225.35609 226.07402 226.28380 225.76335
 226.12062 228.74095 233.02802 237.67441 242.23363 246.60747 250.71135 254.49287
 257.91138 260.96814 263.68256 266.16965 268.37567 270.23065 271.93723 273.71231
 275.36819 276.71979 278.24423 279.71884 281.13867 282.39487 283.54092 284.57919
 285.51300 286.34457 287.07101 287.99677
 366.78100 356.34195 345.78090 334.65386 323.06381 311.26476 299.14171 286.95166
 274.67062 262.57457 250.59052 239.89847 230.02743 221.13838 213.32733 206.33628
 200.17723 195.12219 191.71114 189.76009 188.80404 188.87499 189.71695 191.03190
 192.76385 194.86580 197.13575 199.50171 201.95366 204.44061 206.53556 208.38452
 210.01747 211.16942 211.40537 211.64032 211.58428 211.29623 210.93618 210.57313
 210.19708 209.91404 209.72899 209.59994 209.53489 209.87284 210.26580 210.66175
 211.46170 212.64665 213.90361 215.69356 217.62851 219.67846 221.78041 223.87037
 225.93732 228.02827 230.13222 232.24517 234.38113 236.56008 238.82303 241.19998
 243.82793 246.08589 248.09484 249.86679 251.29074 252.42070 253.24965 253.57260
 253.61655 253.39750 252.76446 251.71941 250.33236 248.50031 246.41626 244.25622
 242.05417 239.86512 237.69207 235.53802 233.40498 231.27893 229.31188 227.47583
 225.76579 224.24474 222.88169 221.66064 220.54959 219.51655 218.62750 217.77545
 217.02440 216.21135 215.31631 214.68726 214.14421 214.57500 215.74078 218.04678
 220.87259 222.85814 224.12813 224.92677 225.56650 226.13638 226.12772 225.41812
 225.79808 228.56326 232.94862 237.63773 242.22105 246.62639 250.77258 254.59598
 258.06793 261.17902 263.92780 266.42892 268.64783 270.52444 272.17596 273.79843
 275.40335 276.71579 278.23724 279.71783 281.18533 282.48370 283.66824 284.74139
 285.70654 286.56604 287.31686 288.27368
 366.78100 356.33887 345.77474 334.64461 323.05147 311.24934 299.12321 286.93008
 274.64595 262.54682 250.55968 239.86455 229.99042 221.09829 213.28416 206.29003
 200.12790 195.06976 191.65563 189.70150 188.74237 188.81024 189.64911 190.96097
 192.68984 194.78871 197.05558 199.41845 201.86732 204.35119 206.44305 208.28892
 209.91879 211.06766 211.30053 211.53240 211.47326 211.18213 210.81900 210.45287
 210.07374 209.78761 209.59948 209.46734 209.39921 209.73408 210.12395 210.51682
 211.31369 212.49555 213.74942 215.53629 217.46816 219.51503 221.61390 223.70077
 225.76463 227.85250 229.95337 232.06324 234.19611 236.37198 238.63184 241.00571
 243.63058 245.88545 247.89132 249.66019 251.08106 252.20792 253.03379 253.35366
 253.39453 253.17240 252.53627 251.48813 250.09800 248.26287 246.17574 244.01261
 241.80748 239.61535 237.43921 235.28208 233.14595 231.01682 229.04669 227.20756
 225.49442 223.97029 222.60416 221.38003 220.26590 219.22977 218.33764 217.48250
 216.72837 215.91224 215.01411 214.38198 213.83585 214.43895 215.95030 218.03197
 220.58591 222.83922 224.25690 225.06473 225.71881 226.31219 226.23239 225.25977
 225.53065 228.30817 232.76939 237.47157 242.05972 246.48299 250.66614 254.54802
 258.10669 261.30331 264.12213 266.68073 268.95813 270.92938 272.59744 274.10318
 275.60257 276.91837 278.34982 279.76907 281.18341 282.50192 283.70483 284.79462
 285.77475 286.64755 287.41003 288.38171
 366.78100 356.33683 345.77065 334.63848 323.04330 311.23913 299.11096 286.91578
 274.62961 262.52843 250.53926 239.84209 229.96591 221.07174 213.25556 206.25939
 200.09522 195.03504 191.61887 189.66270 188.70152 188.76735 189.60417 190.91400
 192.64083 194.73765 197.00248 199.36330 201.81013 204.29196 206.38178 208.22561
 209.85343 211.00026 211.23109 211.46091 211.39974 211.10656 210.74139 210.37322
 209.99204 209.70387 209.51369 209.37952 209.30935 209.64217 210.03000 210.42083
 211.21565 212.39548 213.64730 215.43213 217.36196 219.40678 221.50361 223.58843
 225.65026 227.73609 229.83491 231.94274 234.07356 236.24739 238.50522 240.87704
 243.49987 245.75269 247.75652 249.52335 250.94217 252.06700 252.89082 253.20865
 253.24748 253.02330 252.38513 251.33496 249.94278 248.10561 246.01643 243.85126
 241.64409 239.44991 237.27174 235.11256 232.97439 230.84322 228.87104 227.02987
 225.31469 223.78852 222.42035 221.19417 220.07800 219.03982 218.14565 217.28848
 216.53230 215.71413 214.81395 214.17978 213.63161 214.33864 216.06308 218.16350
 220.34502 222.56793 224.13446 225.00066 225.73508 226.53900 226.72064 225.33711
 225.38258 228.08075 232.56891 237.21777 241.78839 246.20612 250.40689 254.32578
 257.93652 261.21332 264.12961 266.77280 269.12756 271.19818 272.98215 274.52335
 275.94183 277.25732 278.53040 279.88080 281.10468 282.28043 283.44748 284.50473
 285.45563 286.30240 287.04211 287.98480
 366.78100 356.33675 345.77051 334.63826 323.04301 311.23877 299.11052 286.91527
 274.62903 262.52778 250.53853 239.84129 229.96504 221.07079 213.25455 206.25830
 200.09406 195.03381 191.61756 189.66132 188.70007 188.76582 189.60258 190.91233
 192.63908 194.73584 197.00059 199.36134 201.80810 204.28985 206.37960 208.22336
 209.85111 210.99786 211.22862 211.45837 211.39712 211.10388 210.73863 210.37038
 209.98914 209.70089 209.51064 209.37640 209.30615 209.63890 210.02666 210.41741
 211.21217 212.39192 213.64367 215.42843 217.35818 219.40293 221.49969 223.58444
 225.64619 227.73195 229.83070 231.93845 234.06921 236.24296 238.50071 240.87247
 243.49522 245.74797 247.75173 249.51848 250.93723 252.06199 252.88574 253.20349
 253.24225 253.01800 252.37975 251.32951 249.93726 248.10001 246.01077 243.84552
 241.63828 239.44403 237.26578 235.10654 232.96829 230.83704 228.86480 227.02355
 225.30830 223.78206 222.41381 221.18756 220.07132 219.03307 218.13882 217.28158
 216.52533 215.70708 214.80684 214.17259 213.62434 214.33746 216.06113 218.32907
 220.34683 222.37537 223.93108 224.85425 225.74908 226.72040 227.07286 225.40457
 225.26459 227.92297 232.46126 237.03334 241.58951 245.99991 250.20787 254.14384
 257.77881 261.09674 264.07983 266.76114 269.17191 271.31454 273.16901 274.76508
 276.18552 277.48370 278.71576 279.98596 281.17139 282.24451 283.27039 284.30450
 285.23456 286.06277 286.78632 287.70834
 366.78100 356.33773 345.77245 334.64118 323.04690 311.24363 299.11635 286.92208
 274.63681 262.53653 250.54826 239.85198 229.97671 221.08343 213.26816 206.27289
 200.10961 195.05034 191.63506 189.67979 188.71951 188.78624 189.62397 190.93469
 192.66242 194.76014 197.02587 199.38759 201.83532 204.31805 206.40877 208.25350
 209.88222 211.02995 211.26167 211.49240 211.43213 211.13985 210.77558 210.40830
 210.02803 209.74075 209.55148 209.41821 209.34893 209.68266 210.07138 210.46311
 211.25883 212.43956 213.69229 215.47801 217.40874 219.45446 221.55219 223.63792
 225.70064 227.78737 229.88709 231.99582 234.12754 236.30227 238.56100 240.93372
 243.55745 245.81117 247.81590 249.58362 251.00335 252.12908 252.95380 253.27253
 253.31225 253.08898 252.45170 251.40243 250.01116 248.17488 246.08661 243.92233
 241.71606 239.52278 237.34551 235.18724 233.04996 230.91969 228.94841 227.10814
 225.39386 223.86859 222.50132 221.27604 220.16077 219.12349 218.23022 217.37394
 216.61867 215.80140 214.90212 214.26885 213.72157 214.39624 216.01512 218.44788
 220.43254 222.35515 223.87032 224.80623 225.73344 226.69101 227.13799 225.56261
 225.44995 227.96649 232.40248 236.92563 241.46370 245.87341 250.09512 254.05194
 257.71027 261.05682 264.07248 266.77139 269.20401 271.38635 273.28726 274.91321
 276.33279 277.62921 278.84735 280.07187 281.23758 282.29657 283.28638 284.22040
 285.11035 285.90286 286.59521 287.47748
 366.78100 356.33869 345.77438 334.64407 323.05075 311.24844 299.12213 286.92882
 274.64451 262.54520 250.55789 239.86258 229.98826 221.09595 213.28164 206.28733
 200.12502 195.06671 191.65240 189.69809 188.73877 188.80646 189.64515 190.95684
 192.68553 194.78422 197.05091 199.41360 201.86228 204.34597 206.43766 208.28335
 209.91304 211.06173 211.29442 211.52610 211.46679 211.17548 210.81217 210.44586
 210.06655 209.78024 209.59193 209.45961 209.39130 209.72599 210.11568 210.50837
 211.30506 212.48675 213.74044 215.52712 217.45881 219.50550 221.60419 223.69088
 225.75457 227.84226 229.94295 232.05263 234.18532 236.36101 238.62070 240.99439
 243.61908 245.87377 247.87945 249.64814 251.06883 252.19552 253.02121 253.34090
 253.38159 253.15928 252.52296 251.47465 250.08434 248.24903 246.16172 243.99841
 241.79310 239.60079 237.42447 235.26716 233.13085 231.00154 229.03123 227.19192
 225.47861 223.95430 222.58798 221.36367 220.24936 219.21305 218.32074 217.46543
 216.71112 215.89480 214.99649 214.36418 213.81787 214.46152 215.98398 218.44542
 220.57030 222.43204 223.89336 224.82303 225.66948 226.54974 227.07579 225.72131
 225.62308 228.07436 232.37141 236.87024 241.37296 245.77562 250.01112 253.99133
 257.67706 261.04514 264.06512 266.75238 269.17993 271.38123 273.31281 274.97137
 276.42169 277.72534 278.93271 280.11847 281.28436 282.33725 283.31924 284.23016
 285.05954 285.83032 286.50366 287.36176
 366.78100 356.33997 345.77694 334.64791 323.05588 311.25485 299.12983 286.93780
 274.65477 262.55674 250.57071 239.87668 230.00365 221.11262 213.29959 206.30656
 200.14553 195.08851 191.67548 189.72245 188.76442 188.83339 189.67336 190.98633
 192.71630 194.81627 197.08424 199.44821 201.89819 204.38316 206.47613 208.32310
 209.95407 211.10404 211.33801 211.57098 211.51295 211.22292 210.86089 210.49587
 210.11784 209.83281 209.64578 209.51475 209.44772 209.78369 210.17466 210.56863
 211.36660 212.54957 213.80455 215.59252 217.52549 219.57346 221.67343 223.76140
 225.82637 227.91534 230.01731 232.12828 234.26225 236.43923 238.70020 241.07517
 243.70114 245.95711 247.96408 249.73405 251.15602 252.28399 253.11096 253.43193
 253.47391 253.25288 252.61785 251.57082 250.18179 248.34776 246.26173 244.09970
 241.89567 239.70464 237.52961 235.37359 233.23856 231.11053 229.14150 227.30347
 225.59144 224.06841 222.70338 221.48035 220.36732 219.33229 218.44127 217.58724
 216.83421 216.01918 215.12215 214.49112 213.94609 214.54761 215.96877 218.39662
 220.70612 222.50507 223.86082 224.79027 225.59573 226.45102 227.02589 225.85898
 225.74757 228.14496 232.36259 236.85194 241.32330 245.71167 249.95268 253.95575
 257.68076 261.08353 264.11563 266.77982 269.18295 271.37558 273.29016 274.93399
 276.39285 277.71655 278.95065 280.17291 281.33600 282.39209 283.37729 284.28745
 285.11029 285.84601 286.50128 287.33630
 366.78100 356.34185 345.78069 334.65354 323.06339 311.26423 299.14108 286.95092
 274.66977 262.57362 250.58946 239.89731 230.02616 221.13700 213.32585 206.33470
 200.17554 195.12039 191.70923 189.75808 188.80193 188.87277 189.71462 191.02947
 192.76131 194.86316 197.13301 199.49885 201.95070 204.43754 206.53239 208.38124
 210.01408 211.16593 211.40178 211.63662 211.58047 211.29232 210.93216 210.56901
 210.19285 209.90970 209.72455 209.59539 209.53024 209.86809 210.26093 210.65678
 211.45663 212.64147 213.89832 215.68816 217.62301 219.67286 221.77470 223.86455
 225.93140 228.02224 230.12609 232.23894 234.37478 236.55363 238.81647 241.19332
 243.82117 246.07901 248.08786 249.85971 251.28355 252.41340 253.24225 253.56509
 253.60894 253.38978 252.75663 251.71148 250.32432 248.49217 246.40802 244.24786
 242.04571 239.85656 237.68340 235.52925 233.39609 231.26994 229.30279 227.46663
 225.75648 224.23533 222.87217 221.65102 220.53987 219.50671 218.61756 217.76540
 217.01425 216.20110 215.30594 214.67679 214.13364 214.66263 215.91241 218.43468
 220.74275 222.49974 223.83896 224.71582 225.49359 226.39578 227.04860 225.98019
 225.83867 228.17714 232.35153 236.83540 241.28941 245.66608 249.90944 253.93149
 257.68866 261.13187 264.19693 266.87296 269.27734 271.48581 273.39960 275.01505
 276.44171 277.74655 278.96967 280.18661 281.35260 282.40305 283.36304 284.26587
 285.08539 285.85287 286.52551 287.38275
 366.78100 356.34273 345.78247 334.65620 323.06693 311.26867 299.14640 286.95713
 274.67687 262.58160 250.59833 239.90707 230.03680 221.14853 213.33827 206.34800
 200.18973 195.13547 191.72520 189.77493 188.81967 188.89140 189.73413 191.04987
 192.78260 194.88533 197.15607 199.52280 201.97553 204.46327 206.55900 208.40873
 210.04247 211.19520 211.43193 211.66767 211.61240 211.32513 210.96587 210.60360
 210.22833 209.94607 209.76180 209.63353 209.56927 209.90800 210.30173 210.69847
 211.49920 212.68493 213.94267 215.73340 217.66913 219.71987 221.82260 223.91333
 225.98107 228.07280 230.17753 232.29127 234.42800 236.60773 238.87147 241.24920
 243.87793 246.13667 248.14640 249.91913 251.34387 252.47460 253.30434 253.62807
 253.67280 253.45454 252.82227 251.77800 250.39174 248.56047 246.47720 244.31794
 242.11667 239.92840 237.75614 235.60287 233.47060 231.34534 229.37907 227.54380
 225.83454 224.31427 222.95200 221.73174 220.62147 219.58920 218.70094 217.84967
 217.09940 216.28714 215.39287 214.76460 214.22234 214.72305 215.90604 218.49519
 220.73839 222.47435 223.86440 224.68018 225.39671 226.31233 227.06569 226.11421
 225.92062 228.19930 232.31737 236.80266 241.24567 245.61578 249.86423 253.90450
 257.68701 261.15823 264.25076 266.93643 269.35208 271.60577 273.55649 275.18164
 276.59769 277.88086 279.06894 280.22104 281.36090 282.40646 283.36627 284.25290
 285.07126 285.82962 286.50549 287.36703
 366.78100 356.34243 345.78186 334.65529 323.06572 311.26715 299.14458 286.95501
 274.67444 262.57887 250.59530 239.90373 230.03316 221.14459 213.33402 206.34345
 200.18488 195.13031 191.71974 189.76917 188.81360 188.88503 189.72746 191.04289
 192.77532 194.87775 197.14818 199.51461 201.96704 204.45447 206.54990 208.39933
 210.03276 211.18519 211.42162 211.65705 211.60147 211.31390 210.95433 210.59176
 210.21619 209.93362 209.74905 209.62048 209.55591 209.89434 210.28777 210.68420
 211.48463 212.67006 213.92749 215.71792 217.65335 219.70378 221.80621 223.89664
 225.96407 228.05550 230.15993 232.27336 234.40979 236.58922 238.85265 241.23008
 243.85851 246.11694 248.12637 249.89880 251.32323 252.45366 253.28309 253.60652
 253.65095 253.43238 252.79981 251.75524 250.36867 248.53710 246.45353 244.29396
 242.09239 239.90382 237.73125 235.57768 233.44511 231.31954 229.35297 227.51740
 225.80783 224.28726 222.92469 221.70412 220.59355 219.56098 218.67241 217.82084
 217.07027 216.25770 215.36313 214.73456 214.19199 214.72217 215.97481 218.48351
 220.75558 222.49333 223.86899 224.66524 225.33713 226.22362 227.03131 226.22255
 225.98595 228.21979 232.28517 236.77301 241.20395 245.57318 249.83113 253.88818
 257.69131 261.17950 264.27954 266.95267 269.36908 271.62225 273.57062 275.22141
 276.67697 277.98407 279.17480 280.28308 281.40302 282.44678 283.40793 284.28812
 285.10620 285.86072 286.53510 287.38544
 366.78100 356.34197 345.78093 334.65390 323.06387 311.26484 299.14180 286.95177
 274.67074 262.57470 250.59067 239.89864 230.02760 221.13857 213.32754 206.33651
 200.17747 195.12244 191.71141 189.76037 188.80434 188.87531 189.71728 191.03224
 192.76421 194.86618 197.13614 199.50211 201.95408 204.44104 206.53601 208.38498
 210.01795 211.16991 211.40588 211.64085 211.58481 211.29678 210.93675 210.57372
 210.19768 209.91465 209.72962 209.60058 209.53555 209.87352 210.26648 210.66245
 211.46242 212.64739 213.90435 215.69432 217.62929 219.67925 221.78122 223.87119
 225.93816 228.02912 230.13309 232.24606 234.38202 236.56099 238.82396 241.20092
 243.82889 246.08686 248.09583 249.86779 251.29176 252.42173 253.25069 253.57366
 253.61763 253.39860 252.76556 251.72053 250.33350 248.50146 246.41743 244.25740
 242.05536 239.86633 237.69330 235.53927 233.40623 231.28020 229.31317 227.47713
 225.76710 224.24607 222.88304 221.66200 220.55097 219.51794 218.62890 217.77687
 217.02584 216.21280 215.31777 214.68874 214.14571 214.71489 216.05965 218.43237
 220.75143 222.52219 223.84979 224.62704 225.28000 226.15825 227.00229 226.28879
 226.05383 228.23808 232.26668 236.75281 241.18311 245.55234 249.81996 253.89047
 257.70944 261.21066 264.31815 266.97653 269.38477 271.63278 273.54623 275.16830
 276.63596 277.97537 279.19519 280.32208 281.45923 282.50610 283.46945 284.35504
 285.16980 285.92184 286.58337 287.43637
 366.78100 356.34172 345.78043 334.65315 323.06286 311.26358 299.14029 286.95001
 274.66872 262.57244 250.58815 239.89587 230.02458 221.13530 213.32401 206.33273
 200.17344 195.11816 191.70688 189.75559 188.79931 188.87002 189.71174 191.02645
 192.75817 194.85988 197.12960 199.49531 201.94703 204.43374 206.52846 208.37717
 210.00989 211.16160 211.39732 211.63204 211.57575 211.28747 210.92718 210.56390
 210.18761 209.90433 209.71904 209.58976 209.52447 209.86219 210.25490 210.65062
 211.45033 212.63505 213.89176 215.68148 217.61620 219.66591 221.76763 223.85734
 225.92406 228.01477 230.11849 232.23120 234.36692 236.54563 238.80835 241.18506
 243.81278 246.07049 248.07921 249.85092 251.27464 252.40436 253.23307 253.55579
 253.59950 253.38022 252.74693 251.70165 250.31436 248.48208 246.39779 244.23751
 242.03522 239.84594 237.67265 235.51837 233.38508 231.25880 229.29152 227.45523
 225.74495 224.22366 222.86038 221.63909 220.52781 219.49452 218.60524 217.75295
 217.00167 216.18838 215.29310 214.66381 214.12053 214.71686 216.12576 218.40852
 220.71713 222.53075 223.83784 224.57764 225.19930 226.09244 226.98027 226.35498
 226.13980 228.26845 232.25879 236.74185 241.17053 245.54359 249.81909 253.89609
 257.72385 261.23166 264.34387 266.99646 269.41107 271.67114 273.57040 275.15689
 276.60257 277.94821 279.18726 280.35367 281.51141 282.56329 283.52905 284.41730
 285.23462 285.98587 286.64233 287.49814
 366.78100 356.34173 345.78046 334.65319 323.06292 311.26365 299.14038 286.95010
 274.66883 262.57256 250.58829 239.89602 230.02475 221.13548 213.32421 206.33294
 200.17367 195.11840 191.70713 189.75585 188.79958 188.87031 189.71204 191.02677
 192.75850 194.86023 197.12996 199.49569 201.94742 204.43415 206.52888 208.37760
 210.01033 211.16206 211.39779 211.63252 211.57625 211.28798 210.92771 210.56444
 210.18817 209.90490 209.71963 209.59035 209.52508 209.86281 210.25554 210.65127
 211.45100 212.63573 213.89246 215.68219 217.61692 219.66665 221.76838 223.85810
 225.92483 228.01556 230.11929 232.23202 234.36775 236.54648 238.80921 241.18594
 243.81367 246.07140 248.08013 249.85185 251.27558 252.40531 253.23404 253.55677
 253.60050 253.38123 252.74796 251.70269 250.31542 248.48315 246.39888 244.23861
 242.03633 239.84706 237.67379 235.51952 233.38625 231.25998 229.29271 227.45644
 225.74617 224.22490 222.86163 221.64036 220.52908 219.49581 218.60654 217.75427
 217.00300 216.18973 215.29446 214.66519 214.12192 214.72932 216.16441 218.42014
 220.68130 222.51382 223.82791 224.53146 225.10902 226.01506 226.95163 226.41499
 226.22577 228.30618 232.25591 236.73480 241.16600 245.54504 249.82753 253.90784
 257.73737 261.24301 264.34909 266.99249 269.41425 271.69318 273.59409 275.16727
 276.59125 277.92834 279.17203 280.39130 281.56009 282.61432 283.58429 284.47357
 285.29315 286.04510 286.69995 287.56335
 366.78100 356.34210 345.78120 334.65430 323.06440 311.26550 299.14260 286.95270
 274.67180 262.57590 250.59200 239.90010 230.02920 221.14030 213.32940 206.33850
 200.17960 195.12470 191.71380 189.76291 188.80701 188.87811 189.72021 191.03531
 192.76741 194.86951 197.13961 199.50571 201.95781 204.44491 206.54001 208.38911
 210.02221 211.17431 211.41041 211.64551 211.58961 211.30171 210.94181 210.57891
 210.20301 209.92011 209.73521 209.60631 209.54141 209.87951 210.27261 210.66871
 211.46881 212.65391 213.91101 215.70111 217.63621 219.68631 221.78841 223.87851
 225.94562 228.03672 230.14082 232.25392 234.39002 236.56912 238.83222 241.20932
 243.83742 246.09552 248.10462 249.87672 251.30082 252.43092 253.26002 253.58312
 253.62722 253.40832 252.77542 251.73052 250.34362 248.51172 246.42782 244.26792
 242.06602 239.87712 237.70422 235.55032 233.41742 231.29152 229.32462 227.48872
 225.77882 224.25792 222.89502 221.67412 220.56322 219.53033 218.64143 217.78953
 217.03863 216.22573 215.33083 214.70193 214.15903 214.75867 216.17538 218.44110
 220.66725 222.49731 223.80334 224.47096 225.01096 225.92506 226.90413 226.46997
 226.32393 228.35616 232.26117 236.73712 241.17125 245.56067 249.85062 253.93166
 257.75705 261.25336 264.34656 266.97702 269.40100 271.68912 273.58975 275.16666
 276.58563 277.91574 279.15936 280.42499 281.60095 282.65707 283.62787 284.51935
 285.33951 286.08838 286.74658 287.61050
 366.78100 356.34262 345.78225 334.65587 323.06649 311.26811 299.14574 286.95636
 274.67598 262.58060 250.59723 239.90585 230.03547 221.14709 213.33672 206.34634
 200.18796 195.13358 191.72321 189.77283 188.81745 188.88907 189.73170 191.04732
 192.77994 194.88256 197.15319 199.51981 201.97243 204.46005 206.55568 208.40530
 210.03892 211.19155 211.42817 211.66379 211.60841 211.32104 210.96166 210.59928
 210.22390 209.94153 209.75715 209.62877 209.56439 209.90302 210.29664 210.69326
 211.49388 212.67951 213.93713 215.72775 217.66337 219.71400 221.81662 223.90724
 225.97486 228.06649 230.17111 232.28473 234.42135 236.60098 238.86460 241.24222
 243.87085 246.12947 248.13909 249.91171 251.33634 252.46696 253.29658 253.62020
 253.66483 253.44645 252.81407 251.76969 250.38332 248.55194 246.46856 244.30918
 242.10781 239.91943 237.74705 235.59367 233.46130 231.33592 229.36954 227.53416
 225.82479 224.30441 222.94203 221.72165 220.61128 219.57890 218.69052 217.83915
 217.08877 216.27639 215.38201 214.75364 214.21126 214.79678 216.18015 218.44557
 220.67139 222.50037 223.78195 224.39828 224.88800 225.80231 226.83884 226.51740
 226.42305 228.41928 232.27904 236.75168 241.19299 245.59308 249.89001 253.96790
 257.78226 261.26166 264.33652 266.95786 269.38425 271.67270 273.56885 275.15070
 276.57590 277.90482 279.14801 280.45490 281.63824 282.69415 283.66519 284.55771
 285.37823 286.12906 286.78989 287.66678
 366.78100 356.34300 345.78299 334.65699 323.06799 311.26998 299.14798 286.95897
 274.67897 262.58397 250.60096 239.90996 230.03996 221.15195 213.34195 206.35194
 200.19394 195.13994 191.72993 189.77993 188.82493 188.89692 189.73992 191.05591
 192.78891 194.89191 197.16290 199.52990 201.98290 204.47089 206.56689 208.41688
 210.05088 211.20388 211.44087 211.67687 211.62187 211.33486 210.97586 210.61385
 210.23885 209.95685 209.77284 209.64484 209.58084 209.91983 210.31383 210.71082
 211.51182 212.69782 213.95581 215.74681 217.68281 219.73380 221.83680 223.92779
 225.99579 228.08779 230.19278 232.30678 234.44378 236.62377 238.88777 241.26576
 243.89476 246.15376 248.16375 249.93675 251.36175 252.49274 253.32274 253.64673
 253.69173 253.47373 252.84172 251.79772 250.41172 248.58071 246.49771 244.33871
 242.13770 239.94970 237.77769 235.62469 233.49269 231.36768 229.40168 227.56668
 225.85767 224.33767 222.97566 221.75566 220.64566 219.61365 218.72565 217.87465
 217.12464 216.31264 215.41863 214.79063 214.24863 214.82866 216.19905 218.43211
 220.67740 222.51254 223.77516 224.33498 224.76158 225.64613 226.72565 226.55812
 226.54860 228.50035 232.30440 236.77611 241.22954 245.64272 249.94547 254.01460
 257.81076 261.26456 264.31485 266.93127 269.36526 271.65262 273.54187 275.12683
 276.55927 277.89273 279.14703 280.47293 281.66028 282.71927 283.69217 284.58536
 285.40503 286.15515 286.81473 287.69128
 366.78100 356.34312 345.78324 334.65737 323.06849 311.27061 299.14873 286.95986
 274.67998 262.58510 250.60222 239.91134 230.04147 221.15359 213.34371 206.35383
 200.19595 195.14208 191.73220 189.78232 188.82744 188.89957 189.74269 191.05881
 192.79193 194.89505 197.16618 199.53330 201.98642 204.47454 206.57066 208.42079
 210.05491 211.20803 211.44515 211.68128 211.62640 211.33952 210.98064 210.61876
 210.24389 209.96201 209.77813 209.65025 209.58637 209.92550 210.31962 210.71674
 211.51786 212.70399 213.96211 215.75323 217.68935 219.74047 221.84360 223.93472
 226.00284 228.09496 230.20008 232.31421 234.45133 236.63145 238.89557 241.27370
 243.90282 246.16194 248.17206 249.94518 251.37031 252.50143 253.33155 253.65567
 253.70079 253.48292 252.85104 251.80716 250.42128 248.59041 246.50753 244.34865
 242.14777 239.95989 237.78802 235.63514 233.50326 231.37838 229.41251 227.57763
 225.86875 224.34887 222.98699 221.76712 220.65724 219.62536 218.73748 217.88660
 217.13673 216.32485 215.43097 214.80309 214.26122 214.84764 216.23314 218.41080
 220.67432 222.53270 223.78258 224.26917 224.61928 225.47926 226.60765 226.55264
 226.63457 228.59723 232.35194 236.81631 241.28146 245.71077 250.01788 254.07178
 257.84171 261.26309 264.28491 266.89880 269.34308 271.63086 273.51511 275.10089
 276.53906 277.87903 279.14957 280.48172 281.67157 282.73032 283.70529 284.59921
 285.41718 286.16534 286.82355 287.69650
 366.78100 356.34309 345.78319 334.65728 323.06837 311.27047 299.14856 286.95965
 274.67975 262.58484 250.60193 239.91103 230.04112 221.15321 213.34331 206.35340
 200.19549 195.14159 191.73168 189.78177 188.82687 188.89896 189.74205 191.05815
 192.79124 194.89433 197.16543 199.53252 201.98561 204.47371 206.56980 208.41989
 210.05399 211.20708 211.44417 211.68027 211.62536 211.33845 210.97955 210.61764
 210.24273 209.96083 209.77692 209.64901 209.58511 209.92420 210.31829 210.71539
 211.51648 212.70257 213.96067 215.75176 217.68785 219.73895 221.84204 223.93313
 226.00123 228.09332 230.19841 232.31251 234.44960 236.62969 238.89379 241.27188
 243.90097 246.16007 248.17016 249.94325 251.36835 252.49944 253.32953 253.65363
 253.69872 253.48081 252.84891 251.80500 250.41909 248.58819 246.50528 244.34637
 242.14547 239.95756 237.78565 235.63274 233.50084 231.37593 229.41002 227.57512
 225.86621 224.34630 222.98440 221.76449 220.65458 219.62268 218.73477 217.88386
 217.13396 216.32205 215.42814 214.80024 214.25833 214.85782 216.27417 218.38916
 220.65282 222.56633 223.81786 224.21600 224.45992 225.25348 226.43515 226.60732
 226.79396 228.68587 232.39230 236.85880 241.35382 245.79645 250.10229 254.13782
 257.87601 261.26151 264.25253 266.86618 269.32108 271.60995 273.49286 275.07867
 276.51819 277.86771 279.14819 280.48318 281.67407 282.73364 283.70706 284.60178
 285.41830 286.16327 286.81985 287.69070
 366.78100 356.34300 345.78300 334.65700 323.06800 311.27000 299.14800 286.95900
 274.67900 262.58400 250.60100 239.91000 230.04000 221.15200 213.34200 206.35200
 200.19400 195.14000 191.73000 189.78000 188.82500 188.89700 189.74000 191.05600
 192.78900 194.89200 197.16300 199.53000 201.98300 204.47100 206.56700 208.41700
 210.05100 211.20400 211.44100 211.67700 211.62200 211.33500 210.97600 210.61400
 210.23900 209.95700 209.77300 209.64500 209.58100 209.92000 210.31400 210.71100
 211.51200 212.69800 213.95600 215.74700 217.68300 219.73400 221.83700 223.92800
 225.99600 228.08800 230.19300 232.30700 234.44400 236.62400 238.88800 241.26600
 243.89500 246.15400 248.16400 249.93700 251.36200 252.49300 253.32300 253.64699
 253.69199 253.47399 252.84199 251.79799 250.41199 248.58099 246.49799 244.33899
 242.13799 239.94999 237.77799 235.62499 233.49299 231.36799 229.40199 227.56699
 225.85799 224.33799 222.97599 221.75599 220.64599 219.61399 218.72599 217.87499
 217.12499 216.31299 215.41899 214.79099 214.24899 214.86388 216.31662 218.37373
 220.61319 222.59338 223.87086 224.20094 224.33180 225.02295 226.22456 226.62535
 226.93604 228.77583 232.43999 236.91158 241.42986 245.88718 250.19342 254.21013
 257.91455 261.26230 264.22382 266.83881 269.30310 271.59351 273.47797 275.06586
 276.50217 277.86060 279.14188 280.47818 281.66843 282.72919 283.70395 284.59485
 285.41077 286.15216 286.80695 287.67422
 366.78100 356.34289 345.78279 334.65668 323.06757 311.26947 299.14736 286.95825
 274.67815 262.58304 250.59993 239.90883 230.03872 221.15061 213.34051 206.35040
 200.19229 195.13819 191.72808 189.77797 188.82287 188.89476 189.73765 191.05355
 192.78644 194.88933 197.16023 199.52712 201.98001 204.46790 206.56380 208.41369
 210.04758 211.20048 211.43737 211.67326 211.61816 211.33105 210.97194 210.60984
 210.23473 209.95262 209.76852 209.64041 209.57630 209.91520 210.30909 210.70598
 211.50688 212.69277 213.95066 215.74156 217.67745 219.72834 221.83124 223.92213
 225.99002 228.08192 230.18681 232.30070 234.43760 236.61749 238.88138 241.25928
 243.88817 246.14706 248.15696 249.92985 251.35474 252.48564 253.31553 253.63942
 253.68432 253.46621 252.83410 251.79000 250.40389 248.57278 246.48968 244.33057
 242.12946 239.94135 237.76925 235.61614 233.48403 231.35893 229.39282 227.55771
 225.84861 224.32850 222.96639 221.74629 220.63618 219.60407 218.71597 217.86486
 217.11475 216.30265 215.40854 214.78043 214.23833 214.86906 216.35924 218.36446
 220.56927 222.59827 223.91141 224.20572 224.23880 224.81801 226.01204 226.59949
 227.03461 228.85681 232.48639 236.96843 241.51279 245.98779 250.29381 254.29120
 257.95969 261.26788 264.20166 266.81836 269.29062 271.58020 273.46661 275.05624
 276.48987 277.85248 279.13208 280.46991 281.65948 282.72061 283.69427 284.58429
 285.39746 286.13693 286.78491 287.65146
 366.78100 356.34282 345.78264 334.65646 323.06729 311.26911 299.14693 286.95775
 274.67757 262.58239 250.59921 239.90804 230.03786 221.14968 213.33950 206.34932
 200.19114 195.13696 191.72679 189.77661 188.82143 188.89325 189.73607 191.05189
 192.78471 194.88754 197.15836 199.52518 201.97800 204.46582 206.56164 208.41146
 210.04528 211.19811 211.43493 211.67075 211.61557 211.32839 210.96921 210.60703
 210.23186 209.94968 209.76550 209.63732 209.57314 209.91196 210.30578 210.70261
 211.50343 212.68925 213.94707 215.73789 217.67371 219.72453 221.82736 223.91818
 225.98600 228.07782 230.18264 232.29646 234.43328 236.61311 238.87693 241.25475
 243.88357 246.14239 248.15221 249.92503 251.34986 252.48068 253.31050 253.63432
 253.67914 253.46096 252.82878 251.78461 250.39843 248.56725 246.48407 244.32489
 242.12371 239.93553 237.76335 235.61018 233.47800 231.35282 229.38664 227.55146
 225.84228 224.32210 222.95993 221.73975 220.62957 219.59739 218.70921 217.85803
 217.10785 216.29568 215.40150 214.77332 214.23114 214.87648 216.40114 218.35800
 220.53038 222.58658 223.93268 224.20914 224.16052 224.63417 225.80917 226.54488
 227.09763 228.93015 232.53711 237.03275 241.60587 246.09827 250.40337 254.37973
 258.01041 261.27887 264.18533 266.80432 269.28308 271.57047 273.45877 275.05048
 276.48096 277.84366 279.12219 280.45926 281.64941 282.71002 283.68317 284.57166
 285.38165 286.11584 286.76477 287.62714
 366.78100 356.34283 345.78266 334.65649 323.06732 311.26915 299.14698 286.95781
 274.67764 262.58248 250.59931 239.90814 230.03797 221.14980 213.33963 206.34946
 200.19129 195.13712 191.72695 189.77678 188.82161 188.89344 189.73627 191.05210
 192.78493 194.88776 197.15859 199.52543 201.97826 204.46609 206.56192 208.41175
 210.04558 211.19841 211.43524 211.67107 211.61590 211.32873 210.96956 210.60739
 210.23222 209.95005 209.76588 209.63771 209.57354 209.91238 210.30621 210.70304
 211.50387 212.68970 213.94753 215.73836 217.67419 219.72502 221.82785 223.91868
 225.98651 228.07834 230.18317 232.29700 234.43383 236.61366 238.87749 241.25533
 243.88416 246.14299 248.15282 249.92565 251.35048 252.48131 253.31114 253.63497
 253.67980 253.46163 252.82946 251.78529 250.39912 248.56795 246.48478 244.32561
 242.12444 239.93628 237.76411 235.61094 233.47877 231.35360 229.38743 227.55226
 225.84309 224.32292 222.96075 221.74058 220.63041 219.59824 218.71007 217.85890
 217.10873 216.29656 215.40239 214.77423 214.23206 214.88840 216.43907 218.35385
 220.49525 222.56874 223.93993 224.20064 224.08249 224.46349 225.61607 226.47031
 227.13281 228.99556 232.59377 237.10745 241.70850 246.21498 250.51793 254.47345
 258.06702 261.29663 264.17700 266.79831 269.28281 271.56592 273.45386 275.04733
 276.47543 277.83392 279.11444 280.45123 281.64218 282.70102 283.67349 284.55911
 285.36786 286.10022 286.74545 287.60443
 366.78100 356.34292 345.78285 334.65677 323.06770 311.26962 299.14755 286.95847
 274.67840 262.58332 250.60025 239.90917 230.03910 221.15102 213.34095 206.35087
 200.19280 195.13872 191.72865 189.77857 188.82350 188.89542 189.73835 191.05427
 192.78720 194.89012 197.16105 199.52797 201.98090 204.46882 206.56475 208.41467
 210.04860 211.20152 211.43845 211.67437 211.61929 211.33222 210.97314 210.61107
 210.23599 209.95392 209.76984 209.64177 209.57769 209.91662 210.31054 210.70747
 211.50839 212.69432 213.95224 215.74317 217.67909 219.73002 221.83294 223.92387
 225.99179 228.08372 230.18864 232.30257 234.43949 236.61942 238.88334 241.26127
 243.89019 246.14912 248.15904 249.93197 251.35689 252.48782 253.31774 253.64166
 253.68659 253.46851 252.83644 251.79236 250.40629 248.57521 246.49214 244.33306
 242.13199 239.94391 237.77184 235.61876 233.48669 231.36161 229.39554 227.56046
 225.85139 224.33131 222.96924 221.74916 220.63909 219.60701 218.71894 217.86786
 217.11779 216.30571 215.41164 214.78356 214.24149 214.90488 216.47218 218.35237
 220.46075 222.54988 223.93791 224.17729 223.99815 224.30162 225.43449 226.38272
 227.14771 229.05525 232.65265 237.18892 241.81744 246.33549 250.63477 254.56999
 258.12735 261.31998 264.17825 266.80194 269.28955 271.56842 273.45425 275.04800
 276.47284 277.82718 279.11176 280.44858 281.63849 282.69656 283.66626 284.55283
 285.35956 286.08728 286.73117 287.58749
 366.78100 356.34307 345.78314 334.65721 323.06828 311.27036 299.14843 286.95950
 274.67957 262.58464 250.60171 239.91078 230.04085 221.15293 213.34300 206.35307
 200.19514 195.14121 191.73128 189.78135 188.82642 188.89849 189.74157 191.05764
 192.79071 194.89378 197.16485 199.53192 201.98499 204.47306 206.56914 208.41921
 210.05328 211.20635 211.44342 211.67949 211.62456 211.33763 210.97871 210.61678
 210.24185 209.95992 209.77599 209.64806 209.58413 209.92320 210.31727 210.71435
 211.51542 212.70149 213.95956 215.75063 217.68670 219.73777 221.84084 223.93192
 225.99999 228.09206 230.19713 232.31120 234.44827 236.62834 238.89241 241.27048
 243.89956 246.15863 248.16870 249.94177 251.36684 252.49791 253.32798 253.65205
 253.69713 253.47920 252.84727 251.80334 250.41741 248.58648 246.50355 244.34462
 242.14370 239.95577 237.78384 235.63091 233.49898 231.37405 229.40812 227.57319
 225.86426 224.34434 222.98241 221.76248 220.65255 219.62062 218.73269 217.88176
 217.13183 216.31991 215.42598 214.79805 214.25612 214.92448 216.50360 218.35373
 220.42207 222.52953 223.93092 224.14360 223.90718 224.14323 225.26103 226.28024
 227.14601 229.11758 232.72121 237.27484 241.93033 246.45845 250.75145 254.66475
 258.18732 261.34787 264.18860 266.81616 269.30557 271.57825 273.46127 275.05328
 276.47510 277.82404 279.11423 280.45215 281.64163 282.69775 283.66718 284.55313
 285.35464 286.08240 286.72400 287.57706
 366.78100 356.34322 345.78344 334.65766 323.06888 311.27110 299.14932 286.96054
 274.68076 262.58598 250.60320 239.91242 230.04264 221.15486 213.34508 206.35530
 200.19752 195.14374 191.73396 189.78418 188.82940 188.90162 189.74484 191.06106
 192.79428 194.89750 197.16872 199.53593 201.98915 204.47737 206.57359 208.42381
 210.05803 211.21125 211.44847 211.68469 211.62991 211.34313 210.98435 210.62257
 210.24779 209.96601 209.78223 209.65445 209.59067 209.92989 210.32411 210.72133
 211.52255 212.70877 213.96699 215.75821 217.69443 219.74565 221.84887 223.94009
 226.00831 228.10053 230.20575 232.31997 234.45719 236.63741 238.90163 241.27985
 243.90907 246.16829 248.17851 249.95173 251.37695 252.50817 253.33839 253.66261
 253.70783 253.49005 252.85827 251.81449 250.42871 248.59793 246.51515 244.35636
 242.15558 239.96780 237.79602 235.64324 233.51146 231.38668 229.42090 227.58612
 225.87734 224.35756 222.99578 221.77600 220.66622 219.63444 218.74666 217.89588
 217.14610 216.33432 215.44054 214.81276 214.27098 214.94492 216.53717 218.35832
 220.37691 222.50056 223.91862 224.10907 223.81836 223.98767 225.09108 226.15668
 227.12546 229.18800 232.80711 237.37186 242.04601 246.57916 250.86255 254.75366
 258.24500 261.37958 264.20828 266.84100 269.33060 271.59784 273.47565 275.06451
 276.48145 277.82721 279.12518 280.46475 281.65253 282.70883 283.67789 284.56271
 285.36530 286.08878 286.73065 287.58347
 366.78100 356.34338 345.78377 334.65815 323.06953 311.27191 299.15030 286.96168
 274.68206 262.58744 250.60483 239.91421 230.04459 221.15698 213.34736 206.35774
 200.20012 195.14651 191.73689 189.78727 188.83266 188.90504 189.74842 191.06480
 192.79819 194.90157 197.17295 199.54033 201.99372 204.48210 206.57848 208.42887
 210.06325 211.21663 211.45401 211.69040 211.63578 211.34916 210.99055 210.62893
 210.25431 209.97269 209.78908 209.66146 209.59784 209.93722 210.33161 210.72899
 211.53037 212.71676 213.97514 215.76652 217.70290 219.75429 221.85767 223.94905
 226.01744 228.10982 230.21520 232.32958 234.46697 236.64735 238.91173 241.29011
 243.91950 246.17888 248.18926 249.96265 251.38803 252.51941 253.34979 253.67418
 253.71956 253.50194 252.87033 251.82671 250.44109 248.61047 246.52786 244.36924
 242.16862 239.98100 237.80939 235.65677 233.52515 231.40054 229.43492 227.60030
 225.89168 224.37207 223.01045 221.79083 220.68122 219.64960 218.76198 217.91136
 217.16175 216.35013 215.45651 214.82889 214.28728 214.96678 216.57217 218.36436
 220.32681 222.45857 223.89624 224.07500 223.73933 223.84200 224.92249 226.01891
 227.09241 229.26640 232.90598 237.47711 242.16098 246.69324 250.96494 254.83600
 258.30222 261.41678 264.23944 266.87637 269.36389 271.62256 273.49295 275.07626
 276.49072 277.83374 279.14825 280.49017 281.67844 282.73456 283.70279 284.58627
 285.39041 286.11502 286.75626 287.61044
 366.78100 356.34363 345.78427 334.65890 323.07054 311.27317 299.15180 286.96344
 274.68407 262.58971 250.60734 239.91697 230.04761 221.16024 213.35088 206.36151
 200.20415 195.15078 191.74141 189.79205 188.83768 188.91032 189.75395 191.07058
 192.80422 194.90785 197.17949 199.54712 202.00075 204.48939 206.58602 208.43666
 210.07129 211.22492 211.46256 211.69919 211.64483 211.35846 211.00010 210.63873
 210.26436 209.98300 209.79963 209.67227 209.60890 209.94853 210.34317 210.74080
 211.54244 212.72907 213.98770 215.77934 217.71597 219.76761 221.87124 223.96287
 226.03151 228.12414 230.22978 232.34441 234.48205 236.66268 238.92731 241.30595
 243.93558 246.19522 248.20585 249.97948 251.40512 252.53675 253.36739 253.69202
 253.73765 253.52029 252.88892 251.84556 250.46019 248.62982 246.54746 244.38909
 242.18873 240.00136 237.82999 235.67763 233.54626 231.42190 229.45653 227.62217
 225.91380 224.39443 223.03307 221.81370 220.70434 219.67297 218.78560 217.93524
 217.18587 216.37451 215.48114 214.85377 214.31241 214.99348 216.60260 218.37131
 220.27832 222.40173 223.85976 224.03998 223.67105 223.70636 224.75427 225.88071
 227.05621 229.34700 233.01247 237.58554 242.27289 246.79900 251.05838 254.91295
 258.35880 261.45923 264.28027 266.92062 269.40091 271.64685 273.50647 275.08463
 276.50244 277.85165 279.18420 280.52979 281.71884 282.77582 283.74335 284.62802
 285.43011 286.15637 286.80014 287.64728
 366.78100 356.34404 345.78507 334.66011 323.07214 311.27518 299.15421 286.96625
 274.68728 262.59332 250.61135 239.92139 230.05242 221.16546 213.35649 206.36753
 200.21056 195.15760 191.74863 189.79967 188.84570 188.91874 189.76278 191.07981
 192.81385 194.91788 197.18992 199.55795 202.01199 204.50102 206.59806 208.44909
 210.08413 211.23816 211.47620 211.71323 211.65927 211.37330 211.01534 210.65437
 210.28041 209.99944 209.81648 209.68952 209.62655 209.96659 210.36162 210.75966
 211.56169 212.74873 214.00776 215.79980 217.73683 219.78887 221.89290 223.98494
 226.05397 228.14701 230.25304 232.36808 234.50611 236.68715 238.95218 241.33122
 243.96126 246.22129 248.23233 250.00636 251.43240 252.56443 253.39547 253.72050
 253.76654 253.54957 252.91861 251.87564 250.49068 248.66071 246.57875 244.42078
 242.22082 240.03385 237.86289 235.71092 233.57996 231.45600 229.49103 227.65707
 225.94910 224.43014 223.06917 221.85021 220.74124 219.71028 218.82331 217.97335
 217.22438 216.41342 215.52045 214.89349 214.35252 215.02789 216.62357 218.37926
 220.24133 222.33580 223.80460 223.99585 223.61601 223.58907 224.57761 225.74950
 227.03000 229.42065 233.11787 237.69412 242.38069 246.89864 251.14566 254.98645
 258.41611 261.50610 264.32727 266.96945 269.43903 271.66705 273.51215 275.08490
 276.51050 277.86728 279.23740 280.58878 281.77780 282.83676 283.80460 284.68863
 285.49261 286.21902 286.86136 287.71265
 366.78100 356.34446 345.78592 334.66138 323.07384 311.27729 299.15675 286.96921
 274.69067 262.59713 250.61559 239.92605 230.05751 221.17096 213.36242 206.37388
 200.21734 195.16480 191.75626 189.80772 188.85418 188.92764 189.77209 191.08955
 192.82401 194.92847 197.20093 199.56939 202.02385 204.51331 206.61076 208.46222
 210.09768 211.25214 211.49060 211.72806 211.67452 211.38898 211.03144 210.67089
 210.29735 210.01681 209.83427 209.70773 209.64519 209.98565 210.38111 210.77956
 211.58202 212.76948 214.02894 215.82140 217.75886 219.81132 221.91578 224.00824
 226.07769 228.17115 230.27761 232.39307 234.53153 236.71299 238.97845 241.35791
 243.98836 246.24882 248.26028 250.03474 251.46120 252.59366 253.42512 253.75058
 253.79704 253.58049 252.94995 251.90741 250.52287 248.69333 246.61179 244.45425
 242.25471 240.06816 237.89762 235.74608 233.61554 231.49200 229.52746 227.69392
 225.98638 224.46784 223.10729 221.88875 220.78021 219.74967 218.86313 218.01359
 217.26505 216.45451 215.56196 214.93542 214.39488 215.06314 216.64200 218.38362
 220.21211 222.27417 223.74043 223.93553 223.55139 223.47923 224.40744 225.62308
 227.00813 229.48572 233.21532 237.80074 242.48663 246.99553 251.23097 255.05876
 258.47360 261.55527 264.37927 267.02191 269.47470 271.68039 273.50906 275.07880
 276.52094 277.89127 279.30646 280.66159 281.85156 282.90967 283.87869 284.76367
 285.56650 286.29526 286.93781 287.79123
 366.78100 356.34487 345.78674 334.66260 323.07547 311.27934 299.15921 286.97208
 274.69395 262.60081 250.61968 239.93055 230.06242 221.17629 213.36816 206.38002
 200.22389 195.17176 191.76363 189.81550 188.86236 188.93623 189.78110 191.09897
 192.83384 194.93871 197.21157 199.58044 202.03531 204.52518 206.62305 208.47491
 210.11078 211.26565 211.50452 211.74239 211.68926 211.40412 211.04699 210.68686
 210.31373 210.03360 209.85147 209.72533 209.66320 210.00407 210.39994 210.79881
 211.60167 212.78954 214.04941 215.84228 217.78015 219.83302 221.93788 224.03075
 226.10062 228.19449 230.30136 232.41722 234.55609 236.73796 239.00383 241.38370
 244.01457 246.27543 248.28730 250.06217 251.48904 252.62191 253.45378 253.77964
 253.82651 253.61038 252.98025 251.93812 250.55398 248.72485 246.64372 244.48659
 242.28746 240.10133 237.93119 235.78006 233.64993 231.52680 229.56267 227.72953
 226.02240 224.50427 223.14414 221.92601 220.81788 219.78774 218.90161 218.05248
 217.30435 216.49422 215.60209 214.97595 214.43582 215.09738 216.66042 218.38736
 220.18159 222.20978 223.67538 223.87935 223.49728 223.37091 224.21667 225.50905
 227.00000 229.53020 233.30466 237.91258 242.59590 247.09348 251.31604 255.13145
 258.53165 261.60712 264.43527 267.07559 269.51022 271.68890 273.49738 275.06149
 276.52289 277.89456 279.38892 280.75653 281.94623 283.00421 283.97253 284.85602
 285.65991 286.39117 287.03091 287.88672
 366.78100 356.34541 345.78783 334.66424 323.07766 311.28207 299.16249 286.97590
 274.69832 262.60573 250.62514 239.93656 230.06897 221.18339 213.37580 206.38822
 200.23263 195.18105 191.77346 189.82588 188.87329 188.94770 189.79312 191.11153
 192.84695 194.95236 197.22578 199.59519 202.05061 204.54102 206.63943 208.49185
 210.12826 211.28368 211.52309 211.76151 211.70892 211.42434 211.06775 210.70816
 210.33558 210.05599 209.87441 209.74882 209.68724 210.02865 210.42507 210.82448
 211.62790 212.81631 214.07672 215.87014 217.80855 219.86197 221.96738 224.06080
 226.13121 228.22563 230.33304 232.44945 234.58887 236.77128 239.03770 241.41811
 244.04953 246.31094 248.32336 250.09877 251.52618 252.65960 253.49201 253.81843
 253.86584 253.65026 253.02067 251.97909 250.59550 248.76691 246.68633 244.52974
 242.33116 240.14557 237.97599 235.82540 233.69582 231.57323 229.60965 227.77706
 226.07047 224.55289 223.19330 221.97572 220.86813 219.83855 218.95296 218.10438
 217.35679 216.54720 215.65562 215.03003 214.49045 215.13844 216.66942 218.39394
 220.15668 222.13535 223.58969 223.81187 223.45392 223.29860 224.04865 225.31923
 226.94263 229.59503 233.40419 238.02805 242.70532 247.18930 251.39992 255.20389
 258.59027 261.65976 264.49258 267.12833 269.53989 271.68781 273.47556 275.04471
 276.52869 277.94772 279.46283 280.83929 282.03397 283.09464 284.06561 284.94833
 285.75253 286.48312 287.12445 287.97998
 366.78100 356.34604 345.78908 334.66612 323.08016 311.28520 299.16624 286.98028
 274.70332 262.61136 250.63140 239.94344 230.07648 221.19153 213.38457 206.39761
 200.24265 195.19169 191.78473 189.83777 188.88581 188.96085 189.80689 191.12593
 192.86197 194.96801 197.24205 199.61209 202.06813 204.55917 206.65821 208.51125
 210.14829 211.30433 211.54437 211.78341 211.73145 211.44749 211.09154 210.73258
 210.36062 210.08166 209.90070 209.77574 209.71478 210.05682 210.45386 210.85390
 211.65794 212.84698 214.10802 215.90206 217.84110 219.89514 222.00118 224.09522
 226.16626 228.26130 230.36934 232.48638 234.62642 236.80946 239.07650 241.45754
 244.08959 246.35163 248.36467 250.14071 251.56875 252.70279 253.53583 253.86287
 253.91091 253.69595 253.06699 252.02603 250.64307 248.81511 246.73515 244.57919
 242.38123 240.19627 238.02731 235.87735 233.74839 231.62643 229.66347 227.83151
 226.12555 224.60860 223.24964 222.03268 220.92572 219.89676 219.01180 218.16384
 217.41688 216.60792 215.71696 215.09200 214.55304 215.18292 216.67108 218.39771
 220.14128 222.06900 223.49266 223.71776 223.38564 223.22803 223.91077 225.13385
 226.86177 229.65051 233.50919 238.15063 242.81732 247.28496 251.48404 255.27611
 258.64944 261.71326 264.55078 267.18011 269.56552 271.67639 273.43484 274.99896
 276.52063 278.02139 279.55020 280.92935 282.12711 283.19034 284.16245 285.04684
 285.85214 286.58267 287.22403 288.07990
 366.78100 356.34653 345.79006 334.66759 323.08213 311.28766 299.16919 286.98372
 274.70725 262.61578 250.63631 239.94885 230.08238 221.19791 213.39144 206.40497
 200.25050 195.20003 191.79357 189.84710 188.89563 188.97116 189.81769 191.13722
 192.87375 194.98029 197.25482 199.62535 202.08188 204.57341 206.67294 208.52647
 210.16401 211.32054 211.56107 211.80060 211.74913 211.46566 211.11019 210.75173
 210.38026 210.10179 209.92132 209.79685 209.73638 210.07891 210.47645 210.87698
 211.68151 212.87104 214.13257 215.92710 217.86663 219.92117 222.02770 224.12223
 226.19376 228.28929 230.39782 232.51535 234.65589 236.83942 239.10695 241.48848
 244.12101 246.38354 248.39707 250.17361 251.60214 252.73667 253.57020 253.89773
 253.94626 253.73179 253.10333 252.06286 250.68039 248.85292 246.77345 244.61798
 242.42051 240.23605 238.06758 235.91811 233.78964 231.66817 229.70570 227.87423
 226.16877 224.65230 223.29383 222.07736 220.97089 219.94242 219.05795 218.21049
 217.46402 216.65555 215.76508 215.14061 214.60214 215.21870 216.67542 218.39383
 220.12807 222.02109 223.40495 223.61044 223.28636 223.13057 223.78096 224.96875
 226.76886 229.69957 233.62576 238.28288 242.93394 247.38322 251.57117 255.35109
 258.70959 261.76636 264.60458 267.22214 269.57703 271.64914 273.39160 274.98459
 276.53644 278.07898 279.61487 280.99774 282.19891 283.26337 284.23511 285.12082
 285.92459 286.65479 287.29565 288.13904
 366.78100 356.34686 345.79073 334.66859 323.08346 311.28932 299.17118 286.98605
 274.70991 262.61878 250.63964 239.95250 230.08637 221.20223 213.39610 206.40996
 200.25583 195.20569 191.79955 189.85342 188.90228 188.97815 189.82501 191.14487
 192.88174 194.98860 197.26347 199.63433 202.09119 204.58306 206.68292 208.53679
 210.17465 211.33151 211.57238 211.81224 211.76111 211.47797 211.12283 210.76470
 210.39356 210.11543 209.93529 209.81115 209.75102 210.09388 210.49175 210.89261
 211.69748 212.88734 214.14920 215.94407 217.88393 219.93880 222.04566 224.14052
 226.21239 228.30825 230.41712 232.53498 234.67584 236.85971 239.12757 241.50944
 244.14230 246.40516 248.41903 250.19589 251.62476 252.75962 253.59348 253.92135
 253.97021 253.75608 253.12794 252.08780 250.70567 248.87853 246.79940 244.64426
 242.44713 240.26299 238.09485 235.94572 233.81758 231.69645 229.73431 227.90317
 226.19804 224.68190 223.32377 222.10763 221.00149 219.97336 219.08922 218.24209
 217.49595 216.68781 215.79768 215.17354 214.63541 215.24448 216.68347 218.38235
 220.11037 221.98593 223.33095 223.50093 223.16553 223.00215 223.64508 224.82764
 226.68011 229.74411 233.75330 238.42110 243.04834 247.47983 251.65985 255.43134
 258.77753 261.82690 264.66214 267.26382 269.58133 271.60471 273.31775 274.90237
 276.46811 278.18427 279.73462 281.10678 282.30289 283.36292 284.33151 285.21548
 286.01535 286.74573 287.38425 288.22507
 366.78100 356.34715 345.79131 334.66946 323.08462 311.29077 299.17292 286.98808
 274.71223 262.62138 250.64254 239.95569 230.08985 221.20600 213.40015 206.41431
 200.26046 195.21062 191.80477 189.85892 188.90808 188.98423 189.83138 191.15154
 192.88869 194.99585 197.27100 199.64215 202.09931 204.59146 206.69161 208.54577
 210.18392 211.34108 211.58223 211.82238 211.77154 211.48869 211.13385 210.77600
 210.40515 210.12731 209.94746 209.82361 209.76377 210.10692 210.50508 210.90623
 211.71138 212.90154 214.16369 215.95885 217.89900 219.95415 222.06131 224.15646
 226.22861 228.32477 230.43392 232.55208 234.69323 236.87738 239.14554 241.52769
 244.16085 246.42400 248.43815 250.21531 251.64446 252.77961 253.61377 253.94192
 253.99108 253.77723 253.14938 252.10954 250.72769 248.90084 246.82200 244.66715
 242.47031 240.28646 238.11861 235.96977 233.84192 231.72108 229.75923 227.92838
 226.22354 224.70769 223.34984 222.13400 221.02815 220.00031 219.11646 218.26961
 217.52377 216.71592 215.82608 215.20223 214.66438 215.26637 216.68861 218.36661
 220.08565 221.95078 223.27118 223.40544 223.04298 222.84554 223.48959 224.68718
 226.59528 229.79291 233.89014 238.56383 243.16759 247.58214 251.75177 255.51102
 258.84283 261.88489 264.71817 267.30374 269.58627 271.56589 273.26239 274.89468
 276.44736 278.20087 279.76422 281.14218 282.34027 283.39868 284.36807 285.24893
 286.04980 286.77771 287.41422 288.26086
 366.78100 356.34753 345.79205 334.67058 323.08610 311.29263 299.17515 286.99068
 274.71520 262.62473 250.64625 239.95978 230.09430 221.21083 213.40535 206.41988
 200.26640 195.21693 191.81145 189.86598 188.91550 188.99203 189.83956 191.16008
 192.89761 195.00513 197.28066 199.65218 202.10971 204.60223 206.70276 208.55728
 210.19581 211.35333 211.59486 211.83538 211.78491 211.50243 211.14796 210.79048
 210.42001 210.14253 209.96306 209.83958 209.78011 210.12364 210.52216 210.92369
 211.72921 212.91974 214.18226 215.97779 217.91831 219.97384 222.08136 224.17689
 226.24941 228.34594 230.45546 232.57399 234.71551 236.90004 239.16856 241.55109
 244.18461 246.44814 248.46267 250.24019 251.66972 252.80524 253.63977 253.96829
 254.01782 253.80434 253.17687 252.13739 250.75592 248.92944 246.85097 244.69649
 242.50002 240.31654 238.14907 236.00059 233.87312 231.75264 229.79117 227.96069
 226.25622 224.74075 223.38327 222.16780 221.06232 220.03485 219.15137 218.30490
 217.55942 216.75195 215.86247 215.23900 214.70152 215.29141 216.68510 218.35054
 220.06129 221.90927 223.20999 223.32388 222.93983 222.69829 223.32486 224.53224
 226.49693 229.82751 234.02580 238.70999 243.28641 247.69035 251.86136 255.61531
 258.92862 261.94852 264.76181 267.31970 269.55704 271.48981 273.18185 274.80222
 276.48065 278.25238 279.82025 281.20541 282.40680 283.47195 284.44125 285.32382
 286.12622 286.85254 287.48917 288.33173
 366.78100 356.34803 345.79305 334.67208 323.08810 311.29513 299.17816 286.99418
 274.71921 262.62923 250.65126 239.96529 230.10031 221.21734 213.41236 206.42739
 200.27442 195.22544 191.82047 189.87549 188.92552 189.00255 189.85057 191.17160
 192.90962 195.01765 197.29368 199.66570 202.12373 204.61675 206.71778 208.57281
 210.21183 211.36986 211.61188 211.85291 211.80294 211.52096 211.16699 210.81001
 210.44004 210.16307 209.98409 209.86112 209.80214 210.14617 210.54520 210.94722
 211.75325 212.94428 214.20730 216.00333 217.94435 220.00038 222.10841 224.20443
 226.27746 228.37448 230.48451 232.60354 234.74556 236.93059 239.19961 241.58264
 244.21667 246.48069 248.49572 250.27374 251.70377 252.83980 253.67482 254.00385
 254.05387 253.84090 253.21393 252.17495 250.79398 248.96800 246.89003 244.73606
 242.54008 240.35711 238.19013 236.04216 233.91519 231.79521 229.83424 228.00426
 226.30029 224.78532 223.42834 222.21337 221.10839 220.08142 219.19845 218.35247
 217.60750 216.80052 215.91155 215.28858 214.75160 215.32411 216.67673 218.33531
 220.04759 221.86850 223.12811 223.21869 222.83621 222.56520 223.17767 224.39381
 226.41144 229.84842 234.14560 238.83623 243.40576 247.81082 251.98813 255.73788
 259.03336 262.02625 264.80801 267.31882 269.48795 271.34845 272.98669 274.58572
 276.54880 278.31638 279.86478 281.22635 282.40430 283.45114 284.40771 285.27594
 286.06778 286.78421 287.41556 288.23557
 366.78100 356.34848 345.79396 334.67344 323.08993 311.29741 299.18089 286.99737
 274.72285 262.63333 250.65581 239.97029 230.10578 221.22326 213.41874 206.43422
 200.28170 195.23318 191.82866 189.88415 188.93463 189.01211 189.86059 191.18207
 192.92055 195.02903 197.30551 199.67800 202.13648 204.62996 206.73144 208.58692
 210.22640 211.38488 211.62737 211.86885 211.81933 211.53781 211.18429 210.82777
 210.45825 210.18174 210.00322 209.88070 209.82218 210.16666 210.56614 210.96862
 211.77510 212.96659 214.23007 216.02655 217.96803 220.02451 222.13299 224.22947
 226.30296 228.40044 230.51092 232.63040 234.77288 236.95836 239.22784 241.61132
 244.24581 246.51029 248.52577 250.30425 251.73473 252.87121 253.70669 254.03618
 254.08666 253.87414 253.24762 252.20910 250.82858 249.00306 246.92554 244.77203
 242.57651 240.39399 238.22747 236.07995 233.95343 231.83391 229.87340 228.04388
 226.34036 224.82584 223.46932 222.25480 221.15028 220.12376 219.24125 218.39573
 217.65121 216.84469 215.95617 215.33365 214.79713 215.35382 216.66907 218.31525
 220.03615 221.83546 223.04346 223.07986 222.68594 222.42198 223.04921 224.27878
 226.37070 229.90810 234.25787 238.95467 243.51256 247.91315 252.08728 255.83362
 259.12146 262.11487 264.89447 267.38312 269.51501 271.32446 272.90945 274.48795
 276.52817 278.22806 279.74814 281.08362 282.23706 283.26779 284.21237 285.07452
 285.85965 286.57471 287.21387 288.03452
 366.78100 356.34870 345.79440 334.67410 323.09081 311.29851 299.18221 286.99891
 274.72461 262.63531 250.65802 239.97272 230.10842 221.22612 213.42182 206.43752
 200.28522 195.23693 191.83263 189.88833 188.93903 189.01673 189.86543 191.18714
 192.92584 195.03454 197.31124 199.68394 202.14264 204.63634 206.73805 208.59375
 210.23345 211.39215 211.63485 211.87655 211.82726 211.54596 211.19266 210.83636
 210.46706 210.19076 210.01246 209.89017 209.83187 210.17657 210.57627 210.97897
 211.78567 212.97737 214.24108 216.03778 217.97948 220.03618 222.14488 224.24158
 226.31529 228.41299 230.52369 232.64339 234.78609 236.97179 239.24149 241.62520
 244.25990 246.52460 248.54030 250.31900 251.74970 252.88641 253.72211 254.05181
 254.10251 253.89021 253.26391 252.22561 250.84532 249.02002 246.94272 244.78942
 242.59412 240.41182 238.24553 236.09823 233.97193 231.85263 229.89233 228.06303
 226.35973 224.84544 223.48914 222.27484 221.17054 220.14424 219.26194 218.41665
 217.67235 216.86605 215.97775 215.35545 214.81915 215.36827 216.66563 218.28786
 220.02693 221.80424 222.95557 222.93254 222.53107 222.25841 222.89406 224.16631
 226.33429 229.98012 234.38191 239.08867 243.63098 248.01610 252.17154 255.90254
 259.16946 262.17993 264.96982 267.46585 269.59790 271.41418 273.00241 274.59341
 276.46838 278.12878 279.61505 280.89999 281.98483 282.97791 283.88007 284.72104
 285.50919 286.22318 286.81314 287.51474
 366.78100 356.34894 345.79487 334.67481 323.09174 311.29968 299.18361 287.00055
 274.72648 262.63742 250.66036 239.97529 230.11123 221.22916 213.42510 206.44103
 200.28897 195.24091 191.83684 189.89278 188.94371 189.02165 189.87058 191.19252
 192.93145 195.04039 197.31733 199.69026 202.14920 204.64313 206.74507 208.60100
 210.24094 211.39987 211.64281 211.88475 211.83568 211.55462 211.20155 210.84549
 210.47642 210.20036 210.02230 209.90023 209.84217 210.18710 210.58704 210.98997
 211.79691 212.98884 214.25278 216.04972 217.99165 220.04859 222.15752 224.25446
 226.32839 228.42633 230.53726 232.65720 234.80014 236.98607 239.25601 241.63994
 244.27488 246.53981 248.55575 250.33469 251.76562 252.90256 253.73849 254.06843
 254.11936 253.90730 253.28123 252.24317 250.86311 249.03804 246.96098 244.80791
 242.61285 240.43078 238.26472 236.11765 233.99159 231.87253 229.91246 228.08340
 226.38033 224.86627 223.51020 222.29614 221.19208 220.16601 219.28395 218.43888
 217.69482 216.88875 216.00069 215.37862 214.84256 215.38104 216.65326 218.25829
 220.03384 221.78224 222.85823 222.80063 222.36594 222.05142 222.74730 224.06979
 226.32100 230.06433 234.52928 239.23529 243.76216 248.13171 252.24384 255.94705
 259.21136 262.20966 264.99844 267.48242 269.61429 271.42484 273.01566 274.66946
 276.40521 278.04294 279.47556 280.72379 281.84192 282.82431 283.71768 284.56863
 285.37418 286.06564 286.55606 287.10333
 366.78100 356.34915 345.79529 334.67544 323.09259 311.30073 299.18488 287.00203
 274.72817 262.63932 250.66246 239.97761 230.11376 221.23190 213.42805 206.44420
 200.29234 195.24449 191.84064 189.89678 188.94793 189.02608 189.87522 191.19737
 192.93652 195.04566 197.32281 199.69595 202.15510 204.64925 206.75139 208.60754
 210.24769 211.40683 211.64998 211.89213 211.84327 211.56242 211.20957 210.85371
 210.48486 210.20901 210.03115 209.90930 209.85144 210.19659 210.59674 210.99988
 211.80703 212.99918 214.26332 216.06047 218.00262 220.05976 222.16891 224.26606
 226.34020 228.43835 230.54950 232.66964 234.81279 236.99893 239.26908 241.65323
 244.28837 246.55352 248.56967 250.34881 251.77996 252.91711 253.75325 254.08340
 254.13455 253.92269 253.29684 252.25899 250.87913 249.05428 246.97743 244.82457
 242.62972 240.44786 238.28201 236.13516 234.00930 231.89045 229.93060 228.10174
 226.39889 224.88504 223.52918 222.31533 221.21148 220.18562 219.30377 218.45892
 217.71506 216.90921 216.02135 215.39950 214.86365 215.39081 216.63629 218.22659
 220.04277 221.84315 222.85422 222.62158 222.07910 221.82433 222.56596 223.94431
 226.30984 230.21315 234.74591 239.41225 243.91696 248.26407 252.34918 255.98820
 259.21326 262.27844 265.05920 267.52725 269.65170 271.45438 273.07721 274.72885
 276.38083 277.95953 279.36386 280.58978 281.67596 282.65714 283.59540 284.45688
 285.22162 285.83167 286.31296 286.92654
 366.78100 356.34806 345.79312 334.67219 323.08825 311.29531 299.17837 286.99443
 274.71950 262.62956 250.65162 239.96568 230.10074 221.21781 213.41287 206.42793
 200.27499 195.22605 191.82112 189.87618 188.92624 189.00330 189.85136 191.17243
 192.91049 195.01855 197.29461 199.66667 202.12474 204.61780 206.71886 208.57392
 210.21299 211.37105 211.61311 211.85417 211.80423 211.52230 211.16836 210.81142
 210.44148 210.16454 209.98561 209.86267 209.80373 210.14779 210.54685 210.94892
 211.75498 212.94604 214.20910 216.00516 217.94623 220.00229 222.11035 224.20641
 226.27947 228.37654 230.48660 232.60566 234.74772 236.93278 239.20185 241.58491
 244.21897 246.48303 248.49809 250.27616 251.70622 252.84228 253.67734 254.00640
 254.05647 253.84353 253.21659 252.17765 250.79671 248.97078 246.89284 244.73890
 242.54296 240.36002 238.19309 236.04515 233.91821 231.79827 229.83733 228.00740
 226.30346 224.78852 223.43158 222.21664 221.11171 220.08477 219.20183 218.35589
 217.61096 216.80402 215.91508 215.29214 214.75520 215.33821 216.71561 218.12196
 220.00119 221.85751 222.77052 222.48518 221.92442 221.54572 222.26537 223.73779
 226.25018 230.29689 234.96043 239.62473 244.11305 248.45915 252.57559 256.21567
 259.38272 262.33978 265.04269 267.47031 269.60846 271.45630 273.12097 274.74527
 276.32611 277.80988 279.16531 280.40054 281.48505 282.46396 283.39447 284.25732
 285.03802 285.74136 286.39078 287.21835
 366.78100 356.34790 345.79280 334.67170 323.08760 311.29450 299.17740 286.99330
 274.71819 262.62809 250.64999 239.96389 230.09879 221.21569 213.41059 206.42549
 200.27239 195.22329 191.81819 189.87309 188.92299 188.99989 189.84779 191.16869
 192.90658 195.01448 197.29038 199.66228 202.12018 204.61308 206.71398 208.56888
 210.20778 211.36568 211.60758 211.84848 211.79838 211.51628 211.16218 210.80508
 210.43497 210.15787 209.97877 209.85567 209.79657 210.14047 210.53937 210.94127
 211.74717 212.93807 214.20097 215.99687 217.93777 219.99367 222.10157 224.19747
 226.27036 228.36726 230.47716 232.59606 234.73796 236.92286 239.19176 241.57466
 244.20856 246.47246 248.48736 250.26526 251.69516 252.83106 253.66596 253.99486
 254.04475 253.83165 253.20455 252.16545 250.78435 248.95825 246.88015 244.72605
 242.52995 240.34685 238.17975 236.03165 233.90455 231.78445 229.82335 227.99325
 226.28914 224.77404 223.41694 222.20184 221.09674 220.06964 219.18654 218.34044
 217.59534 216.78824 215.89914 215.27604 214.73894 215.34372 216.78419 218.10002
 219.86548 221.34650 222.65836 222.80879 222.06731 221.15903 221.78326 223.62053
 226.31160 230.41830 235.10161 239.77092 244.26909 248.61623 252.69286 256.30331
 259.48242 262.36884 265.04337 267.41617 269.49265 271.38345 273.16138 274.86746
 276.47189 277.92709 279.21411 280.47137 281.65988 282.75409 283.77478 284.69943
 285.53107 286.27164 286.91861 287.74307
 366.78100 356.34712 345.79124 334.66937 323.08449 311.29061 299.17273 286.98786
 274.71198 262.62110 250.64222 239.95535 230.08947 221.20559 213.39971 206.41384
 200.25996 195.21008 191.80420 189.85833 188.90745 188.98357 189.83069 191.15082
 192.88794 194.99506 197.27018 199.64130 202.09843 204.59055 206.69067 208.54479
 210.18292 211.34004 211.58116 211.82128 211.77041 211.48753 211.13265 210.77477
 210.40390 210.12602 209.94614 209.82226 209.76239 210.10551 210.50363 210.90475
 211.70988 212.90000 214.16212 215.95724 217.89736 219.95249 222.05961 224.15473
 226.22685 228.32298 230.43210 232.55022 234.69134 236.87547 239.14359 241.52571
 244.15883 246.42196 248.43608 250.21320 251.64232 252.77745 253.61157 253.93969
 253.98881 253.77493 253.14706 252.10718 250.72530 248.89842 246.81955 244.66467
 242.46779 240.28391 238.11604 235.96716 233.83928 231.71840 229.75653 227.92565
 226.22077 224.70489 223.34702 222.13114 221.02526 219.99738 219.11351 218.26663
 217.52075 216.71287 215.82299 215.19912 214.66124 215.32103 216.86461 218.07379
 219.89735 221.51074 222.91727 222.89543 221.85944 221.07808 221.61740 223.35004
 226.25513 230.50819 235.26945 239.96577 244.41571 248.71077 252.74496 256.33093
 259.50159 262.30396 265.00269 267.48181 269.54779 271.38391 273.09290 274.75027
 276.32736 277.97162 279.55597 281.06415 282.36932 283.52411 284.57764 285.53207
 286.39050 287.15491 287.82269 288.67371
 366.78100 356.34669 345.79038 334.66807 323.08275 311.28844 299.17013 286.98482
 274.70851 262.61720 250.63789 239.95058 230.08426 221.19995 213.39364 206.40733
 200.25302 195.20271 191.79640 189.85009 188.89877 188.97446 189.82115 191.14084
 192.87753 194.98422 197.25891 199.62960 202.08628 204.57797 206.67766 208.53135
 210.16904 211.32573 211.56642 211.80611 211.75479 211.47148 211.11617 210.75786
 210.38655 210.10824 209.92793 209.80362 209.74330 210.08599 210.48368 210.88437
 211.68906 212.87875 214.14044 215.93513 217.87481 219.92950 222.03619 224.13088
 226.20257 228.29826 230.40695 232.52464 234.66532 236.84901 239.11670 241.49839
 244.13108 246.39377 248.40746 250.18415 251.61283 252.74752 253.58121 253.90890
 253.95759 253.74328 253.11497 252.07466 250.69234 248.86503 246.78572 244.63041
 242.43310 240.24879 238.08048 235.93117 233.80285 231.68154 229.71923 227.88792
 226.18261 224.66630 223.30799 222.09168 220.98536 219.95705 219.07274 218.22543
 217.47912 216.67081 215.78050 215.15619 214.61787 215.29367 216.87476 218.04704
 219.77734 221.63995 222.87860 222.65163 221.68388 220.92006 221.30046 223.26068
 226.31599 230.62944 235.44157 240.18465 244.63951 248.87567 252.85895 256.41675
 259.56204 262.35504 265.01730 267.46567 269.49274 271.28754 272.94128 274.49240
 275.97183 277.44925 278.93015 280.40628 281.68887 282.82364 283.85895 284.79684
 285.64041 286.39160 287.04782 287.88409
 366.78100 356.34758 345.79216 334.67074 323.08631 311.29289 299.17547 286.99105
 274.71563 262.62521 250.64679 239.96036 230.09494 221.21152 213.40610 206.42068
 200.26726 195.21784 191.81242 189.86699 188.91657 188.99315 189.84073 191.16131
 192.89889 195.00647 197.28204 199.65362 202.11120 204.60378 206.70436 208.55894
 210.19752 211.35509 211.59667 211.83725 211.78683 211.50441 211.14999 210.79257
 210.42215 210.14472 209.96530 209.84188 209.78246 210.12604 210.52462 210.92620
 211.73177 212.92235 214.18493 215.98051 217.92109 219.97667 222.08425 224.17982
 226.25240 228.34898 230.45856 232.57714 234.71872 236.90330 239.17188 241.55445
 244.18803 246.45161 248.46619 250.24377 251.67335 252.80893 253.64350 253.97208
 254.02166 253.80824 253.18082 252.14140 250.75998 248.93355 246.85513 244.70071
 242.50429 240.32087 238.15345 236.00503 233.87761 231.75718 229.79576 227.96534
 226.26092 224.74550 223.38808 222.17266 221.06723 220.03981 219.15639 218.30997
 217.56455 216.75713 215.86771 215.24428 214.70686 215.32028 216.79054 218.12009
 219.61494 221.53033 222.79633 222.50722 221.49339 220.64120 221.00989 223.18736
 226.39261 230.74541 235.59746 240.39064 244.88161 249.11026 253.07970 256.62140
 259.71146 262.45410 264.98093 267.34424 269.39569 271.21078 272.89935 274.44510
 275.76660 276.93103 278.17703 279.51538 280.79501 281.93457 282.97421 283.91608
 284.76318 285.51752 286.17648 287.01630
 366.78100 356.34866 345.79431 334.67397 323.09062 311.29828 299.18194 286.99859
 274.72425 262.63490 250.65756 239.97222 230.10787 221.22553 213.42118 206.43684
 200.28450 195.23615 191.83181 189.88747 188.93812 189.01578 189.86443 191.18609
 192.92475 195.03340 197.31006 199.68271 202.14137 204.63503 206.73668 208.59234
 210.23199 211.39065 211.63331 211.87496 211.82562 211.54427 211.19093 210.83459
 210.46524 210.18890 210.01055 209.88821 209.82987 210.17452 210.57418 210.97683
 211.78349 212.97515 214.23880 216.03546 217.97711 220.03377 222.14243 224.23908
 226.31274 228.41040 230.52105 232.64071 234.78336 236.96902 239.23868 241.62233
 244.25699 246.52164 248.53730 250.31596 251.74661 252.88327 253.71892 254.04858
 254.09924 253.88689 253.26055 252.22220 250.84186 249.01652 246.93917 244.78583
 242.59048 240.40814 238.24180 236.09445 233.96811 231.84876 229.88842 228.05908
 226.35573 224.84139 223.48505 222.27070 221.16636 220.14001 219.25767 218.41233
 217.66798 216.86164 215.97329 215.35095 214.81461 215.36472 216.70787 218.17555
 219.60085 221.38626 222.71799 222.51631 221.33647 220.26738 220.73808 223.14445
 226.44102 230.85449 235.74614 240.58426 245.11261 249.34117 253.27213 256.80246
 259.87408 262.57138 265.01825 267.28287 269.30066 271.12234 272.83499 274.40338
 275.66711 276.72214 277.94785 279.30243 280.58099 281.72827 282.77496 283.72321
 284.57605 285.33551 285.99896 286.84445
 366.78100 356.34868 345.79437 334.67405 323.09073 311.29842 299.18210 286.99879
 274.72447 262.63515 250.65784 239.97252 230.10820 221.22589 213.42157 206.43726
 200.28494 195.23662 191.83231 189.88799 188.93867 189.01636 189.86504 191.18672
 192.92541 195.03409 197.31078 199.68346 202.14214 204.63583 206.73751 208.59319
 210.23288 211.39156 211.63424 211.87593 211.82661 211.54530 211.19198 210.83566
 210.46635 210.19003 210.01171 209.88940 209.83108 210.17577 210.57545 210.97813
 211.78482 212.97650 214.24018 216.03687 217.97855 220.03523 222.14392 224.24060
 226.31429 228.41197 230.52265 232.64234 234.78502 236.97070 239.24039 241.62407
 244.25876 246.52344 248.53912 250.31781 251.74849 252.88517 253.72086 254.05054
 254.10122 253.88891 253.26259 252.22428 250.84396 249.01864 246.94133 244.78801
 242.59269 240.41038 238.24406 236.09675 233.97043 231.85111 229.89080 228.06148
 226.35816 224.84385 223.48753 222.27321 221.16890 220.14258 219.26027 218.41495
 217.67063 216.86432 215.97600 215.35368 214.81737 215.36153 216.69254 218.16145
 219.62395 221.34045 222.59003 222.40601 221.13748 219.97636 220.52507 223.12756
 226.52092 230.98306 235.90103 240.76077 245.31728 249.55223 253.45840 256.94736
 260.01346 262.70358 265.11368 267.34094 269.34659 271.17450 272.90570 274.42477
 275.52112 276.55457 277.81415 279.15320 280.41769 281.54016 282.56424 283.49197
 284.32639 285.06943 285.71854 286.54575
 366.78100 356.34787 345.79275 334.67162 323.08750 311.29437 299.17724 286.99312
 274.71799 262.62787 250.64974 239.96361 230.09849 221.21536 213.41024 206.42511
 200.27198 195.22286 191.81773 189.87261 188.92248 188.99935 189.84723 191.16810
 192.90598 195.01385 197.28973 199.66160 202.11947 204.61235 206.71322 208.56810
 210.20697 211.36484 211.60672 211.84759 211.79747 211.51534 211.16121 210.80409
 210.43396 210.15684 209.97771 209.85458 209.79546 210.13933 210.53821 210.94008
 211.74595 212.93683 214.19970 215.99558 217.93645 219.99232 222.10020 224.19607
 226.26895 228.36582 230.47569 232.59457 234.73644 236.92132 239.19019 241.57306
 244.20694 246.47081 248.48569 250.26356 251.69344 252.82931 253.66418 253.99306
 254.04293 253.82981 253.20268 252.16355 250.78243 248.95630 246.87818 244.72405
 242.52792 240.34480 238.17767 236.02955 233.90242 231.78229 229.82117 227.99104
 226.28692 224.77179 223.41466 222.19954 221.09441 220.06729 219.18416 218.33803
 217.59291 216.78578 215.89666 215.27353 214.73640 215.31294 216.70616 218.12973
 219.62274 221.26823 222.45662 222.23595 220.85068 219.69336 220.36642 223.07922
 226.60770 231.10036 236.03738 240.91969 245.50940 249.75504 253.63725 257.08963
 260.10999 262.77386 265.17123 267.39200 269.43042 271.30884 273.04642 274.49524
 275.60208 276.43204 277.25177 278.53116 279.75061 280.86353 281.87891 282.79877
 283.62607 284.36279 285.00641 285.82657
 366.78100 356.34712 345.79124 334.66936 323.08448 311.29060 299.17272 286.98784
 274.71196 262.62108 250.64220 239.95532 230.08944 221.20556 213.39968 206.41380
 200.25992 195.21004 191.80416 189.85828 188.90740 188.98352 189.83064 191.15076
 192.88788 194.99500 197.27012 199.64124 202.09836 204.59048 206.69060 208.54472
 210.18284 211.33996 211.58108 211.82120 211.77032 211.48744 211.13256 210.77468
 210.40380 210.12592 209.94604 209.82216 209.76228 210.10540 210.50352 210.90465
 211.70977 212.89989 214.16201 215.95713 217.89725 219.95237 222.05949 224.15461
 226.22673 228.32285 230.43197 232.55009 234.69121 236.87533 239.14345 241.52557
 244.15869 246.42181 248.43593 250.21305 251.64217 252.77729 253.61141 253.93953
 253.98865 253.77477 253.14689 252.10701 250.72513 248.89825 246.81937 244.66449
 242.46761 240.28373 238.11585 235.96697 233.83909 231.71821 229.75633 227.92545
 226.22057 224.70469 223.34681 222.13093 221.02505 219.99717 219.11329 218.26641
 217.52053 216.71265 215.82277 215.19889 214.66101 215.27156 216.73663 218.10075
 219.65521 221.23985 222.40236 222.11432 220.59644 219.45187 220.17061 223.02725
 226.67067 231.22618 236.17982 241.07913 245.68227 249.93771 253.82391 257.26639
 260.24109 262.82932 265.17838 267.40192 269.46841 271.36914 273.11929 274.63995
 275.67557 276.03583 276.83990 277.85291 279.11429 280.24142 281.26978 282.20139
 283.03928 283.78543 284.43723 285.26788
 354.97500 345.04800 334.58700 324.11500 313.32600 302.53700 291.65000 280.76700
 269.93100 259.19300 248.62200 238.61700 229.08700 220.35500 212.54000 205.53500
 199.46400 194.49300 191.14300 189.19000 188.08900 188.01400 188.72400 189.90600
 191.46900 193.38200 195.40300 197.55600 199.80700 202.06000 204.28800 206.47900
 208.55200 210.37800 212.02500 213.65900 214.99800 216.11800 217.17200 218.25900
 219.49400 220.64500 221.67900 222.61400 223.54500 224.98200 226.57100 228.19000
 229.79700 231.81100 233.86500 235.97200 238.24200 240.55300 242.89900 245.25300
 247.48800 249.53500 251.36600 252.84800 254.09800 255.16700 256.02700 256.25300
 256.09500 255.54300 253.93500 252.56600 251.38400 250.24500 249.05200 247.70100
 246.01600 243.99600 241.78400 239.39300 236.81300 234.22300 231.65800 229.14400
 226.74000 224.47300 222.33500 220.32500 218.44000 216.67700 214.96200 213.47200
 212.20000 211.10800 210.26000 209.63900 209.24400 209.03100 209.05800 209.33300
 209.78400 210.62600 211.33100 212.39100 213.62500 214.84668 217.72949 219.47640
 220.32566 220.86828 220.88710 220.27371 219.43733 218.84250 219.04934 220.86203
 222.60583 225.72206 229.03064 232.61777 236.12270 239.51333 242.70767 245.68587
 248.41061 250.90679 253.19353 254.91714 256.48655 257.94920 259.39966 260.69384
 261.81714 262.77997 263.71679 264.54570 265.26305 265.89772 266.47676 267.00133
 267.47312 267.89325 268.26027 268.72800
