|-------------------------------------------------------------------------|
|   File Name : in_temp.dat
|   Subject   : temperature profiles used for initial guess atmosphere
|   File Type : input of gmtr
|   Data Type : atmospherical data
|   Author/s  : WRF-Chem
|   Date      : Fri Jul 26 15:39:24 2024
|-------------------------------------------------------------------------|

 WRF-Chem temperature
#
 values of T (K)    (8f10.5)
#
 354.97500 345.04800 334.58700 324.11500 313.32600 302.53700 291.65000 280.76700
 269.93100 259.19300 248.62200 238.61700 229.08700 220.35500 212.54000 205.53500
 199.46400 194.49300 191.14300 189.19000 188.08900 188.01400 188.72400 189.90600
 191.46900 193.38200 195.40300 197.55600 199.80700 202.06000 204.28800 206.47900
 208.55200 210.37800 212.02500 213.65900 214.99800 216.11800 217.17200 218.25900
 219.49400 220.64500 221.67900 222.61400 223.54500 224.98200 226.57100 228.19000
 229.79700 231.81100 233.86500 235.97200 238.24200 240.55300 242.89900 245.25300
 247.48800 249.53500 251.36600 252.84800 254.09800 255.16700 256.02700 256.25300
 256.09500 255.54300 253.93500 252.56600 251.38400 250.24500 249.05200 247.70100
 246.01600 243.99600 241.78400 239.39300 236.81300 234.22300 231.65800 229.14400
 226.74000 224.47300 222.33500 220.32500 218.44000 216.67700 214.96200 213.47200
 212.20000 211.10800 210.26000 209.63900 209.24400 209.03100 209.05800 209.33300
 209.78400 210.62600 211.33100 212.39100 213.62500 214.84668 217.72949 219.47640
 220.32566 220.86828 220.88710 220.27371 219.43733 218.84250 219.04934 220.86203
 222.60583 225.72206 229.03064 232.61777 236.12270 239.51333 242.70767 245.68587
 248.41061 250.90679 253.19353 254.91714 256.48655 257.94920 259.39966 260.69384
 261.81714 262.77997 263.71679 264.54570 265.26305 265.89772 266.47676 267.00133
 267.47312 267.89325 268.26027 268.72800
 366.78100 356.33500 345.76700 334.63300 323.03600 311.23000 299.10000 286.90300
 274.61500 262.51200 250.52100 239.82200 229.94400 221.04800 213.23000 206.23200
 200.06600 195.00400 191.58600 189.62800 188.66500 188.72900 189.56400 190.87200
 192.59700 194.69200 196.95500 199.31400 201.75900 204.23900 206.32700 208.16900
 209.79500 210.94000 211.16900 211.39700 211.33400 211.03900 210.67200 210.30200
 209.91900 209.62900 209.43700 209.30100 209.22900 209.56000 209.94600 210.33500
 211.12800 212.30600 213.55600 215.33900 217.26700 219.31000 221.40500 223.48800
 225.54800 227.63200 229.72900 231.83500 233.96400 236.13600 238.39200 240.76200
 243.38300 245.63400 247.63600 249.40100 250.81800 251.94100 252.76300 253.07900
 253.11600 252.89000 252.25000 251.19800 249.80400 247.96500 245.87400 243.70700
 241.49800 239.30200 237.12200 234.96100 232.82100 230.68800 228.71400 226.87100
 225.15400 223.62600 222.25600 221.02800 219.91000 218.87000 217.97400 217.11500
 216.35700 215.53700 214.63500 213.99900 213.44900 212.85855 212.01316 212.61654
 214.26826 216.08686 218.14273 220.53346 223.40855 226.78828 231.49734 235.90155
 239.42278 243.28576 247.23140 251.11907 254.80144 258.23331 261.38913 264.27520
 266.89312 269.26852 271.44504 273.08845 274.58484 275.98591 277.39845 278.65879
 279.75272 280.69038 281.56708 282.34086 283.01050 283.60295 284.14348 284.63317
 285.07358 285.46577 285.80838 286.24500
 381.81900 372.39900 361.20600 349.77600 337.62200 324.85300 311.81000 298.35300
 284.86000 271.32400 258.56100 246.30400 236.08700 226.79600 218.44800 211.29000
 205.52200 200.89400 197.38100 194.84800 193.01500 192.31500 192.25000 192.43100
 192.91200 193.53700 194.13600 194.71200 195.26200 195.83100 196.39300 196.97600
 197.60400 198.14900 198.58400 199.05700 199.69500 200.37800 201.05400 201.70800
 202.31300 202.85700 203.35500 203.86200 204.56900 205.29700 206.02600 206.98700
 208.19300 209.44100 210.96900 212.57600 214.46200 216.51300 218.63000 220.85300
 223.34100 225.96200 228.73900 231.69700 234.70600 237.70600 240.69200 243.65700
 246.73700 249.69900 252.52100 255.06300 257.29000 259.23300 260.63300 261.68000
 262.46100 262.79800 262.69100 262.22400 261.06900 259.52500 257.70700 255.50700
 253.00100 250.30200 247.39800 244.45200 241.65400 239.05400 236.73300 234.59000
 232.59500 230.72500 228.83400 226.82600 224.66600 222.38700 220.10400 217.71500
 215.45900 213.06600 210.54600 208.09300 205.35400 202.08130 196.05959 200.71215
 209.01611 216.90438 223.84126 229.78593 235.00632 240.20838 245.98943 250.68668
 254.32982 257.93487 261.55666 264.96801 268.15192 271.06452 273.76717 276.25691
 278.57680 280.74479 282.77456 284.60533 286.27232 287.81705 289.31715 290.65561
 291.81734 292.81312 293.70701 294.49387 295.17482 295.77730 296.32696 296.82492
 297.27278 297.67160 298.02000 298.46400
 399.33000 389.90700 379.81300 368.66800 357.52200 345.30100 333.07400 320.22700
 307.21600 293.84800 280.37600 267.29600 254.61000 242.98700 232.15100 221.97700
 212.67200 204.28600 197.66900 192.82100 189.48600 187.45200 186.81400 187.08900
 187.78100 189.05400 190.64800 192.54200 194.63000 196.75200 198.67100 200.15800
 201.53500 202.48700 202.97500 203.34000 203.53900 203.49700 203.38500 203.24700
 203.00500 202.78600 202.60300 202.43700 202.42600 202.88800 203.42000 203.95100
 204.89500 205.99200 207.30100 208.95800 210.73800 213.10000 215.56400 218.18000
 220.96600 223.91800 226.96100 230.09200 233.29300 236.55700 239.95500 243.53700
 246.84500 249.39000 251.54200 253.47400 255.19500 256.48400 257.43100 258.05900
 258.21200 258.04000 257.58200 256.64300 255.23900 253.50700 251.40800 249.05600
 246.57600 243.99400 241.38900 238.83000 236.34400 233.98600 231.96900 230.11800
 228.42300 226.89900 225.54800 224.29700 223.10500 221.96500 220.95800 220.11300
 219.49000 218.92000 218.32500 217.88100 217.42300 216.96366 216.35568 216.80261
 217.73415 218.28582 218.64258 219.10077 220.44626 222.53987 226.38451 230.35736
 233.59734 237.39164 241.29814 245.22796 248.98002 252.51130 255.78595 258.80109
 261.54781 264.05210 266.34239 268.04198 269.58951 271.01303 272.35754 273.55718
 274.59842 275.49092 276.28989 276.99307 277.60161 278.14001 278.63122 279.07623
 279.47646 279.83287 280.14422 280.54100
 399.73800 389.78500 379.66200 368.15100 356.64100 344.35000 331.79200 318.88800
 305.72600 292.49300 279.20900 266.73800 254.69600 244.21100 234.45700 225.43300
 217.56900 210.45100 204.30000 199.30600 195.45800 192.57600 191.02700 190.38600
 190.23900 190.53400 191.16600 191.92500 192.79500 193.76600 194.73200 195.31200
 195.80000 196.05200 196.11500 196.11500 196.03900 195.72300 195.34000 194.98900
 194.75100 194.79200 195.13300 195.59800 196.50600 198.13600 199.85800 201.56600
 204.17900 206.82300 209.89300 213.28400 216.82800 220.60500 224.38700 228.20900
 232.03200 235.82500 239.56000 243.25800 246.84500 250.20100 253.70900 257.46800
 261.53000 264.22100 266.60100 268.68100 270.32900 271.74100 272.83600 273.47400
 273.89800 274.00200 273.75700 273.28800 272.37100 271.10000 269.58900 267.77900
 265.81600 263.72100 261.39300 258.91600 256.29800 253.42300 250.33100 247.11400
 243.83700 240.52900 237.24900 233.99900 230.72800 227.51500 224.25400 220.95200
 217.62700 213.65600 210.12100 206.78900 204.01000 201.99491 199.07309 198.76551
 199.40006 200.48994 201.46112 202.31912 203.45100 204.96110 207.47502 210.85391
 213.70530 217.29629 220.99574 224.72316 228.28753 231.64854 234.68024 237.40893
 239.70644 241.60899 243.46854 245.67368 247.68154 249.52395 251.24767 252.78566
 254.12057 255.26479 256.23740 257.09036 257.82852 258.48160 259.07744 259.61723
 260.10271 260.53504 260.91270 261.39400
 399.73800 389.78500 379.66200 368.15100 356.64100 344.35000 331.79200 318.88800
 305.72600 292.49300 279.20900 266.73800 254.69600 244.21100 234.45700 225.43300
 217.56900 210.45100 204.30000 199.30600 195.45800 192.57600 191.02700 190.38600
 190.23900 190.53400 191.16600 191.92500 192.79500 193.76600 194.73200 195.31200
 195.80000 196.05200 196.11500 196.11500 196.03900 195.72300 195.34000 194.98900
 194.75100 194.79200 195.13300 195.59800 196.50600 198.13600 199.85800 201.56600
 204.17900 206.82300 209.89300 213.28400 216.82800 220.60500 224.38700 228.20900
 232.03200 235.82500 239.56000 243.25800 246.84500 250.20100 253.70900 257.46800
 261.53000 264.22100 266.60100 268.68100 270.32900 271.74100 272.83600 273.47400
 273.89800 274.00200 273.75700 273.28800 272.37100 271.10000 269.58900 267.77900
 265.81600 263.72100 261.39300 258.91600 256.29800 253.42300 250.33100 247.11400
 243.83700 240.52900 237.24900 233.99900 230.72800 227.51500 224.25400 220.95200
 217.62700 213.65600 210.12100 206.78900 204.01000 201.99491 199.07309 198.76551
 199.40006 200.48994 201.46112 202.31912 203.45100 204.96110 207.47502 210.85391
 213.70530 217.29629 220.99574 224.72316 228.28753 231.64854 234.68024 237.40893
 239.70644 241.60899 243.46854 245.67368 247.68154 249.52395 251.24767 252.78566
 254.12057 255.26479 256.23740 257.09036 257.82852 258.48160 259.07744 259.61723
 260.10271 260.53504 260.91270 261.39400
 399.33000 389.90700 379.81300 368.66800 357.52200 345.30100 333.07400 320.22700
 307.21600 293.84800 280.37600 267.29600 254.61000 242.98700 232.15100 221.97700
 212.67200 204.28600 197.66900 192.82100 189.48600 187.45200 186.81400 187.08900
 187.78100 189.05400 190.64800 192.54200 194.63000 196.75200 198.67100 200.15800
 201.53500 202.48700 202.97500 203.34000 203.53900 203.49700 203.38500 203.24700
 203.00500 202.78600 202.60300 202.43700 202.42600 202.88800 203.42000 203.95100
 204.89500 205.99200 207.30100 208.95800 210.73800 213.10000 215.56400 218.18000
 220.96600 223.91800 226.96100 230.09200 233.29300 236.55700 239.95500 243.53700
 246.84500 249.39000 251.54200 253.47400 255.19500 256.48400 257.43100 258.05900
 258.21200 258.04000 257.58200 256.64300 255.23900 253.50700 251.40800 249.05600
 246.57600 243.99400 241.38900 238.83000 236.34400 233.98600 231.96900 230.11800
 228.42300 226.89900 225.54800 224.29700 223.10500 221.96500 220.95800 220.11300
 219.49000 218.92000 218.32500 217.88100 217.42300 216.96366 216.35568 216.80261
 217.73415 218.28582 218.64258 219.10077 220.44626 222.53987 226.38451 230.35736
 233.59734 237.39164 241.29814 245.22796 248.98002 252.51130 255.78595 258.80109
 261.54781 264.05210 266.34239 268.04198 269.58951 271.01303 272.35754 273.55718
 274.59842 275.49092 276.28989 276.99307 277.60161 278.14001 278.63122 279.07623
 279.47646 279.83287 280.14422 280.54100
 381.81900 372.39900 361.20600 349.77600 337.62200 324.85300 311.81000 298.35300
 284.86000 271.32400 258.56100 246.30400 236.08700 226.79600 218.44800 211.29000
 205.52200 200.89400 197.38100 194.84800 193.01500 192.31500 192.25000 192.43100
 192.91200 193.53700 194.13600 194.71200 195.26200 195.83100 196.39300 196.97600
 197.60400 198.14900 198.58400 199.05700 199.69500 200.37800 201.05400 201.70800
 202.31300 202.85700 203.35500 203.86200 204.56900 205.29700 206.02600 206.98700
 208.19300 209.44100 210.96900 212.57600 214.46200 216.51300 218.63000 220.85300
 223.34100 225.96200 228.73900 231.69700 234.70600 237.70600 240.69200 243.65700
 246.73700 249.69900 252.52100 255.06300 257.29000 259.23300 260.63300 261.68000
 262.46100 262.79800 262.69100 262.22400 261.06900 259.52500 257.70700 255.50700
 253.00100 250.30200 247.39800 244.45200 241.65400 239.05400 236.73300 234.59000
 232.59500 230.72500 228.83400 226.82600 224.66600 222.38700 220.10400 217.71500
 215.45900 213.06600 210.54600 208.09300 205.35400 202.08130 196.05959 200.71215
 209.01611 216.90438 223.84126 229.78593 235.00632 240.20838 245.98943 250.68668
 254.32982 257.93487 261.55666 264.96801 268.15192 271.06452 273.76717 276.25691
 278.57680 280.74479 282.77456 284.60533 286.27232 287.81705 289.31715 290.65561
 291.81734 292.81312 293.70701 294.49387 295.17482 295.77730 296.32696 296.82492
 297.27278 297.67160 298.02000 298.46400
 366.78100 356.35218 345.80135 334.68453 323.10471 311.31589 299.20306 287.02324
 274.75242 262.66660 250.69277 240.01095 230.15013 221.27131 213.47048 206.48966
 200.34084 195.29602 191.89519 189.95437 189.00855 189.08973 189.94190 191.26708
 193.00926 195.12144 197.40161 199.77779 202.23997 204.73715 206.84232 208.70150
 210.34468 211.50686 211.75303 211.99821 211.95239 211.67457 211.32474 210.97192
 210.60610 210.33328 210.15845 210.03963 209.98481 210.33299 210.73616 211.14234
 211.95252 213.14770 214.41487 216.21505 218.16023 220.22041 222.33258 224.43276
 226.50994 228.61112 230.72529 232.84847 234.99465 237.18383 239.45700 241.84418
 244.48236 246.75054 248.76971 250.55189 251.98607 253.12625 253.96542 254.29860
 254.35278 254.14396 253.52113 252.48631 251.10949 249.28767 247.21384 245.06402
 242.87220 240.69338 238.53055 236.38673 234.26391 232.14809 230.19126 228.36544
 226.66562 225.15480 223.80197 222.59115 221.49033 220.46751 219.58868 218.74686
 218.00604 217.20322 216.31839 215.69957 215.16675 213.58293 209.86665 209.13080
 210.22386 210.64062 211.92912 215.45720 219.80162 224.58936 230.38216 235.38872
 239.23853 243.28078 247.60896 251.85532 255.43892 258.42307 261.07855 263.72388
 266.56763 269.25833 271.86844 274.49350 276.57376 278.15067 279.46262 281.01938
 283.08746 284.86630 286.40994 287.76663 288.94202 289.98111 290.92798 291.78506
 292.55383 293.23712 293.83173 294.56400
 366.78100 356.35267 345.80233 334.68600 323.10666 311.31833 299.20599 287.02666
 274.75632 262.67099 250.69765 240.01632 230.15598 221.27765 213.47731 206.49698
 200.34864 195.30431 191.90398 189.96364 189.01831 189.09997 189.95264 191.27830
 193.02097 195.13363 197.41430 199.79096 202.25363 204.75129 206.85696 208.71662
 210.36029 211.52296 211.76962 212.01529 211.96995 211.69262 211.34328 210.99095
 210.62561 210.35328 210.17894 210.06061 210.00627 210.35494 210.75860 211.16527
 211.97593 213.17160 214.43927 216.23993 218.18560 220.24626 222.35893 224.45959
 226.53726 228.63892 230.75359 232.87725 235.02392 237.21358 239.48725 241.87491
 244.51358 246.78224 248.80191 250.58458 252.01924 253.15991 253.99957 254.33324
 254.38790 254.17957 253.55723 252.52290 251.14656 249.32523 247.25189 245.10256
 242.91122 240.73289 238.57055 236.42722 234.30489 232.18955 230.23322 228.40788
 226.70855 225.19821 223.84588 222.63554 221.53521 220.51287 219.63454 218.79320
 218.05287 217.25053 216.36620 215.74787 215.21553 213.62967 209.90759 209.18687
 210.24393 210.69751 211.94638 215.40033 219.75775 224.54141 230.30363 235.30212
 239.15245 243.19705 247.53055 251.78601 255.39117 258.41263 261.08264 263.70465
 266.53302 269.21655 271.82159 274.42816 276.48038 278.04306 279.38834 280.98676
 283.06641 284.84866 286.39371 287.75195 288.92474 289.96454 290.91208 291.76700
 292.53806 293.21930 293.81143 294.54633
 366.78100 356.35317 345.80335 334.68752 323.10869 311.32087 299.20904 287.03021
 274.76039 262.67556 250.70273 240.02191 230.16208 221.28425 213.48443 206.50460
 200.35677 195.31295 191.91312 189.97330 189.02847 189.11064 189.96382 191.28999
 193.03316 195.14634 197.42751 199.80468 202.26786 204.76603 206.87220 208.73238
 210.37655 211.53972 211.78690 212.03307 211.98824 211.71142 211.36259 211.01076
 210.64594 210.37411 210.20028 210.08246 210.02863 210.37780 210.78198 211.18915
 212.00032 213.19650 214.46467 216.26584 218.21202 220.27319 222.38636 224.48754
 226.56571 228.66789 230.78306 232.90723 235.05441 237.24458 239.51875 241.90693
 244.54610 246.81527 248.83545 250.61862 252.05379 253.19497 254.03514 254.36931
 254.42449 254.21666 253.59483 252.56101 251.18518 249.36435 247.29153 245.14270
 242.95187 240.77405 238.61222 236.46939 234.34757 232.23274 230.27691 228.45209
 226.75326 225.24343 223.89161 222.68178 221.58195 220.56013 219.68230 218.84148
 218.10165 217.29982 216.41600 215.79817 215.26634 213.67616 209.94304 209.25008
 210.26106 210.75122 211.96765 215.35341 219.71275 224.48952 230.21902 235.21832
 239.07275 243.12175 247.45622 251.71785 255.34079 258.39883 261.08414 263.68405
 266.49658 269.17181 271.77023 274.35840 276.38321 277.93494 279.31403 280.95636
 283.04111 284.82629 286.37173 287.72931 288.90289 289.94250 290.88879 291.74536
 292.51324 293.19550 293.78705 294.52060
 366.78100 356.35347 345.80394 334.68841 323.10989 311.32236 299.21083 287.03230
 274.76277 262.67824 250.70571 240.02519 230.16566 221.28813 213.48860 206.50907
 200.36154 195.31801 191.91849 189.97896 189.03443 189.11690 189.97037 191.29684
 193.04031 195.15379 197.43526 199.81273 202.27620 204.77467 206.88114 208.74161
 210.38609 211.54956 211.79703 212.04350 211.99897 211.72244 211.37391 211.02239
 210.65786 210.38633 210.21280 210.09527 210.04174 210.39121 210.79569 211.20316
 212.01463 213.21110 214.47957 216.28104 218.22751 220.28899 222.40246 224.50393
 226.58240 228.68487 230.80034 232.92481 235.07229 237.26276 239.53723 241.92570
 244.56517 246.83464 248.85511 250.63859 252.07406 253.21553 254.05600 254.39047
 254.44594 254.23841 253.61689 252.58336 251.20783 249.38730 247.31477 245.16624
 242.97571 240.79819 238.63666 236.49413 234.37260 232.25807 230.30254 228.47801
 226.77949 225.26996 223.91843 222.70890 221.60937 220.58784 219.71031 218.86979
 218.13026 217.32873 216.44520 215.82767 215.29614 213.71074 209.98769 209.30968
 210.27954 210.80009 211.99097 215.31607 219.66003 224.43065 230.14148 235.14091
 238.99774 243.04880 247.38249 251.64857 255.28882 258.38391 261.08569 263.66394
 266.45914 269.12442 271.71484 274.28336 276.28339 277.82672 279.23938 280.92303
 283.01093 284.79669 286.34338 287.70142 288.87564 289.91467 290.85995 291.71582
 292.48312 293.16333 293.75513 294.48663
 366.78100 356.35364 345.80428 334.68893 323.11057 311.32321 299.21185 287.03349
 274.76414 262.67978 250.70742 240.02706 230.16770 221.29035 213.49099 206.51163
 200.36427 195.32091 191.92156 189.98220 189.03784 189.12048 189.97412 191.30077
 193.04441 195.15805 197.43969 199.81733 202.28098 204.77962 206.88626 208.74690
 210.39154 211.55519 211.80283 212.04947 212.00511 211.72875 211.38040 211.02904
 210.66468 210.39332 210.21996 210.10261 210.04925 210.39889 210.80353 211.21117
 212.02282 213.21946 214.48810 216.28974 218.23638 220.29803 222.41167 224.51331
 226.59195 228.69460 230.81024 232.93488 235.08252 237.27316 239.54781 241.93645
 244.57609 246.84573 248.86637 250.65002 252.08566 253.22730 254.06794 254.40258
 254.45823 254.25087 253.62951 252.59615 251.22079 249.40044 247.32808 245.17972
 242.98936 240.81200 238.65065 236.50829 234.38693 232.27257 230.31721 228.49286
 226.79450 225.28514 223.93378 222.72442 221.62507 220.60371 219.72635 218.88599
 218.14663 217.34528 216.46192 215.84456 215.31320 213.73775 210.03694 209.37045
 210.30170 210.83940 212.01314 215.28737 219.60403 224.36887 230.07007 235.06863
 238.92496 242.97682 247.30867 251.57959 255.23820 258.36963 261.08810 263.64407
 266.42017 269.07355 271.65359 274.20255 276.18106 277.71982 279.16669 280.88681
 282.97510 284.76166 286.30832 287.66592 288.83975 289.87756 290.82281 291.67789
 292.44363 293.12366 293.71271 294.44098
 366.78100 356.35367 345.80434 334.68901 323.11068 311.32335 299.21202 287.03369
 274.76437 262.68004 250.70771 240.02738 230.16805 221.29072 213.49139 206.51206
 200.36473 195.32140 191.92207 189.98274 189.03841 189.12108 189.97476 191.30143
 193.04510 195.15877 197.44044 199.81811 202.28178 204.78045 206.88712 208.74779
 210.39246 211.55613 211.80380 212.05047 212.00615 211.72982 211.38149 211.03016
 210.66583 210.39450 210.22117 210.10384 210.05051 210.40018 210.80485 211.21252
 212.02419 213.22086 214.48954 216.29121 218.23788 220.29955 222.41322 224.51489
 226.59356 228.69623 230.81190 232.93657 235.08424 237.27491 239.54958 241.93825
 244.57793 246.84760 248.86827 250.65194 252.08761 253.22928 254.06995 254.40462
 254.46029 254.25296 253.63163 252.59830 251.22297 249.40264 247.33032 245.18199
 242.99166 240.81433 238.65300 236.51067 234.38934 232.27501 230.31968 228.49535
 226.79702 225.28769 223.93636 222.72703 221.62770 220.60638 219.72905 218.88872
 218.14939 217.34806 216.46473 215.84740 215.31607 213.75662 210.09213 209.43037
 210.32936 210.86905 212.03371 215.26938 219.54414 224.30386 230.00212 234.99927
 238.85445 242.90683 247.23781 251.51302 255.18970 258.35614 261.08978 263.62384
 266.37946 269.01907 271.58701 274.11578 276.07538 277.61182 279.09180 280.84436
 282.93372 284.71976 286.26617 287.62360 288.79584 289.83365 290.77820 291.63245
 292.39746 293.07617 293.66391 294.38855
 366.78100 356.35367 345.80433 334.68900 323.11066 311.32333 299.21199 287.03366
 274.76432 262.67999 250.70766 240.02732 230.16799 221.29065 213.49132 206.51198
 200.36465 195.32131 191.92198 189.98264 189.03831 189.12098 189.97464 191.30131
 193.04497 195.15864 197.44030 199.81797 202.28163 204.78030 206.88697 208.74763
 210.39230 211.55596 211.80363 212.05029 212.00596 211.72962 211.38129 211.02996
 210.66562 210.39429 210.22095 210.10362 210.05028 210.39995 210.80461 211.21228
 212.02394 213.22061 214.48928 216.29094 218.23761 220.29927 222.41294 224.51460
 226.59327 228.69593 230.81160 232.93627 235.08393 237.27460 239.54926 241.93793
 244.57759 246.84726 248.86792 250.65159 252.08726 253.22892 254.06959 254.40425
 254.45992 254.25258 253.63125 252.59791 251.22258 249.40224 247.32991 245.18158
 242.99124 240.81391 238.65257 236.51024 234.38890 232.27457 230.31923 228.49490
 226.79657 225.28723 223.93590 222.72656 221.62723 220.60589 219.72856 218.88822
 218.14889 217.34756 216.46422 215.84689 215.31555 213.77238 210.14510 209.49771
 210.36044 210.88884 212.05351 215.25578 219.48271 224.23323 229.93451 234.93150
 238.78592 242.83952 247.16933 251.44762 255.14180 258.34332 261.09360 263.60751
 266.34235 268.96515 271.51645 274.02411 275.96661 277.50476 279.01382 280.79749
 282.88391 284.66852 286.21454 287.57001 288.74194 289.77756 290.71982 291.56946
 292.32999 293.00339 293.58551 294.29056
 366.78100 356.35368 345.80436 334.68904 323.11072 311.32341 299.21209 287.03377
 274.76445 262.68013 250.70781 240.02749 230.16817 221.29085 213.49154 206.51222
 200.36490 195.32158 191.92226 189.98294 189.03862 189.12130 189.97498 191.30166
 193.04535 195.15903 197.44071 199.81839 202.28207 204.78075 206.88743 208.74811
 210.39279 211.55648 211.80416 212.05084 212.00652 211.73020 211.38188 211.03056
 210.66624 210.39492 210.22161 210.10429 210.05097 210.40065 210.80533 211.21301
 212.02469 213.22137 214.49005 216.29174 218.23842 220.30010 222.41378 224.51546
 226.59414 228.69682 230.81250 232.93718 235.08486 237.27555 239.55023 241.93891
 244.57859 246.84827 248.86895 250.65263 252.08831 253.22999 254.07068 254.40536
 254.46104 254.25372 253.63240 252.59908 251.22376 249.40344 247.33112 245.18281
 242.99249 240.81517 238.65385 236.51153 234.39021 232.27589 230.32057 228.49625
 226.79794 225.28862 223.93730 222.72798 221.62866 220.60734 219.73002 218.88970
 218.15038 217.34906 216.46575 215.84843 215.31711 213.78796 210.19267 209.57159
 210.40363 210.90416 212.06767 215.24318 219.41383 224.15710 229.86581 234.86247
 238.71803 242.77484 247.10382 251.38463 255.09625 258.33264 261.10202 263.59805
 266.30927 268.91061 271.44031 273.92551 275.85678 277.40018 278.93414 280.74194
 282.82059 284.60324 286.14795 287.50223 288.67325 289.70844 290.64972 291.49948
 292.25409 292.92789 293.50787 294.20010
 366.78100 356.35387 345.80473 334.68960 323.11147 311.32434 299.21320 287.03507
 274.76594 262.68181 250.70967 240.02954 230.17041 221.29327 213.49414 206.51501
 200.36788 195.32474 191.92561 189.98648 189.04234 189.12521 189.97908 191.30595
 193.04981 195.16368 197.44555 199.82342 202.28728 204.78615 206.89302 208.75388
 210.39875 211.56262 211.81049 212.05735 212.01322 211.73709 211.38896 211.03782
 210.67369 210.40256 210.22942 210.11229 210.05916 210.40903 210.81389 211.22176
 212.03363 213.23049 214.49936 216.30123 218.24810 220.30996 222.42383 224.52570
 226.60457 228.70743 230.82330 232.94817 235.09603 237.28690 239.56177 241.95064
 244.59050 246.86037 248.88124 250.66510 252.10097 253.24284 254.08371 254.41857
 254.47444 254.26731 253.64618 252.61304 251.23791 249.41778 247.34564 245.19751
 243.00738 240.83025 238.66911 236.52698 234.40585 232.29172 230.33658 228.51245
 226.81432 225.30518 223.95405 222.74492 221.64579 220.62465 219.74752 218.90739
 218.16825 217.36712 216.48399 215.86686 215.33572 213.81076 210.22461 209.65739
 210.45956 210.91658 212.07527 215.22020 219.33833 224.07823 229.79926 234.79587
 238.65355 242.71558 247.04366 251.32498 255.05182 258.32108 261.11133 263.59036
 266.27805 268.85437 271.35864 273.82120 275.74945 277.30475 278.86353 280.70044
 282.73886 284.52643 286.07251 287.42813 288.59970 289.63208 290.56793 291.41519
 292.17050 292.83292 293.38782 294.01071
 366.78100 356.35370 345.80440 334.68909 323.11079 311.32349 299.21219 287.03389
 274.76459 262.68028 250.70798 240.02768 230.16838 221.29108 213.49178 206.51247
 200.36517 195.32187 191.92257 189.98327 189.03897 189.12166 189.97536 191.30206
 193.04576 195.15946 197.44116 199.81885 202.28255 204.78125 206.88795 208.74865
 210.39335 211.55704 211.80474 212.05144 212.00714 211.73084 211.38254 211.03123
 210.66693 210.39563 210.22233 210.10503 210.05173 210.40142 210.80612 211.21382
 212.02552 213.22222 214.49092 216.29261 218.23931 220.30101 222.41471 224.51641
 226.59511 228.69780 230.81350 232.93820 235.08590 237.27660 239.55130 241.93999
 244.57969 246.84939 248.87009 250.65379 252.08949 253.23118 254.07188 254.40658
 254.46228 254.25498 253.63368 252.60037 251.22507 249.40477 247.33247 245.18417
 242.99387 240.81656 238.65526 236.51296 234.39166 232.27736 230.32206 228.49775
 226.79945 225.29015 223.93885 222.72955 221.63025 220.60894 219.73164 218.89134
 218.15204 217.35074 216.46744 215.85013 215.31883 213.81500 210.27750 209.72208
 210.54099 210.93222 212.05479 215.20889 219.26151 223.99400 229.73343 234.73055
 238.59242 242.66135 246.98685 251.26662 255.00665 258.30829 261.12097 263.58426
 266.24799 268.79681 271.27206 273.71170 275.64108 277.21146 278.78876 280.64240
 282.65329 284.44296 285.98837 287.34277 288.51443 289.54129 290.47711 291.32407
 292.08093 292.75101 293.30911 293.85645
 366.78100 356.35461 345.80622 334.69183 323.11444 311.32804 299.21765 287.04026
 274.77187 262.68848 250.71709 240.03770 230.17931 221.30292 213.50453 206.52613
 200.37974 195.33735 191.93896 190.00057 189.05718 189.14079 189.99540 191.32301
 193.06762 195.18222 197.46483 199.84344 202.30805 204.80766 206.91527 208.77688
 210.42249 211.58710 211.83570 212.08331 212.03992 211.76453 211.41714 211.06675
 210.70336 210.43297 210.26058 210.14419 210.09179 210.44240 210.84801 211.25662
 212.06923 213.26684 214.53645 216.33906 218.28667 220.34928 222.46388 224.56649
 226.64610 228.74971 230.86632 232.99193 235.14054 237.33215 239.60776 241.99737
 244.63797 246.90858 248.93019 250.71480 252.15141 253.29402 254.13563 254.47124
 254.52785 254.32145 253.70106 252.66867 251.29428 249.47489 247.40350 245.25611
 243.06672 240.89033 238.72994 236.58854 234.46815 232.35476 230.40037 228.57698
 226.87959 225.37120 224.02081 222.81242 221.71403 220.69363 219.81724 218.97785
 218.23946 217.43907 216.55668 215.94029 215.40990 213.87167 210.25330 209.84377
 210.64290 210.92427 212.05713 215.16110 219.15138 223.90762 229.66820 234.66991
 238.53773 242.61600 246.93829 251.21446 254.96626 258.29767 261.13156 263.58109
 266.21753 268.73608 271.17734 273.59384 275.52866 277.12018 278.71164 280.56897
 282.56604 284.35211 285.89597 287.24963 288.41779 289.44397 290.38025 291.22888
 291.99332 292.66602 293.09067 293.50232
 366.78100 356.35571 345.80842 334.69513 323.11884 311.33355 299.22426 287.04797
 274.78068 262.69839 250.72810 240.04981 230.19252 221.31723 213.51994 206.54265
 200.39736 195.35607 191.95878 190.02149 189.07920 189.16391 190.01962 191.34833
 193.09404 195.20975 197.49346 199.87317 202.33888 204.83959 206.94830 208.81101
 210.45772 211.62343 211.87314 212.12185 212.07956 211.80527 211.45898 211.10969
 210.74740 210.47811 210.30682 210.19153 210.14024 210.49195 210.89866 211.30837
 212.12208 213.32079 214.59150 216.39521 218.34392 220.40763 222.52334 224.62705
 226.70776 228.81247 230.93018 233.05689 235.20660 237.39931 239.67602 242.06673
 244.70844 246.98015 249.00286 250.78857 252.22628 253.36999 254.21270 254.54941
 254.60712 254.40183 253.78254 252.75125 251.37796 249.55967 247.48938 245.34309
 243.15480 240.97951 238.82022 236.67993 234.56064 232.44835 230.49506 228.67277
 226.97648 225.46919 224.11990 222.91261 221.81532 220.79603 219.92074 219.08245
 218.34516 217.54587 216.66458 216.04929 215.52000 213.94110 210.22597 209.88179
 210.91423 210.93982 211.87096 215.09062 219.08105 223.82980 229.62213 234.62633
 238.49582 242.58043 246.89529 251.16476 254.92450 258.28333 261.13770 263.57053
 266.18256 268.66824 271.07706 273.46881 275.41260 277.02728 278.63010 280.48785
 282.47583 284.25299 285.79404 287.14716 288.31323 289.33768 290.27252 291.12708
 291.89563 292.57291 292.86890 293.16156
 366.78100 356.35496 345.80692 334.69288 323.11585 311.32981 299.21977 287.04273
 274.77469 262.69165 250.72061 240.04158 230.18354 221.30750 213.50946 206.53142
 200.38538 195.34334 191.94531 190.00727 189.06423 189.14819 190.00315 191.33111
 193.07607 195.19104 197.47400 199.85296 202.31792 204.81788 206.92584 208.78780
 210.43377 211.59873 211.84769 212.09565 212.05261 211.77757 211.43053 211.08050
 210.71746 210.44742 210.27538 210.15934 210.10730 210.45827 210.86423 211.27319
 212.08615 213.28411 214.55407 216.35703 218.30500 220.36796 222.48292 224.58588
 226.66584 228.76980 230.88676 233.01273 235.16169 237.35365 239.62961 242.01957
 244.66053 246.93149 248.95346 250.73842 252.17538 253.31834 254.16030 254.49626
 254.55322 254.34719 253.72715 252.69511 251.32107 249.50203 247.43099 245.28395
 243.09492 240.91888 238.75884 236.61780 234.49776 232.38472 230.43068 228.60765
 226.91061 225.40257 224.05253 222.84449 221.74645 220.72641 219.85038 219.01134
 218.27330 217.47326 216.59122 215.97518 215.44514 213.92082 210.33159 209.82219
 211.00639 211.07312 211.81367 215.00217 219.02708 223.79703 229.58109 234.58543
 238.45552 242.54659 246.85217 251.11061 254.87386 258.25644 261.13107 263.55533
 266.14621 268.60513 270.97433 273.34259 275.30246 276.94040 278.55219 280.40790
 282.38168 284.14661 285.68863 287.04053 288.20197 289.21072 290.14578 290.99973
 291.77466 292.43793 292.67081 292.87378
 366.78100 356.35415 345.80531 334.69046 323.11261 311.32576 299.21492 287.03707
 274.76822 262.68437 250.71253 240.03268 230.17383 221.29699 213.49814 206.51929
 200.37244 195.32960 191.93075 189.99190 189.04805 189.13121 189.98536 191.31251
 193.05667 195.17082 197.45297 199.83112 202.29528 204.79443 206.90158 208.76273
 210.40789 211.57204 211.82019 212.06735 212.02350 211.74765 211.39980 211.04896
 210.68511 210.41426 210.24141 210.12457 210.07172 210.42187 210.82703 211.23518
 212.04733 213.24448 214.51364 216.31579 218.26294 220.32509 222.43925 224.54140
 226.62055 228.72371 230.83986 232.96501 235.11316 237.30432 239.57947 241.96862
 244.60877 246.87893 248.90008 250.68423 252.12039 253.26254 254.10369 254.43884
 254.49500 254.28815 253.66730 252.63445 251.25961 249.43976 247.36791 245.22007
 243.03022 240.85337 238.69252 236.55068 234.42983 232.31598 230.36113 228.53729
 226.83944 225.33059 223.97975 222.77090 221.67205 220.65120 219.77436 218.93451
 218.19566 217.39481 216.51197 215.89512 215.36427 213.89825 210.44424 209.80464
 210.97488 211.17407 211.90085 214.97536 218.95233 223.74945 229.52737 234.53685
 238.41295 242.51312 246.81123 251.05792 254.82486 258.23083 261.12445 263.53912
 266.11334 268.53378 270.87711 273.21814 275.19125 276.85977 278.47995 280.32544
 282.28061 284.03668 285.57782 286.92847 288.08261 289.07785 290.01453 290.87500
 291.66168 292.26089 292.46225 292.61102
 366.78100 356.35444 345.80589 334.69133 323.11377 311.32721 299.21666 287.03910
 274.77054 262.68698 250.71543 240.03587 230.17731 221.30075 213.50220 206.52364
 200.37708 195.33453 191.93597 189.99741 189.05385 189.13730 189.99174 191.31918
 193.06362 195.17807 197.46051 199.83895 202.30339 204.80284 206.91028 208.77172
 210.41716 211.58161 211.83005 212.07749 212.03394 211.75838 211.41082 211.06026
 210.69671 210.42615 210.25359 210.13703 210.08448 210.43492 210.84036 211.24880
 212.06125 213.25869 214.52813 216.33058 218.27802 220.34046 222.45490 224.55735
 226.63679 228.74023 230.85667 232.98212 235.13056 237.32200 239.59744 241.98689
 244.62733 246.89777 248.91921 250.70366 252.14010 253.28254 254.12399 254.45943
 254.51587 254.30931 253.68876 252.65620 251.28164 249.46208 247.39053 245.24297
 243.05341 240.87685 238.71630 236.57474 234.45418 232.34063 230.38607 228.56251
 226.86495 225.35640 224.00584 222.79728 221.69872 220.67817 219.80161 218.96205
 218.22349 217.42294 216.54038 215.92382 215.39326 213.93439 210.49580 209.81885
 210.94356 211.21779 212.04662 214.99121 218.86340 223.68854 229.47559 234.49007
 238.36998 242.47768 246.76764 251.00235 254.77454 258.20660 261.12021 263.52621
 266.08023 268.47485 270.76804 273.08835 275.06894 276.75885 278.38968 280.23947
 282.18167 283.92926 285.47171 286.81686 287.95639 288.94049 289.87766 290.73749
 291.52090 292.00537 292.22723 292.37036
 366.78100 356.35512 345.80725 334.69337 323.11649 311.33062 299.22074 287.04386
 274.77599 262.69311 250.72223 240.04336 230.18548 221.30961 213.51173 206.53385
 200.38798 195.34610 191.94822 190.01035 189.06747 189.15159 190.00672 191.33484
 193.07996 195.19509 197.47821 199.85733 202.32246 204.82258 206.93070 208.79283
 210.43895 211.60408 211.85320 212.10132 212.05845 211.78357 211.43669 211.08682
 210.72394 210.45406 210.28219 210.16631 210.11443 210.46556 210.87168 211.28080
 212.09393 213.29205 214.56217 216.36530 218.31342 220.37655 222.49167 224.59479
 226.67492 228.77904 230.89616 233.02229 235.17141 237.36353 239.63966 242.02978
 244.67090 246.94203 248.96415 250.74927 252.18640 253.32952 254.17164 254.50777
 254.56489 254.35902 253.73914 252.70726 251.33339 249.51451 247.44363 245.29676
 243.10788 240.93200 238.77213 236.63125 234.51137 232.39850 230.44462 228.62174
 226.92487 225.41699 224.06711 222.85924 221.76136 220.74149 219.86561 219.02673
 218.28886 217.48898 216.60710 215.99123 215.46135 213.99437 210.53532 209.83571
 210.91051 211.23279 212.19272 215.03166 218.80531 223.63385 229.44411 234.46484
 238.34273 242.45483 246.73325 250.95540 254.72990 258.18484 261.12335 263.51434
 266.04126 268.39221 270.62857 272.93634 274.92142 276.63190 278.29834 280.17978
 282.09329 283.80463 285.33063 286.67548 287.79715 288.73996 289.67667 290.55338
 291.35135 291.81171 292.03732 292.17136
 366.78100 356.35403 345.80505 334.69008 323.11211 311.32513 299.21416 287.03618
 274.76721 262.68324 250.71126 240.03129 230.17232 221.29534 213.49637 206.51740
 200.37042 195.32745 191.92847 189.98950 189.04553 189.12855 189.98258 191.30961
 193.05363 195.16766 197.44969 199.82771 202.29174 204.79077 206.89779 208.75882
 210.40384 211.56787 211.81590 212.06292 212.01895 211.74298 211.39500 211.04403
 210.68006 210.40908 210.23611 210.11913 210.06616 210.41619 210.82121 211.22924
 212.04127 213.23829 214.50732 216.30935 218.25637 220.31840 222.43242 224.53445
 226.61348 228.71650 230.83253 232.95756 235.10558 237.29661 239.57164 241.96066
 244.60069 246.87072 248.89174 250.67577 252.11179 253.25382 254.09485 254.42987
 254.48590 254.27893 253.65795 252.62498 251.25001 249.43003 247.35806 245.21008
 243.02011 240.84314 238.68216 236.54019 234.41922 232.30524 230.35027 228.52630
 226.82832 225.31935 223.96837 222.75940 221.66043 220.63945 219.76248 218.92251
 218.18353 217.38256 216.49959 215.88261 215.35164 213.95975 210.68333 209.89313
 210.89619 211.25787 212.24414 215.00218 218.72466 223.54832 229.39056 234.42088
 238.29137 242.41943 246.69319 250.91623 254.71910 258.19858 261.17783 263.58966
 266.03217 268.38330 270.56345 272.76135 274.73865 276.43396 278.03775 279.90948
 281.95511 283.74179 285.27945 286.58163 287.68253 288.66202 289.57471 290.31586
 290.81808 291.12738 291.32150 291.48413
 366.78100 356.34875 345.79451 334.67426 323.09102 311.29877 299.18253 286.99928
 274.72504 262.63579 250.65855 239.97330 230.10906 221.22681 213.42256 206.43832
 200.28607 195.23783 191.83358 189.88934 188.94009 189.01785 189.86660 191.18836
 192.92711 195.03587 197.31262 199.68537 202.14413 204.63788 206.73964 208.59539
 210.23515 211.39390 211.63666 211.87841 211.82917 211.54792 211.19468 210.83843
 210.46919 210.19294 210.01469 209.89245 209.83420 210.17896 210.57871 210.98147
 211.78822 212.97998 214.24373 216.04049 217.98224 220.03900 222.14775 224.24450
 226.31826 228.41601 230.52677 232.64652 234.78928 236.97503 239.24479 241.62854
 244.26330 246.52805 248.54381 250.32256 251.75331 252.89007 253.72582 254.05558
 254.10633 253.89409 253.26784 252.22960 250.84935 249.02411 246.94686 244.79362
 242.59837 240.41612 238.24988 236.10263 233.97639 231.85714 229.89690 228.06765
 226.36441 224.85016 223.49392 222.27967 221.17543 220.14918 219.26694 218.42169
 217.67744 216.87120 215.98295 215.36071 214.82446 213.71028 211.12224 210.13135
 210.66283 210.98068 212.15063 214.87889 218.62993 223.39928 229.28722 234.33685
 238.19695 242.35583 246.63414 250.81201 254.68524 258.19366 261.17331 263.72467
 266.11597 268.38824 270.59113 272.71085 274.61987 276.28583 277.96558 279.77917
 281.60153 283.30548 284.85071 286.24500 287.45425 288.40704 289.00150 289.04160
 289.02353 289.00742 288.99335 288.97540
 366.78100 356.34341 345.78383 334.65824 323.06966 311.27207 299.15049 286.96190
 274.68232 262.58773 250.60515 239.91456 230.04498 221.15739 213.34781 206.35822
 200.20063 195.14705 191.73746 189.78788 188.83329 188.90571 189.74912 191.06554
 192.79895 194.90237 197.17378 199.54120 201.99461 204.48303 206.57944 208.42985
 210.06427 211.21768 211.45510 211.69151 211.63693 211.35034 210.99176 210.63017
 210.25559 209.97400 209.79042 209.66283 209.59925 209.93866 210.33307 210.73049
 211.53190 212.71832 213.97673 215.76815 217.70456 219.75598 221.85939 223.95081
 226.01922 228.11164 230.21705 232.33147 234.46888 236.64929 238.91371 241.29212
 243.92154 246.18095 248.19137 249.96478 251.39020 252.52161 253.35203 253.67644
 253.72186 253.50427 252.87269 251.82910 250.44351 248.61293 246.53034 244.37176
 242.17117 239.98359 237.81200 235.65942 233.52783 231.40325 229.43766 227.60308
 225.89449 224.37491 223.01332 221.79373 220.68415 219.65256 218.76498 217.91439
 217.16481 216.35322 215.45964 214.83205 214.29047 213.46863 211.51440 210.39211
 210.55231 210.91980 212.25162 214.87502 218.60054 223.34474 229.28539 234.25565
 238.14389 242.32503 246.61227 250.77991 254.68031 258.19705 261.20163 263.77963
 266.14749 268.46213 270.73816 272.90381 274.80600 276.51114 278.10852 279.77829
 281.44067 282.82047 284.27762 285.76703 287.05597 288.19635 289.23679 290.17932
 291.02707 291.78198 292.44144 293.28186
 366.78100 356.34036 345.77771 334.64907 323.05743 311.25679 299.13214 286.94050
 274.65786 262.56022 250.57457 239.88093 230.00829 221.11765 213.30500 206.31236
 200.15172 195.09508 191.68243 189.72979 188.77215 188.84151 189.68186 190.99522
 192.72558 194.82594 197.09429 199.45865 201.90901 204.39436 206.48772 208.33508
 209.96644 211.11679 211.35115 211.58451 211.52687 211.23722 210.87558 210.51094
 210.13330 209.84865 209.66201 209.53137 209.46473 209.80108 210.19244 210.58680
 211.38516 212.56851 213.82387 215.61223 217.54559 219.59394 221.69430 223.78266
 225.84802 227.93737 230.03973 232.15109 234.28544 236.46280 238.72416 241.09952
 243.72587 245.98223 247.98959 249.75995 251.18230 252.31066 253.13802 253.45938
 253.50173 253.28109 252.64645 251.59981 250.21116 248.37752 246.29188 244.13024
 241.92659 239.73595 237.56131 235.40567 233.27102 231.14338 229.17474 227.33709
 225.62545 224.10281 222.73817 221.51552 220.40288 219.36824 218.47760 217.62395
 216.87131 216.05667 215.16003 214.52938 213.98474 213.33742 211.69472 210.50607
 210.45613 210.79251 212.14284 214.96095 218.68137 223.30566 229.26225 234.27399
 238.19275 242.41530 246.70918 250.90314 254.86183 258.47272 261.52399 264.12057
 266.49405 268.73676 270.92194 272.94012 274.73712 276.27548 277.85236 279.52917
 281.15652 283.31628 285.22546 286.90189 288.35266 289.63623 290.80731 291.86823
 292.82239 293.67206 294.41434 295.36029
 366.78100 356.34352 345.78404 334.65856 323.07008 311.27260 299.15112 286.96264
 274.68316 262.58868 250.60620 239.91572 230.04624 221.15876 213.34928 206.35980
 200.20232 195.14884 191.73936 189.78988 188.83541 188.90793 189.75145 191.06797
 192.80149 194.90501 197.17653 199.54405 201.99757 204.48609 206.58261 208.43313
 210.06765 211.22117 211.45869 211.69521 211.64073 211.35425 210.99577 210.63429
 210.25981 209.97833 209.79485 209.66737 209.60389 209.94341 210.33793 210.73545
 211.53697 212.72349 213.98201 215.77353 217.71005 219.76157 221.86509 223.95661
 226.02513 228.11765 230.22317 232.33769 234.47522 236.65574 238.92026 241.29878
 243.92830 246.18782 248.19834 249.97186 251.39738 252.52890 253.35942 253.68394
 253.72946 253.51198 252.88050 251.83702 250.45154 248.62106 246.53858 244.38010
 242.17962 239.99214 237.82066 235.66818 233.53670 231.41222 229.44674 227.61226
 225.90378 224.38430 223.02282 221.80334 220.69386 219.66238 218.77490 217.92442
 217.17494 216.36346 215.46998 214.84251 214.30103 213.49110 211.55783 210.53621
 210.63324 210.96803 212.29755 214.94759 218.55855 223.19223 229.17972 234.19154
 238.11203 242.33856 246.65175 250.87625 254.87338 258.51886 261.57816 264.18118
 266.63229 268.93585 271.12009 273.20767 275.07474 276.71637 278.18387 279.51489
 281.35718 283.51163 285.49695 287.24023 288.74887 290.08362 291.30139 292.40460
 293.39682 294.28040 295.05228 296.03595
 366.78100 356.34952 345.79604 334.67656 323.09408 311.30260 299.18712 287.00464
 274.73116 262.64267 250.66619 239.98171 230.11823 221.23675 213.43327 206.44979
 200.29831 195.25083 191.84735 189.90387 188.95539 189.03391 189.88343 191.20595
 192.94547 195.05498 197.33250 199.70602 202.16554 204.66006 206.76258 208.61910
 210.25962 211.41914 211.66266 211.90518 211.85670 211.57622 211.22374 210.86826
 210.49978 210.22430 210.04681 209.92533 209.86785 210.21337 210.61389 211.01741
 211.82493 213.01745 214.28197 216.07949 218.02201 220.07953 222.18905 224.28657
 226.36109 228.45961 230.57113 232.69164 234.83516 237.02168 239.29220 241.67672
 244.31224 246.57776 248.59428 250.37380 251.80532 252.94284 253.77936 254.10988
 254.16140 253.94992 253.32444 252.28695 250.90747 249.08299 247.00651 244.85403
 242.65955 240.47807 238.31259 236.16611 234.04063 231.92215 229.96267 228.13419
 226.43171 224.91823 223.56275 222.34927 221.24578 220.22030 219.33882 218.49434
 217.75086 216.94538 216.05790 215.43642 214.90094 213.80264 211.30745 210.44431
 210.88605 211.40947 212.61615 214.94475 218.43683 223.15141 229.01660 234.00856
 237.91089 242.11139 246.39502 250.57616 254.50133 258.04556 261.09595 263.80533
 266.37360 268.79309 271.10663 273.32297 275.33298 277.06583 278.54196 279.90256
 281.45697 283.23901 285.08038 286.90744 288.48859 289.88751 291.16382 292.32004
 293.35995 294.28601 295.09497 296.12592
 366.78100 356.35260 345.80220 334.68579 323.10639 311.31799 299.20559 287.02619
 274.75579 262.67038 250.69698 240.01558 230.15518 221.27678 213.47638 206.49597
 200.34757 195.30317 191.90277 189.96237 189.01697 189.09856 189.95116 191.27676
 193.01936 195.13196 197.41256 199.78915 202.25175 204.74935 206.85495 208.71455
 210.35815 211.52074 211.76734 212.01294 211.96754 211.69014 211.34074 210.98833
 210.62293 210.35053 210.17613 210.05773 210.00333 210.35192 210.75552 211.16212
 211.97272 213.16832 214.43592 216.23651 218.18211 220.24271 222.35531 224.45591
 226.53351 228.63510 230.74970 232.87330 235.01990 237.20950 239.48310 241.87069
 244.50929 246.77789 248.79749 250.58009 252.01469 253.15528 253.99488 254.32848
 254.38308 254.17468 253.55228 252.51787 251.14147 249.32007 247.24667 245.09727
 242.90587 240.72746 238.56506 236.42166 234.29926 232.18386 230.22746 228.40205
 226.70265 225.19225 223.83985 222.62945 221.52905 220.50664 219.62824 218.78684
 218.04644 217.24404 216.35964 215.74123 215.20883 213.98540 211.21289 210.36761
 210.93585 211.61063 212.77541 215.04999 218.50674 223.14558 228.92928 233.92548
 237.80733 241.98727 246.24504 250.39519 254.27188 257.75262 260.72861 263.38458
 265.99576 268.53168 270.89508 273.15103 275.23077 277.04556 278.63101 280.09033
 281.56140 283.19830 284.76923 286.22510 287.63614 288.88455 290.02353 291.05536
 291.98340 292.80981 293.53174 294.45178
 366.78100 356.35258 345.80217 334.68575 323.10634 311.31792 299.20550 287.02609
 274.75567 262.67026 250.69684 240.01543 230.15501 221.27659 213.47618 206.49576
 200.34735 195.30293 191.90251 189.96210 189.01668 189.09827 189.95085 191.27643
 193.01902 195.13160 197.41219 199.78877 202.25136 204.74894 206.85452 208.71411
 210.35769 211.52028 211.76686 212.01244 211.96703 211.68961 211.34020 210.98778
 210.62237 210.34995 210.17553 210.05712 210.00270 210.35129 210.75487 211.16145
 211.97204 213.16762 214.43521 216.23579 218.18137 220.24196 222.35454 224.45513
 226.53271 228.63430 230.74888 232.87246 235.01905 237.20863 239.48222 241.86980
 244.50838 246.77697 248.79655 250.57914 252.01372 253.15430 253.99389 254.32747
 254.38206 254.17364 253.55123 252.51681 251.14039 249.31898 247.24556 245.09615
 242.90473 240.72631 238.56390 236.42048 234.29807 232.18265 230.22623 228.40082
 226.70140 225.19099 223.83857 222.62816 221.52774 220.50532 219.62691 218.78549
 218.04508 217.24266 216.35824 215.73983 215.20741 214.01128 211.29123 210.39835
 210.90207 211.54642 212.82526 215.10223 218.49677 223.10548 228.92732 233.89554
 237.78731 241.97267 246.23978 250.41049 254.32265 257.81625 260.74908 263.32196
 265.90753 268.52377 270.83380 272.95621 274.95425 276.75165 278.38293 279.93060
 281.44809 283.10004 284.65378 286.07208 287.38690 288.55020 289.61151 290.57300
 291.43774 292.20779 292.88052 293.73779
 366.78100 356.34997 345.79695 334.67792 323.09590 311.30487 299.18985 287.00782
 274.73479 262.64677 250.67074 239.98672 230.12369 221.24267 213.43964 206.45661
 200.30559 195.25856 191.85554 189.91251 188.96449 189.04346 189.89343 191.21641
 192.95638 195.06636 197.34433 199.71831 202.17828 204.67325 206.77623 208.63320
 210.27418 211.43415 211.67812 211.92110 211.87307 211.59305 211.24102 210.88600
 210.51797 210.24294 210.06592 209.94489 209.88787 210.23384 210.63482 211.03879
 211.84676 213.03974 214.30471 216.10269 218.04566 220.10364 222.21361 224.31158
 226.38656 228.48553 230.59751 232.71848 234.86246 237.04943 239.32040 241.70538
 244.34135 246.60733 248.62430 250.40428 251.83625 252.97422 253.81120 254.14217
 254.19415 253.98312 253.35810 252.32107 250.94204 249.11802 247.04199 244.88997
 242.69594 240.51492 238.34989 236.20386 234.07884 231.96081 230.00179 228.17376
 226.47174 224.95871 223.60368 222.39066 221.28763 220.26261 219.38158 218.53756
 217.79453 216.98950 216.10248 215.48145 214.94643 213.91385 211.50891 210.38313
 210.79195 211.46742 212.86299 215.19681 218.52179 223.08727 228.93161 233.88492
 237.79411 242.00430 246.29214 250.49557 254.46771 258.02039 260.95221 263.50180
 266.11154 268.61792 270.86935 272.98712 274.88895 276.60422 278.16827 279.73169
 281.29993 282.95877 284.55725 286.12610 287.49924 288.71414 289.82254 290.82666
 291.72977 292.53400 293.23654 294.13187
 366.78100 356.34558 345.78816 334.66474 323.07832 311.28290 299.16348 286.97706
 274.69964 262.60722 250.62680 239.93838 230.07096 221.18554 213.37812 206.39071
 200.23529 195.18387 191.77645 189.82903 188.87661 188.95119 189.79677 191.11535
 192.85093 194.95651 197.23009 199.59967 202.05525 204.54583 206.64441 208.49699
 210.13357 211.28915 211.52873 211.76731 211.71489 211.43047 211.07405 210.71463
 210.34221 210.06279 209.88137 209.75595 209.69454 210.03612 210.43270 210.83228
 211.63586 212.82444 214.08502 215.87860 217.81718 219.87076 221.97634 224.06992
 226.14050 228.23508 230.34266 232.45924 234.59882 236.78140 239.04798 241.42856
 244.06014 246.32172 248.33430 250.10988 251.53746 252.67104 253.50362 253.83020
 253.87778 253.66237 253.03295 251.99153 250.60811 248.77969 246.69927 244.54285
 242.34443 240.15901 237.98959 235.83917 233.70975 231.58733 229.62391 227.79149
 226.08507 224.56765 223.20823 221.99081 220.88339 219.85397 218.96855 218.12013
 217.37271 216.56329 215.67187 215.04645 214.50703 213.71854 211.79918 210.47250
 210.62477 211.40025 212.89481 215.13858 218.33945 222.96684 228.90186 233.87436
 237.79918 242.03030 246.33562 250.56573 254.59142 258.21198 261.15164 263.66272
 266.20761 268.66376 270.88135 273.01477 274.94955 276.62433 278.10574 279.62323
 281.11365 282.82120 284.54236 286.16318 287.56586 288.80685 289.93909 290.96478
 291.88733 292.70883 293.42648 294.34103
 366.78100 356.34423 345.78546 334.66069 323.07292 311.27615 299.15538 286.96761
 274.68884 262.59507 250.61330 239.92353 230.05476 221.16799 213.35922 206.37045
 200.21368 195.16091 191.75214 189.80337 188.84960 188.92283 189.76706 191.08429
 192.81851 194.92274 197.19497 199.56320 202.01743 204.50666 206.60389 208.45512
 210.09035 211.24458 211.48281 211.72004 211.66627 211.38050 211.02273 210.66196
 210.28819 210.00742 209.82465 209.69788 209.63511 209.97534 210.37057 210.76880
 211.57103 212.75826 214.01749 215.80972 217.74695 219.79918 221.90341 223.99564
 226.06487 228.15810 230.26433 232.37956 234.51779 236.69902 238.96425 241.34348
 243.97371 246.23394 248.24517 250.01940 251.44563 252.57786 253.40909 253.73431
 253.78054 253.56377 252.93300 251.89023 250.50546 248.67569 246.59392 244.43615
 242.23638 240.04961 237.87884 235.72707 233.59630 231.47253 229.50776 227.67399
 225.96622 224.44745 223.08668 221.86791 220.75914 219.72837 218.84160 217.99183
 217.24306 216.43229 215.53952 214.91275 214.37198 213.65569 211.92149 210.72253
 210.69598 211.42259 212.76649 214.83911 218.07076 222.78722 228.79109 233.81093
 237.74562 241.98833 246.29979 250.54379 254.59549 258.23785 261.18085 263.70752
 266.24265 268.64182 270.87045 273.00259 274.96078 276.66489 278.11685 279.54602
 281.24286 283.08704 284.98032 286.64276 288.08148 289.35437 290.51569 291.56775
 292.51398 293.35660 294.09268 295.03076
 366.78100 356.34768 345.79236 334.67104 323.08672 311.29340 299.17608 286.99176
 274.71644 262.62612 250.64780 239.96148 230.09616 221.21284 213.40752 206.42220
 200.26888 195.21956 191.81424 189.86892 188.91860 188.99528 189.84296 191.16364
 192.90132 195.00900 197.28468 199.65636 202.11404 204.60672 206.70740 208.56208
 210.20076 211.35844 211.60012 211.84080 211.79048 211.50816 211.15384 210.79652
 210.42620 210.14888 209.96956 209.84624 209.78692 210.13060 210.52928 210.93096
 211.73665 212.92733 214.19001 215.98569 217.92637 219.98205 222.08973 224.18541
 226.25809 228.35477 230.46445 232.58313 234.72481 236.90949 239.17817 241.56085
 244.19453 246.45821 248.47289 250.25057 251.68025 252.81593 253.65061 253.97929
 254.02897 253.81565 253.18833 252.14901 250.76769 248.94137 246.86305 244.70873
 242.51241 240.32909 238.16177 236.01345 233.88613 231.76581 229.80449 227.97417
 226.26985 224.75453 223.39721 222.18189 221.07657 220.04925 219.16593 218.31961
 217.57429 216.76697 215.87765 215.25433 214.71701 213.83524 211.80057 210.84984
 211.00349 211.68597 212.83286 214.69911 217.95038 222.64043 228.62444 233.65746
 237.57492 241.80820 246.11613 250.37323 254.44002 258.05090 260.99750 263.59042
 266.20490 268.65997 270.93771 273.07373 275.11423 276.82544 278.19141 279.62784
 281.55392 283.54327 285.40912 287.04745 288.46530 289.71973 290.86423 291.90103
 292.83353 293.66394 294.38934 295.31381
 366.78100 356.34932 345.79564 334.67596 323.09329 311.30161 299.18593 287.00325
 274.72957 262.64089 250.66422 239.97954 230.11586 221.23418 213.43050 206.44682
 200.29515 195.24747 191.84379 189.90011 188.95143 189.02975 189.87908 191.20140
 192.94072 195.05004 197.32736 199.70068 202.16001 204.65433 206.75665 208.61297
 210.25329 211.41261 211.65594 211.89826 211.84958 211.56890 211.21622 210.86054
 210.49187 210.21619 210.03851 209.91683 209.85915 210.20447 210.60480 211.00812
 211.81544 213.00776 214.27208 216.06940 218.01173 220.06905 222.17837 224.27569
 226.35001 228.44833 230.55966 232.67998 234.82330 237.00962 239.27994 241.66426
 244.29959 246.56491 248.58123 250.36055 251.79187 252.92919 253.76552 254.09584
 254.14716 253.93548 253.30980 252.27212 250.89245 249.06777 246.99109 244.83841
 242.64373 240.46205 238.29637 236.14970 234.02402 231.90534 229.94566 228.11698
 226.41430 224.90063 223.54495 222.33127 221.22759 220.20191 219.32023 218.47556
 217.73188 216.92620 216.03852 215.41684 214.88116 213.94391 211.77110 210.76747
 211.08675 211.91713 213.08905 214.81456 217.93483 222.62761 228.52312 233.53755
 237.41965 241.63026 245.92612 250.18091 254.22498 257.78073 260.73795 263.37869
 266.03909 268.51016 270.88678 273.14801 275.24481 277.01413 278.40210 279.81818
 281.91306 283.84177 285.71057 287.35150 288.77161 290.02802 291.17429 292.21274
 293.14673 293.97845 294.70502 295.63092
 366.78100 356.34754 345.79208 334.67061 323.08615 311.29269 299.17523 286.99077
 274.71530 262.62484 250.64638 239.95992 230.09445 221.21099 213.40553 206.42007
 200.26661 195.21714 191.81168 189.86622 188.91576 188.99230 189.83983 191.16037
 192.89791 195.00545 197.28099 199.65252 202.11006 204.60260 206.70314 208.55767
 210.19621 211.35375 211.59529 211.83583 211.78536 211.50290 211.14844 210.79098
 210.42052 210.14305 209.96359 209.84013 209.78067 210.12421 210.52274 210.92428
 211.72982 212.92036 214.18289 215.97843 217.91897 219.97451 222.08205 224.17758
 226.25012 228.34666 230.45620 232.57474 234.71627 236.90081 239.16935 241.55189
 244.18543 246.44896 248.46350 250.24104 251.67058 252.80611 253.64065 253.96919
 254.01873 253.80527 253.17780 252.13834 250.75688 248.93042 246.85196 244.69749
 242.50103 240.31757 238.15011 236.00165 233.87418 231.75372 229.79226 227.96180
 226.25733 224.74187 223.38441 222.16895 221.06349 220.03602 219.15256 218.30610
 217.56064 216.75318 215.86371 215.24025 214.70279 213.87805 211.91521 210.76276
 210.91869 211.78227 213.16016 215.01570 218.03242 222.67274 228.56543 233.54703
 237.43338 241.64317 245.92784 250.17331 254.22348 257.76807 260.67828 263.23538
 265.76807 268.54739 270.84332 272.99881 274.99719 276.79031 278.28510 279.89664
 281.98642 283.82736 285.55084 287.07739 288.39847 289.56729 290.63370 291.59976
 292.46863 293.24237 293.91827 294.77966
 366.78100 356.34454 345.78609 334.66163 323.07417 311.27772 299.15726 286.96980
 274.69135 262.59789 250.61644 239.92698 230.05852 221.17207 213.36361 206.37515
 200.21870 195.16624 191.75778 189.80933 188.85587 188.92941 189.77396 191.09150
 192.82604 194.93059 197.20313 199.57167 202.02622 204.51576 206.61331 208.46485
 210.10039 211.25494 211.49348 211.73102 211.67757 211.39211 211.03465 210.67420
 210.30074 210.02028 209.83783 209.71137 209.64891 209.98946 210.38500 210.78354
 211.58609 212.77363 214.03318 215.82572 217.76326 219.81581 221.92035 224.01289
 226.08244 228.17598 230.28252 232.39807 234.53661 236.71815 238.98370 241.36324
 243.99378 246.25433 248.26587 250.04042 251.46696 252.59950 253.43105 253.75659
 253.80313 253.58668 252.95622 251.91376 250.52931 248.69985 246.61839 244.46094
 242.26148 240.07502 237.90457 235.75311 233.62265 231.49920 229.53474 227.70129
 225.99383 224.47537 223.11492 221.89646 220.78800 219.75755 218.87109 218.02163
 217.27318 216.46272 215.57026 214.94381 214.40335 213.75682 212.12555 210.87161
 210.77504 211.52307 213.07661 215.16916 218.21216 222.64632 228.59563 233.57285
 237.47876 241.70930 246.00941 250.27838 254.37360 257.98224 260.88177 263.27808
 265.81006 268.43472 270.76953 272.90952 274.84067 276.54092 278.02609 279.77142
 281.79721 283.85110 285.66760 287.26260 288.64297 289.86423 290.97842 291.98782
 292.89566 293.70410 294.41034 295.31036
 366.78100 356.34271 345.78243 334.65614 323.06685 311.26856 299.14628 286.95699
 274.67670 262.58141 250.59813 239.90684 230.03655 221.14827 213.33798 206.34769
 200.18940 195.13512 191.72483 189.77454 188.81926 188.89097 189.73368 191.04939
 192.78211 194.88482 197.15553 199.52224 201.97496 204.46267 206.55838 208.40810
 210.04181 211.19452 211.43123 211.66695 211.61166 211.32437 210.96508 210.60280
 210.22751 209.94522 209.76094 209.63265 209.56836 209.90707 210.30079 210.69750
 211.49821 212.68393 213.94164 215.73235 217.66806 219.71878 221.82149 223.91220
 225.97991 228.07163 230.17634 232.29005 234.42677 236.60648 238.87019 241.24790
 243.87662 246.13533 248.14504 249.91775 251.34247 252.47318 253.30289 253.62661
 253.67132 253.45303 252.82074 251.77646 250.39017 248.55888 246.47560 244.31631
 242.11502 239.92673 237.75445 235.60116 233.46887 231.34358 229.37730 227.54201
 225.83272 224.31244 222.95015 221.72986 220.61957 219.58729 218.69900 217.84771
 217.09742 216.28514 215.39085 214.76256 214.22028 213.69347 212.28745 211.03856
 210.72890 211.34297 212.90114 215.09729 218.23080 222.64882 228.54820 233.53181
 237.45233 241.72075 246.05135 250.36610 254.50851 258.16019 261.10431 263.54089
 266.02429 268.47821 270.74469 272.82901 274.80164 276.45291 278.00284 279.84183
 282.15350 284.22162 286.01123 287.58267 288.94257 290.14575 291.24350 292.23795
 293.13235 293.92883 294.62460 295.51132
 366.78100 356.34770 345.79240 334.67110 323.08680 311.29350 299.17620 286.99190
 274.71660 262.62630 250.64801 239.96171 230.09641 221.21311 213.40781 206.42251
 200.26921 195.21991 191.81461 189.86931 188.91901 188.99571 189.84341 191.16411
 192.90181 195.00951 197.28521 199.65691 202.11462 204.60732 206.70802 208.56272
 210.20142 211.35912 211.60082 211.84152 211.79122 211.50892 211.15462 210.79732
 210.42702 210.14972 209.97042 209.84712 209.78782 210.13152 210.53023 210.93193
 211.73763 212.92833 214.19103 215.98673 217.92743 219.98313 222.09083 224.18653
 226.25923 228.35593 230.46563 232.58433 234.72603 236.91073 239.17943 241.56213
 244.19584 246.45954 248.47424 250.25194 251.68164 252.81734 253.65204 253.98074
 254.03044 253.81714 253.18984 252.15054 250.76924 248.94294 246.86464 244.71034
 242.51404 240.33074 238.16345 236.01515 233.88785 231.76755 229.80625 227.97595
 226.27165 224.75635 223.39905 222.18375 221.07845 220.05115 219.16785 218.32155
 217.57625 216.76895 215.87965 215.25635 214.71906 213.94318 212.13528 211.22440
 211.04767 211.49529 212.78049 214.85132 218.03891 222.49879 228.34882 233.32138
 237.24629 241.52771 245.86639 250.22639 254.47154 258.20160 261.18002 263.69202
 266.23370 268.73618 271.00894 273.18790 275.21371 276.80261 278.10220 280.06204
 282.64304 284.85535 286.76971 288.45068 289.90540 291.19247 292.36673 293.43051
 294.38727 295.23929 295.98358 296.93207
 366.78100 356.35206 345.80111 334.68417 323.10423 311.31528 299.20234 287.02240
 274.75145 262.66551 250.69157 240.00962 230.14868 221.26974 213.46879 206.48785
 200.33891 195.29396 191.89302 189.95208 189.00613 189.08719 189.93925 191.26430
 193.00636 195.11842 197.39847 199.77453 202.23659 204.73364 206.83870 208.69776
 210.34081 211.50287 211.74893 211.99398 211.94804 211.67010 211.32015 210.96721
 210.60127 210.32832 210.15338 210.03444 209.97949 210.32755 210.73061 211.13666
 211.94672 213.14177 214.40883 216.20889 218.15394 220.21400 222.32606 224.42611
 226.50317 228.60423 230.71828 232.84134 234.98740 237.17645 239.44951 241.83657
 244.47462 246.74268 248.76174 250.54379 251.97785 253.11791 253.95696 254.29002
 254.34408 254.13513 253.51219 252.47725 251.10030 249.27836 247.20442 245.05447
 242.86253 240.68359 238.52064 236.37670 234.25376 232.13781 230.18087 228.35493
 226.65498 225.14404 223.79110 222.58015 221.47921 220.45627 219.57732 218.73538
 217.99444 217.19149 216.30655 215.68761 215.15466 214.17766 211.94397 211.04236
 211.39148 212.09856 213.07101 214.75240 217.83864 222.39473 228.13084 233.08594
 236.95990 241.19774 245.55374 249.88908 253.97403 257.52625 260.54471 263.29800
 266.05148 268.74655 271.27499 273.56372 275.57874 277.31433 278.81259 280.43408
 282.55276 284.62268 286.52139 288.18857 289.63138 290.90790 292.07251 293.12759
 294.07651 294.92154 295.65973 296.60046
 366.78100 356.34788 345.79275 334.67163 323.08750 311.29438 299.17725 286.99313
 274.71800 262.62788 250.64975 239.96363 230.09851 221.21538 213.41026 206.42513
 200.27201 195.22288 191.81776 189.87263 188.92251 188.99938 189.84726 191.16813
 192.90601 195.01389 197.28976 199.66164 202.11951 204.61239 206.71326 208.56814
 210.20701 211.36489 211.60676 211.84764 211.79752 211.51539 211.16127 210.80414
 210.43402 210.15689 209.97777 209.85464 209.79552 210.13939 210.53827 210.94014
 211.74602 212.93690 214.19977 215.99565 217.93652 219.99240 222.10027 224.19615
 226.26902 228.36590 230.47577 232.59465 234.73653 236.92140 239.19028 241.57315
 244.20703 246.47090 248.48578 250.26365 251.69353 252.82940 253.66428 253.99315
 254.04303 253.82991 253.20278 252.16366 250.78253 248.95641 246.87828 244.72416
 242.52803 240.34491 238.17778 236.02966 233.90254 231.78241 229.82129 227.99116
 226.28704 224.77191 223.41479 222.19966 221.09454 220.06741 219.18429 218.33816
 217.59304 216.78592 215.89679 215.27367 214.73654 213.96335 212.13971 210.94287
 210.75418 211.74666 213.22835 215.12238 218.12871 222.54073 228.21492 233.13217
 237.02498 241.22708 245.53711 249.79599 253.80980 257.32428 260.29593 262.98511
 265.63800 268.26428 270.77859 273.11179 275.21320 277.13251 278.92529 280.62515
 282.23148 283.73447 285.14539 286.46271 287.64343 288.71564 289.74731 290.69556
 291.54840 292.30789 292.97134 293.81683
 366.78100 356.34591 345.78883 334.66574 323.07966 311.28457 299.16548 286.97940
 274.70231 262.61023 250.63014 239.94205 230.07497 221.18988 213.38280 206.39571
 200.24062 195.18954 191.78245 189.83537 188.88328 188.95820 189.80411 191.12302
 192.85894 194.96485 197.23877 199.60868 202.06459 204.55551 206.65442 208.50734
 210.14425 211.30016 211.54008 211.77899 211.72691 211.44282 211.08673 210.72765
 210.35556 210.07648 209.89539 209.77030 209.70922 210.05113 210.44805 210.84796
 211.65187 212.84079 214.10170 215.89562 217.83453 219.88844 221.99436 224.08827
 226.15919 228.25410 230.36202 232.47893 234.61884 236.80176 239.06867 241.44959
 244.08150 246.34341 248.35633 250.13224 251.56016 252.69407 253.52698 253.85390
 253.90181 253.68673 253.05764 252.01655 250.63347 248.80538 246.72530 244.56921
 242.37112 240.18604 238.01695 235.86687 233.73778 231.61569 229.65261 227.82052
 226.11444 224.59735 223.23826 222.02118 220.91409 219.88501 218.99992 218.15184
 217.40475 216.59566 215.70458 215.07949 214.54041 213.83983 212.18462 211.23488
 210.81578 211.56757 213.10530 214.97475 217.95958 222.42166 228.31848 233.09848
 237.08997 241.29517 245.63698 249.90523 254.00369 257.59906 260.55194 263.11612
 265.65869 268.19357 270.62561 272.90100 274.97989 276.88010 278.67572 280.37698
 281.98544 283.43875 284.73816 285.83728 286.74597 287.61661 288.35028 288.93497
 289.37802 289.72098 289.93176 290.28247
 366.78100 356.34557 345.78814 334.66471 323.07828 311.28285 299.16342 286.97699
 274.69956 262.60714 250.62671 239.93828 230.07085 221.18542 213.37799 206.39056
 200.23513 195.18370 191.77627 189.82884 188.87641 188.95098 189.79655 191.11512
 192.85069 194.95626 197.22984 199.59941 202.05498 204.54555 206.64412 208.49669
 210.13326 211.28883 211.52840 211.76697 211.71454 211.43011 211.07368 210.71425
 210.34182 210.06239 209.88096 209.75553 209.69411 210.03568 210.43225 210.83182
 211.63539 212.82396 214.08453 215.87810 217.81667 219.87024 221.97581 224.06938
 226.13995 228.23452 230.34209 232.45866 234.59823 236.78081 239.04738 241.42795
 244.05952 246.32109 248.33366 250.10923 251.53680 252.67037 253.50294 253.82951
 253.87708 253.66165 253.03222 251.99079 250.60736 248.77893 246.69851 244.54208
 242.34365 240.15822 237.98879 235.83836 233.70893 231.58650 229.62307 227.79064
 226.08421 224.56678 223.20735 221.98992 220.88249 219.85306 218.96763 218.11920
 217.37178 216.56235 215.67092 215.04549 214.50606 213.84309 212.27676 211.24799
 210.88885 211.59158 213.02110 214.87515 217.86858 222.36339 228.27654 233.08218
 237.02890 241.27701 245.63283 249.92186 254.05972 257.67056 260.60666 263.13452
 265.65561 268.17542 270.57138 272.81415 274.84824 276.71558 278.49780 280.20975
 281.85114 283.33569 284.65427 285.73257 286.55658 287.37146 288.09436 288.69696
 289.17325 289.55600 289.82953 290.29733
 366.78100 356.34480 345.78661 334.66241 323.07521 311.27902 299.15882 286.97162
 274.69343 262.60023 250.61903 239.92984 230.06164 221.17544 213.36724 206.37905
 200.22285 195.17065 191.76246 189.81426 188.86106 188.93487 189.77967 191.09747
 192.83228 194.93708 197.20988 199.57869 202.03349 204.52329 206.62110 208.47290
 210.10870 211.26351 211.50231 211.74011 211.68692 211.40172 211.04452 210.68433
 210.31113 210.03093 209.84873 209.72254 209.66034 210.00114 210.39695 210.79575
 211.59855 212.78636 214.04616 215.83896 217.77677 219.82957 221.93437 224.02718
 226.09698 228.19078 230.29759 232.41339 234.55219 236.73400 238.99980 241.37960
 244.01041 246.27121 248.28301 250.05782 251.48462 252.61742 253.44922 253.77503
 253.82183 253.60563 252.97544 251.93324 250.54904 248.71985 246.63865 244.48145
 242.28226 240.09606 237.92586 235.77467 233.64447 231.52127 229.55708 227.72388
 226.01668 224.49849 223.13829 221.92009 220.81190 219.78170 218.89550 218.04631
 217.29811 216.48791 215.59571 214.96952 214.42932 213.84044 212.44659 211.19965
 210.94415 211.55675 212.90298 214.88281 217.93030 222.40494 228.23650 233.07176
 236.97449 241.24997 245.60521 249.90167 254.04402 257.64175 260.57092 263.10638
 265.64172 268.14703 270.51443 272.73398 274.75464 276.60495 278.38242 280.11707
 281.76907 283.25134 284.51819 285.45209 286.24762 287.13229 287.89212 288.48221
 289.01526 289.48996 289.95706 290.55231
 366.78100 356.34273 345.78247 334.65620 323.06694 311.26867 299.14641 286.95714
 274.67688 262.58161 250.59835 239.90708 230.03682 221.14855 213.33829 206.34802
 200.18976 195.13549 191.72523 189.77496 188.81969 188.89143 189.73416 191.04990
 192.78263 194.88537 197.15610 199.52284 201.97557 204.46331 206.55904 208.40878
 210.04251 211.19525 211.43198 211.66772 211.61245 211.32519 210.96592 210.60365
 210.22839 209.94612 209.76186 209.63359 209.56933 209.90806 210.30180 210.69853
 211.49927 212.68500 213.94274 215.73347 217.66921 219.71994 221.82268 223.91341
 225.98114 228.07288 230.17761 232.29135 234.42808 236.60782 238.87155 241.24929
 243.87802 246.13676 248.14649 249.91923 251.34396 252.47470 253.30443 253.62817
 253.67290 253.45464 252.82237 251.77810 250.39184 248.56057 246.47731 244.31804
 242.11678 239.92851 237.75625 235.60298 233.47072 231.34545 229.37919 227.54392
 225.83466 224.31439 222.95213 221.73186 220.62160 219.58933 218.70106 217.84980
 217.09953 216.28727 215.39300 214.76474 214.22247 213.77345 212.68600 211.31700
 210.84302 211.22020 212.82666 215.00664 218.07869 222.48328 228.19183 233.04655
 236.91016 241.18796 245.54414 249.86188 253.99365 257.57416 260.49039 263.06775
 265.65359 268.20926 270.59830 272.77856 274.71863 276.48959 278.20029 279.90695
 281.57166 283.06934 284.26407 285.21753 286.09741 286.91476 287.66443 288.32648
 289.09372 289.77698 290.37384 291.13446
 366.78100 356.34007 345.77713 334.64820 323.05626 311.25533 299.13039 286.93846
 274.65552 262.55759 250.57165 239.87772 230.00478 221.11385 213.30091 206.30798
 200.14704 195.09011 191.67717 189.72424 188.76630 188.83537 189.67543 190.98850
 192.71856 194.81863 197.08670 199.45076 201.90083 204.38589 206.47896 208.32602
 209.95709 211.10715 211.34122 211.57428 211.51635 211.22641 210.86448 210.49954
 210.12161 209.83667 209.64974 209.51880 209.45187 209.78793 210.17900 210.57306
 211.37113 212.55420 213.80926 215.59733 217.53039 219.57846 221.67852 223.76659
 225.83165 227.92072 230.02278 232.13385 234.26791 236.44498 238.70604 241.08111
 243.70717 245.96324 247.97030 249.74037 251.16243 252.29050 253.11756 253.43863
 253.48069 253.25976 252.62483 251.57789 250.18896 248.35502 246.26909 244.10715
 241.90322 239.71228 237.53735 235.38141 233.24648 231.11854 229.14961 227.31167
 225.59974 224.07680 222.71187 221.48893 220.37600 219.34106 218.45013 217.59619
 216.84326 216.02833 215.13139 214.50046 213.95552 213.67899 212.92245 211.54221
 210.67336 211.07666 212.85933 215.11147 218.21387 222.54549 228.17117 232.98299
 236.86183 241.13715 245.49483 249.85022 254.03651 257.64746 260.56146 263.12543
 265.69232 268.25089 270.66617 272.86926 274.79001 276.50348 278.13998 279.75729
 281.35239 282.71957 283.88065 285.13281 286.45645 287.67432 288.78543 289.79202
 290.69736 291.50354 292.20779 293.10532
 366.78100 356.34394 345.78489 334.65983 323.07177 311.27472 299.15366 286.96561
 274.68655 262.59249 250.61044 239.92038 230.05132 221.16427 213.35521 206.36616
 200.20910 195.15604 191.74699 189.79793 188.84387 188.91682 189.76076 191.07770
 192.81165 194.91559 197.18754 199.55548 202.00942 204.49837 206.59531 208.44625
 210.08120 211.23514 211.47309 211.71003 211.65597 211.36992 211.01186 210.65080
 210.27675 209.99569 209.81263 209.68558 209.62252 209.96247 210.35741 210.75535
 211.55730 212.74424 214.00318 215.79513 217.73207 219.78402 221.88796 223.97990
 226.04885 228.14179 230.24773 232.36268 234.50062 236.68156 238.94651 241.32545
 243.95540 246.21534 248.22628 250.00023 251.42617 252.55811 253.38906 253.71400
 253.75995 253.54289 252.91183 251.86878 250.48372 248.65366 246.57161 244.41355
 242.21349 240.02644 237.85538 235.70333 233.57227 231.44821 229.48316 227.64910
 225.94104 224.42199 223.06093 221.84188 220.73282 219.70176 218.81471 217.96465
 217.21559 216.40454 215.51148 214.88442 214.34337 213.89751 212.79942 211.73112
 210.89278 211.23759 212.70726 214.80412 217.96458 222.41223 228.09392 232.91646
 236.81102 241.10246 245.50291 249.88477 254.06430 257.73114 260.76477 263.40088
 265.97940 268.52289 270.91977 273.07169 274.97113 276.60568 278.13873 279.70389
 281.16422 282.96402 284.90143 286.63098 288.12775 289.45200 290.66019 291.75473
 292.73914 293.61575 294.38156 295.35748
 366.78100 356.35256 345.80211 334.68567 323.10622 311.31778 299.20533 287.02589
 274.75544 262.67000 250.69655 240.01511 230.15466 221.27622 213.47577 206.49533
 200.34688 195.30244 191.90200 189.96155 189.01611 189.09766 189.95022 191.27577
 193.01833 195.13088 197.41144 199.78799 202.25055 204.74810 206.85366 208.71321
 210.35677 211.51932 211.76588 212.01144 211.96599 211.68855 211.33910 210.98666
 210.62121 210.34877 210.17432 210.05588 210.00143 210.34999 210.75354 211.16010
 211.97065 213.16621 214.43376 216.23432 218.17987 220.24043 222.35299 224.45354
 226.53110 228.63265 230.74721 232.87076 235.01732 237.20687 239.48043 241.86798
 244.50654 246.77509 248.79465 250.57720 252.01176 253.15231 253.99187 254.32543
 254.37998 254.17154 253.54909 252.51465 251.13820 249.31676 247.24331 245.09387
 242.90242 240.72398 238.56153 236.41809 234.29564 232.18020 230.22375 228.39831
 226.69887 225.18842 223.83598 222.62553 221.52509 220.50264 219.62420 218.78275
 218.04231 217.23986 216.35542 215.73697 215.20453 214.34222 212.41269 211.74413
 211.48187 211.52979 212.56442 214.54985 217.75470 222.27408 227.79803 232.73550
 236.64050 240.95676 245.38353 249.78514 253.98152 257.66650 260.74579 263.47440
 266.15936 268.80759 271.28235 273.52380 275.49451 277.14514 278.63129 280.11462
 281.57144 283.34604 285.15662 286.91022 288.42780 289.77048 290.99545 292.10522
 293.10330 293.99213 294.76859 295.75809
 366.78100 356.35532 345.80763 334.69395 323.11726 311.33158 299.22189 287.04521
 274.77753 262.69484 250.72416 240.04547 230.18779 221.31210 213.51442 206.53674
 200.39105 195.34937 191.95168 190.01400 189.07132 189.15563 190.01095 191.33926
 193.08458 195.19989 197.48321 199.86253 202.32784 204.82816 206.93647 208.79879
 210.44510 211.61042 211.85974 212.10805 212.06537 211.79068 211.44400 211.09431
 210.73163 210.46195 210.29026 210.17458 210.12289 210.47421 210.88052 211.28984
 212.10316 213.30147 214.57179 216.37510 218.32342 220.38674 222.50205 224.60537
 226.68568 228.79000 230.90731 233.03363 235.18295 237.37526 239.65158 242.04189
 244.68321 246.95452 248.97684 250.76216 252.19947 253.34279 254.18510 254.52142
 254.57873 254.37305 253.75337 252.72168 251.34800 249.52931 247.45863 245.31194
 243.12326 240.94758 238.78789 236.64721 234.52752 232.41484 230.46115 228.63847
 226.94179 225.43410 224.08442 222.87673 221.77905 220.75937 219.88368 219.04500
 218.30731 217.50763 216.62594 216.01026 215.48058 214.51920 212.30457 211.42967
 211.78082 212.03630 212.84630 214.60652 217.67551 222.08371 227.53856 232.50038
 236.39592 240.70978 245.12793 249.49815 253.61568 257.19812 260.24734 263.07895
 265.89209 268.65067 271.22910 273.56183 275.62494 277.41888 279.07800 280.66504
 282.13803 283.55234 285.06390 286.47723 287.79974 288.99377 290.08316 291.07010
 291.95770 292.74814 293.43863 294.31860
 366.78100 356.34887 345.79474 334.67461 323.09148 311.29935 299.18322 287.00009
 274.72596 262.63683 250.65970 239.97457 230.11045 221.22832 213.42419 206.44006
 200.28793 195.23980 191.83567 189.89154 188.94241 189.02028 189.86915 191.19102
 192.92989 195.03876 197.31563 199.68850 202.14737 204.64124 206.74311 208.59898
 210.23885 211.39772 211.64060 211.88247 211.83334 211.55221 211.19908 210.84295
 210.47382 210.19769 210.01956 209.89743 209.83930 210.18417 210.58404 210.98691
 211.79378 212.98565 214.24952 216.04639 217.98826 220.04513 222.15400 224.25087
 226.32474 228.42262 230.53349 232.65336 234.79623 236.98210 239.25197 241.63584
 244.27071 246.53558 248.55145 250.33032 251.76119 252.89806 253.73393 254.06380
 254.11467 253.90254 253.27641 252.23828 250.85815 249.03302 246.95589 244.80277
 242.60764 240.42551 238.25938 236.11225 233.98612 231.86699 229.90686 228.07773
 226.37460 224.86047 223.50434 222.29021 221.18608 220.15995 219.27782 218.43269
 217.68856 216.88243 215.99430 215.37217 214.83604 214.20970 212.70081 211.21315
 211.21686 212.09843 213.23280 214.90913 217.76996 222.04211 227.53874 232.36110
 236.32356 240.60042 245.00650 249.31651 253.33392 256.87781 259.97678 262.87387
 265.73212 268.50043 271.07254 273.40390 275.46625 277.32162 279.07617 280.77881
 282.36859 283.78696 285.07837 286.32388 287.47952 288.52225 289.50391 290.43097
 291.26474 292.00720 292.65582 293.48239
 366.78100 356.34629 345.78958 334.66686 323.08115 311.28644 299.16773 286.98202
 274.70530 262.61359 250.63388 239.94617 230.07945 221.19474 213.38803 206.40132
 200.24661 195.19589 191.78918 189.84247 188.89076 188.96605 189.81233 191.13162
 192.86791 194.97420 197.24849 199.61877 202.07506 204.56635 206.66564 208.51892
 210.15621 211.31250 211.55279 211.79208 211.74036 211.45665 211.10094 210.74223
 210.37052 210.09180 209.91109 209.78638 209.72567 210.06796 210.46524 210.86553
 211.66982 212.85911 214.12039 215.91468 217.85397 219.90826 222.01455 224.10883
 226.18012 228.27541 230.38370 232.50099 234.64127 236.82456 239.09185 241.47314
 244.10543 246.36771 248.38100 250.15729 251.58558 252.71986 253.55315 253.88044
 253.92873 253.71402 253.08530 252.04459 250.66188 248.83417 246.75446 244.59874
 242.40103 240.21632 238.04761 235.89790 233.76918 231.64747 229.68476 227.85305
 226.14733 224.63062 223.27191 222.05520 220.94849 219.91977 219.03506 218.18735
 217.44064 216.63193 215.74121 215.11650 214.57779 214.06236 212.83939 211.50587
 210.79973 211.90097 213.33078 215.04750 217.87500 222.11404 227.67870 232.34488
 236.40120 240.63800 245.05966 249.35956 253.37440 256.89398 259.94736 262.81396
 265.68719 268.46942 271.03918 273.34818 275.36041 277.16214 278.89706 280.59961
 282.20956 283.64282 284.88562 285.97980 286.94812 287.80869 288.58951 289.33591
 290.09671 290.80399 291.43759 292.24503
 366.78100 356.34868 345.79436 334.67404 323.09072 311.29840 299.18208 286.99875
 274.72443 262.63511 250.65779 239.97247 230.10815 221.22583 213.42151 206.43719
 200.28487 195.23655 191.83223 189.88791 188.93859 189.01626 189.86494 191.18662
 192.92530 195.03398 197.31066 199.68334 202.14202 204.63570 206.73738 208.59306
 210.23274 211.39142 211.63409 211.87577 211.82645 211.54513 211.19181 210.83549
 210.46617 210.18985 210.01153 209.88921 209.83089 210.17557 210.57525 210.97792
 211.78460 212.97628 214.23996 216.03664 217.97832 220.03500 222.14368 224.24036
 226.31404 228.41172 230.52240 232.64208 234.78476 236.97043 239.24011 241.62379
 244.25847 246.52315 248.53883 250.31751 251.74819 252.88487 253.72055 254.05023
 254.10091 253.88859 253.26226 252.22394 250.84362 249.01830 246.94098 244.78766
 242.59234 240.41002 238.24370 236.09638 233.97006 231.85074 229.89042 228.06109
 226.35777 224.84345 223.48713 222.27281 221.16849 220.14217 219.25985 218.41453
 217.67021 216.86389 215.97557 215.35325 214.81693 214.21254 212.78296 211.69777
 210.79767 211.41261 213.01808 215.06271 218.02592 222.22559 227.70218 232.51039
 236.41583 240.71025 245.11714 249.42577 253.42711 256.94113 260.00424 262.85092
 265.64447 268.34003 270.86316 273.15820 275.17929 277.00912 278.74454 280.40009
 281.92972 283.30429 284.52515 285.62024 286.66034 287.69684 288.69525 289.61606
 290.44421 291.18170 291.82593 292.64697
 366.78100 356.35035 345.79769 334.67904 323.09738 311.30673 299.19207 287.01042
 274.73776 262.65011 250.67445 239.99080 230.12814 221.24749 213.44483 206.46218
 200.31152 195.26487 191.86221 189.91956 188.97190 189.05125 189.90159 191.22494
 192.96528 195.07563 197.35398 199.72832 202.18867 204.68401 206.78736 208.64470
 210.28605 211.44639 211.69074 211.93408 211.88643 211.60677 211.25512 210.90046
 210.53281 210.25815 210.08150 209.96084 209.90419 210.25053 210.65188 211.05622
 211.86457 213.05792 214.32326 216.12161 218.06495 220.12330 222.23364 224.33199
 226.40733 228.50668 230.61902 232.74037 234.88471 237.07206 239.34340 241.72875
 244.36509 246.63144 248.64878 250.42913 251.86147 252.99982 253.83716 254.16851
 254.22085 254.01020 253.38555 252.34889 250.97024 249.14658 247.07093 244.91927
 242.72562 240.54496 238.38031 236.23465 234.11000 231.99234 230.03369 228.20603
 226.50438 224.99172 223.63707 222.42441 221.32176 220.29710 219.41645 218.57279
 217.83014 217.02548 216.13883 215.51818 214.98352 214.34717 212.82938 211.69051
 211.10916 211.57693 213.02885 215.08681 218.01721 222.23836 227.73915 232.50656
 236.40382 240.71034 245.13007 249.45091 253.46420 257.00165 260.10324 262.95694
 265.69672 268.32443 270.80093 273.08755 275.15515 277.04041 278.79300 280.41287
 281.86563 283.21786 284.83279 286.39871 287.75388 288.95285 290.04675 291.03772
 291.92902 292.72269 293.41605 294.29965
 366.78100 356.35069 345.79839 334.68008 323.09878 311.30847 299.19417 287.01286
 274.74056 262.65325 250.67795 239.99464 230.13234 221.25203 213.44973 206.46742
 200.31712 195.27081 191.86851 189.92620 188.97890 189.05859 189.90929 191.23298
 192.97368 195.08437 197.36307 199.73776 202.19846 204.69415 206.79785 208.65554
 210.29724 211.45793 211.70263 211.94632 211.89902 211.61971 211.26841 210.91410
 210.54680 210.27249 210.09619 209.97588 209.91958 210.26627 210.66797 211.07266
 211.88136 213.07505 214.34075 216.13944 218.08314 220.14183 222.25253 224.35122
 226.42692 228.52661 230.63931 232.76100 234.90570 237.09339 239.36509 241.75078
 244.38748 246.65417 248.67187 250.45256 251.88526 253.02395 253.86165 254.19334
 254.24604 254.03573 253.41143 252.37512 250.99682 249.17351 247.09821 244.94690
 242.75359 240.57329 238.40898 236.26368 234.13937 232.02207 230.06376 228.23646
 226.53515 225.02285 223.66854 222.45624 221.35393 220.32963 219.44932 218.60602
 217.86371 217.05941 216.17310 215.55280 215.01849 214.39214 212.86180 211.61365
 211.21269 211.70547 213.09470 215.03156 217.89195 222.15388 227.66753 232.41032
 236.29662 240.60930 245.03473 249.36528 253.40054 256.96710 260.10583 263.00351
 265.80075 268.45969 270.94836 273.29001 275.42059 277.36017 279.14764 280.78555
 282.23752 283.60245 285.26599 286.83252 288.18823 289.38770 290.48199 291.47339
 292.36502 293.15903 293.85266 294.73660
 366.78100 356.35242 345.80184 334.68526 323.10567 311.31709 299.20451 287.02493
 274.75435 262.66877 250.69519 240.01361 230.15302 221.27444 213.47386 206.49328
 200.34470 195.30012 191.89954 189.95896 189.01337 189.09479 189.94721 191.27263
 193.01505 195.12747 197.40789 199.78431 202.24672 204.74414 206.84956 208.70898
 210.35240 211.51482 211.76124 212.00666 211.96107 211.68349 211.33391 210.98133
 210.61575 210.34317 210.16859 210.05001 209.99542 210.34384 210.74726 211.15368
 211.96410 213.15952 214.42694 216.22735 218.17277 220.23319 222.34561 224.44603
 226.52345 228.62487 230.73929 232.86270 235.00912 237.19854 239.47196 241.85938
 244.49780 246.76622 248.78564 250.56805 252.00247 253.14289 253.98231 254.31573
 254.37015 254.16157 253.53899 252.50440 251.12782 249.30624 247.23266 245.08308
 242.89150 240.71292 238.55034 236.40675 234.28417 232.16859 230.21201 228.38643
 226.68685 225.17627 223.82368 222.61310 221.51252 220.48994 219.61136 218.76978
 218.02920 217.22662 216.34203 215.72345 215.19087 214.48276 212.79211 211.52788
 211.18552 211.78055 213.22688 215.12834 217.94789 222.15167 227.56624 232.31821
 236.18921 240.49358 244.90125 249.20335 253.19722 256.70718 259.83267 262.78467
 265.64713 268.35397 270.87503 273.24597 275.43106 277.43768 279.30695 281.02615
 282.56497 283.93893 285.31549 286.72263 288.09705 289.35480 290.50232 291.54187
 292.47687 293.30945 294.03680 294.96371
 366.78100 356.35230 345.80161 334.68491 323.10522 311.31652 299.20383 287.02413
 274.75343 262.66774 250.69404 240.01235 230.15165 221.27296 213.47226 206.49156
 200.34287 195.29817 191.89748 189.95678 189.01109 189.09239 189.94469 191.27000
 193.01230 195.12461 197.40491 199.78122 202.24352 204.74082 206.84613 208.70543
 210.34874 211.51104 211.75735 212.00265 211.95695 211.67926 211.32956 210.97687
 210.61117 210.33848 210.16378 210.04508 209.99039 210.33869 210.74200 211.14830
 211.95861 213.15391 214.42121 216.22152 218.16682 220.22713 222.33943 224.43974
 226.51704 228.61834 230.73265 232.85595 235.00226 237.19156 239.46487 241.85217
 244.49047 246.75878 248.77808 250.56039 251.99469 253.13500 253.97430 254.30760
 254.36191 254.15321 253.53052 252.49582 251.11913 249.29743 247.22373 245.07404
 242.88234 240.70365 238.54095 236.39726 234.27456 232.15886 230.20217 228.37647
 226.67678 225.16608 223.81339 222.60269 221.50199 220.47930 219.60060 218.75891
 218.01821 217.21552 216.33082 215.71212 215.17943 214.47778 212.81250 211.53677
 211.01193 211.63106 213.21880 215.17006 217.96935 222.12724 227.56967 232.29059
 236.16870 240.45718 244.86313 249.14252 253.08319 256.55115 259.66031 262.62015
 265.50601 268.23056 270.74274 273.09198 275.23584 277.18771 279.00278 280.70343
 282.28937 283.76120 285.15579 286.49991 287.69760 288.78894 289.82965 290.78482
 291.64389 292.40891 293.07721 293.92886
 366.78100 356.35196 345.80091 334.68387 323.10383 311.31478 299.20174 287.02170
 274.75065 262.66461 250.69057 240.00853 230.14748 221.26844 213.46740 206.48635
 200.33731 195.29227 191.89122 189.95018 189.00414 189.08509 189.93705 191.26201
 193.00396 195.11592 197.39588 199.77183 202.23379 204.73075 206.83571 208.69466
 210.33762 211.49958 211.74553 211.99049 211.94445 211.66640 211.31636 210.96332
 210.59727 210.32423 210.14919 210.03014 209.97510 210.32306 210.72601 211.13197
 211.94193 213.13689 214.40384 216.20380 218.14876 220.20871 222.32067 224.42063
 226.49758 228.59854 230.71250 232.83545 234.98141 237.17037 239.44332 241.83028
 244.46824 246.73619 248.75515 250.53711 251.97107 253.11102 253.94998 254.28294
 254.33689 254.12785 253.50481 252.46976 251.09272 249.27068 247.19663 245.04659
 242.85455 240.67550 238.51246 236.36842 234.24537 232.12933 230.17229 228.34624
 226.64620 225.13516 223.78212 222.57107 221.47003 220.44699 219.56794 218.72590
 217.98486 217.18181 216.29677 215.67773 215.14468 214.46335 212.84641 211.57672
 211.09624 211.64732 213.17230 215.12714 217.93686 222.08826 227.54147 232.23218
 236.12675 240.42157 244.84404 249.13287 253.07874 256.53732 259.62927 262.58768
 265.48212 268.21341 270.73270 273.08408 275.23602 277.19394 278.96741 280.59341
 282.10193 283.48639 284.76123 285.94287 287.08115 288.14746 289.13052 290.03964
 290.85782 291.58640 292.22287 293.03400
 366.78100 356.35258 345.80216 334.68574 323.10632 311.31790 299.20548 287.02606
 274.75564 262.67022 250.69680 240.01538 230.15495 221.27653 213.47611 206.49569
 200.34727 195.30285 191.90243 189.96201 189.01659 189.09817 189.95075 191.27633
 193.01891 195.13149 197.41207 199.78865 202.25123 204.74881 206.85439 208.71397
 210.35755 211.52013 211.76670 212.01228 211.96686 211.68944 211.34002 210.98760
 210.62218 210.34976 210.17534 210.05692 210.00250 210.35108 210.75466 211.16124
 211.97182 213.16740 214.43498 216.23556 218.18114 220.24172 222.35430 224.45488
 226.53245 228.63403 230.74861 232.87219 235.01877 237.20835 239.48193 241.86951
 244.50809 246.77667 248.79625 250.57883 252.01341 253.15399 253.99357 254.32715
 254.38173 254.17331 253.55089 252.51647 251.14005 249.31863 247.24520 245.09578
 242.90436 240.72594 238.56352 236.42010 234.29768 232.18226 230.22584 228.40042
 226.70100 225.19058 223.83816 222.62774 221.52732 220.50490 219.62648 218.78506
 218.04464 217.24222 216.35780 215.73938 215.20695 214.51091 212.85553 211.53764
 211.12437 211.66589 213.11983 215.11536 217.95218 222.08345 227.49005 232.18239
 236.06279 240.37462 244.80588 249.10167 253.04935 256.50845 259.61252 262.57935
 265.47653 268.20004 270.71628 273.06851 275.23462 277.23010 279.03607 280.64655
 282.10181 283.43396 284.62589 285.67474 286.83539 287.90482 288.93301 289.87186
 290.71622 291.46814 292.12500 292.96207
 366.78100 356.35320 345.80340 334.68760 323.10880 311.32100 299.20920 287.03040
 274.76060 262.67580 250.70300 240.02219 230.16239 221.28459 213.48479 206.50499
 200.35719 195.31339 191.91359 189.97379 189.02899 189.11119 189.96439 191.29059
 193.03379 195.14699 197.42819 199.80539 202.26859 204.76679 206.87299 208.73318
 210.37738 211.54058 211.78778 212.03398 211.98918 211.71238 211.36358 211.01178
 210.64698 210.37518 210.20138 210.08358 210.02978 210.37898 210.78318 211.19038
 212.00158 213.19778 214.46598 216.26718 218.21337 220.27457 222.38777 224.48897
 226.56717 228.66937 230.78457 232.90877 235.05597 237.24617 239.52037 241.90857
 244.54777 246.81697 248.83717 250.62037 252.05557 253.19677 254.03697 254.37117
 254.42637 254.21856 253.59676 252.56296 251.18716 249.36636 247.29356 245.14476
 242.95396 240.77616 238.61436 236.47156 234.34976 232.23496 230.27916 228.45436
 226.75556 225.24576 223.89396 222.68416 221.58436 220.56255 219.68475 218.84395
 218.10415 217.30235 216.41855 215.80075 215.26895 214.54445 212.83060 211.58817
 211.12302 211.63501 213.14143 215.18839 218.01379 222.10019 227.48788 232.13872
 236.01692 240.33211 244.77296 249.06819 253.00725 256.46634 259.57721 262.55765
 265.45752 268.17621 270.68274 273.02328 275.20148 277.22653 279.04099 280.64899
 282.09793 283.39941 284.53671 285.56750 286.66425 287.72693 288.71417 289.62070
 290.43790 291.16562 291.80133 292.61148
 366.78100 356.35289 345.80279 334.68668 323.10757 311.31946 299.20736 287.02825
 274.75814 262.67304 250.69993 240.01882 230.15872 221.28061 213.48050 206.50039
 200.35229 195.30818 191.90807 189.96797 189.02286 189.10475 189.95765 191.28354
 193.02643 195.13932 197.42022 199.79711 202.26000 204.75790 206.86379 208.72368
 210.36757 211.53047 211.77736 212.02325 211.97815 211.70104 211.35193 210.99983
 210.63472 210.36261 210.18850 210.07040 210.01629 210.36518 210.76908 211.17597
 211.98686 213.18276 214.45065 216.25154 218.19743 220.25833 222.37122 224.47211
 226.55001 228.65190 230.76679 232.89068 235.03758 237.22747 239.50136 241.88926
 244.52815 246.79704 248.81694 250.59983 252.03472 253.17561 254.01551 254.34940
 254.40429 254.19619 253.57408 252.53997 251.16387 249.34276 247.26965 245.12054
 242.92944 240.75133 238.58922 236.44612 234.32401 232.20890 230.25279 228.42769
 226.72858 225.21847 223.86637 222.65626 221.55615 220.53405 219.65594 218.81483
 218.07472 217.27262 216.38851 215.77040 215.23830 214.51776 212.81578 211.63307
 211.24132 211.63980 213.13780 215.22136 218.02451 222.10051 227.53081 232.07651
 235.96164 240.27502 244.72162 249.00624 252.92776 256.37674 259.48059 262.47333
 265.37939 268.11258 270.61923 272.95099 275.12738 277.14499 278.98508 280.63147
 282.10019 283.39795 284.51703 285.50119 286.47516 287.52133 288.48441 289.32666
 290.09100 290.81232 291.44507 292.25140
 366.78100 356.35255 345.80209 334.68564 323.10618 311.31773 299.20528 287.02582
 274.75537 262.66992 250.69646 240.01501 230.15455 221.27610 213.47565 206.49519
 200.34674 195.30228 191.90183 189.96138 189.01592 189.09747 189.95001 191.27556
 193.01811 195.13065 197.41120 199.78775 202.25029 204.74784 206.85338 208.71293
 210.35648 211.51902 211.76557 212.01111 211.96566 211.68821 211.33875 210.98630
 210.62085 210.34839 210.17394 210.05548 210.00103 210.34958 210.75312 211.15967
 211.97021 213.16576 214.43331 216.23385 218.17940 220.23995 222.35249 224.45304
 226.53058 228.63213 230.74668 232.87022 235.01677 237.20631 239.47986 241.86741
 244.50595 246.77450 248.79404 250.57659 252.01114 253.15168 253.99123 254.32478
 254.37932 254.17087 253.54841 252.51396 251.13751 249.31605 247.24260 245.09314
 242.90169 240.72324 238.56078 236.41733 234.29488 232.17942 230.22297 228.39751
 226.69806 225.18761 223.83515 222.62470 221.52424 220.50179 219.62334 218.78188
 218.04143 217.23897 216.35452 215.73607 215.20361 214.49590 212.82382 211.60721
 211.36633 211.70848 213.12622 215.19572 217.98787 222.09943 227.56035 231.99594
 235.92212 240.21924 244.67104 248.94296 252.83884 256.25793 259.36572 262.39670
 265.33163 268.07047 270.56146 272.87979 275.04840 277.05801 278.89221 280.52875
 281.99765 283.28064 284.39563 285.40045 286.38931 287.43393 288.39673 289.21042
 289.93155 290.62955 291.26031 292.09033
 366.78100 356.35179 345.80059 334.68338 323.10317 311.31396 299.20076 287.02055
 274.74934 262.66314 250.68893 240.00672 230.14552 221.26631 213.46510 206.48389
 200.33469 195.28948 191.88827 189.94707 189.00086 189.08165 189.93345 191.25824
 193.00003 195.11182 197.39162 199.76741 202.22920 204.72600 206.83079 208.68958
 210.33237 211.49417 211.73996 211.98475 211.93855 211.66034 211.31013 210.95693
 210.59072 210.31751 210.14230 210.02310 209.96789 210.31568 210.71848 211.12427
 211.93406 213.12885 214.39565 216.19544 218.14023 220.20003 222.31182 224.41161
 226.48841 228.58920 230.70299 232.82578 234.97158 237.16037 239.43316 241.81996
 244.45775 246.72554 248.74434 250.52613 251.95992 253.09971 253.93851 254.27130
 254.32509 254.11589 253.49268 252.45747 251.08026 249.25806 247.18385 245.03364
 242.84144 240.66223 238.49902 236.35482 234.23161 232.11540 230.15819 228.33199
 226.63178 225.12057 223.76737 222.55616 221.45495 220.43175 219.55254 218.71033
 217.96912 217.16592 216.28071 215.66150 215.12830 214.47546 212.92863 211.53867
 211.37349 211.75905 213.14091 215.22397 218.03961 222.10471 227.49069 232.03473
 235.84171 240.16008 244.61212 248.88496 252.75780 256.16989 259.29083 262.33084
 265.27573 268.02869 270.54071 272.85587 275.01459 277.02066 278.85025 280.48419
 281.91080 283.13397 284.18530 285.15707 286.09708 287.14163 288.12207 288.98325
 289.76221 290.48502 291.11646 291.92111
 366.78100 356.34996 345.79691 334.67787 323.09582 311.30478 299.18973 287.00769
 274.73464 262.64660 250.67055 239.98651 230.12347 221.24242 213.43938 206.45633
 200.30529 195.25824 191.85520 189.91215 188.96411 189.04307 189.89302 191.21598
 192.95593 195.06589 197.34384 199.71780 202.17775 204.67271 206.77566 208.63262
 210.27358 211.43353 211.67749 211.92044 211.87240 211.59235 211.24031 210.88526
 210.51722 210.24218 210.06513 209.94409 209.88704 210.23300 210.63395 211.03791
 211.84586 213.03882 214.30377 216.10173 218.04469 220.10264 222.21260 224.31055
 226.38551 228.48446 230.59642 232.71737 234.86133 237.04829 239.31924 241.70420
 244.34015 246.60611 248.62306 250.40302 251.83497 252.97293 253.80988 254.14084
 254.19280 253.98175 253.35671 252.31966 250.94062 249.11657 247.04053 244.88848
 242.69444 240.51340 238.34835 236.20231 234.07726 231.95922 230.00017 228.17213
 226.47008 224.95704 223.60199 222.38895 221.28591 220.26086 219.37982 218.53577
 217.79273 216.98768 216.10064 215.47959 214.94455 214.43077 213.12135 211.52252
 211.26443 211.77483 213.23291 215.35393 218.22864 222.22920 227.46915 232.01497
 235.84456 240.15623 244.58911 248.83536 252.67337 256.07532 259.24921 262.30948
 265.22086 267.92209 270.43100 272.79633 275.02228 277.07983 278.92679 280.52725
 281.86993 283.01334 284.06281 285.24094 286.52805 287.69028 288.75064 289.71124
 290.57523 291.34457 292.01666 292.87317
 366.78100 356.35177 345.80054 334.68330 323.10307 311.31384 299.20061 287.02037
 274.74914 262.66291 250.68868 240.00644 230.14521 221.26598 213.46475 206.48351
 200.33428 195.28905 191.88782 189.94658 189.00035 189.08112 189.93289 191.25766
 192.99942 195.11119 197.39096 199.76673 202.22849 204.72526 206.83003 208.68880
 210.33156 211.49333 211.73910 211.98387 211.93763 211.65940 211.30917 210.95594
 210.58971 210.31647 210.14124 210.02201 209.96678 210.31454 210.71731 211.12308
 211.93285 213.12761 214.39438 216.19415 218.13892 220.19868 222.31045 224.41022
 226.48699 228.58775 230.70152 232.82429 234.97006 237.15883 239.43159 241.81836
 244.45613 246.72390 248.74266 250.52443 251.95820 253.09797 253.93673 254.26950
 254.32327 254.11404 253.49080 252.45557 251.07834 249.25611 247.18188 245.03164
 242.83941 240.66018 238.49695 236.35271 234.22948 232.11325 230.15602 228.32978
 226.62955 225.11832 223.76509 222.55385 221.45262 220.42939 219.55016 218.70792
 217.96669 217.16346 216.27823 215.65900 215.12576 214.54465 213.06050 211.53189
 211.28227 211.72768 213.31390 215.51643 218.32564 222.25453 227.53827 232.02827
 235.83406 240.15018 244.59749 248.85159 252.69621 256.11890 259.29059 262.33316
 265.22137 267.89386 270.35056 272.73114 275.05786 277.20517 279.09509 280.65317
 281.83762 283.13544 284.69745 286.26431 287.62201 288.82324 289.91919 290.91202
 291.80496 292.60016 293.29480 294.18005
 366.78100 356.35130 345.79959 334.68189 323.10119 311.31148 299.19778 287.01708
 274.74537 262.65867 250.68397 240.00126 230.13956 221.25986 213.45815 206.47645
 200.32675 195.28104 191.87934 189.93764 188.99093 189.07123 189.92252 191.24682
 192.98812 195.09941 197.37871 199.75401 202.21530 204.71160 206.81590 208.67419
 210.31649 211.47779 211.72308 211.96738 211.92068 211.64197 211.29127 210.93757
 210.57086 210.29716 210.12146 210.00175 209.94605 210.29335 210.69564 211.10094
 211.91024 213.10453 214.37083 216.17013 218.11442 220.17372 222.28502 224.38431
 226.46061 228.56091 230.67420 232.79650 234.94180 237.13009 239.40239 241.78869
 244.42598 246.69328 248.71157 250.49287 251.92617 253.06546 253.90376 254.23606
 254.28935 254.07965 253.45595 252.42024 251.04254 249.21984 247.14513 244.99443
 242.80173 240.62202 238.45832 236.31362 234.18991 232.07321 230.11551 228.28880
 226.58810 225.07640 223.72269 222.51099 221.40929 220.38558 219.50588 218.66318
 217.92147 217.11777 216.23207 215.61236 215.07866 214.49144 213.06842 211.54726
 211.06552 211.36578 213.18575 215.57907 218.39789 222.28856 227.46701 232.03156
 235.82266 240.12537 244.56659 248.81850 252.66685 256.10428 259.28317 262.32141
 265.21033 267.89261 270.34048 272.61044 274.78711 276.85342 278.75781 280.46875
 281.96295 283.26236 284.47543 285.69574 286.84467 287.89157 288.89667 289.81564
 290.64215 291.37817 292.02112 292.84052
 366.78100 356.35035 345.79770 334.67904 323.09739 311.30674 299.19209 287.01044
 274.73779 262.65013 250.67448 239.99083 230.12818 221.24753 213.44488 206.46222
 200.31157 195.26492 191.86227 189.91962 188.97197 189.05131 189.90166 191.22501
 192.96536 195.07571 197.35405 199.72840 202.18875 204.68410 206.78745 208.64480
 210.28614 211.44649 211.69084 211.93419 211.88654 211.60689 211.25523 210.90058
 210.53293 210.25828 210.08163 209.96098 209.90432 210.25067 210.65202 211.05637
 211.86472 213.05806 214.32341 216.12176 218.06511 220.12346 222.23381 224.33215
 226.40750 228.50685 230.61920 232.74055 234.88490 237.07224 239.34359 241.72894
 244.36529 246.63164 248.64898 250.42933 251.86168 253.00003 253.83738 254.16873
 254.22107 254.01042 253.38577 252.34912 250.97047 249.14682 247.07116 244.91951
 242.72586 240.54521 238.38056 236.23491 234.11025 231.99260 230.03395 228.20630
 226.50465 224.99199 223.63734 222.42469 221.32204 220.29739 219.41674 218.57308
 217.83043 217.02578 216.13913 215.51848 214.98383 214.40184 213.02686 211.85535
 211.24103 211.41260 213.08495 215.36375 218.17430 222.12781 227.45163 231.89438
 235.72713 240.04332 244.50990 248.77609 252.60867 256.02078 259.19061 262.25723
 265.18695 267.90753 270.38345 272.62946 274.72726 276.71915 278.57727 280.25049
 281.71494 282.96561 284.05960 285.07547 286.05392 287.02756 287.96426 288.81558
 289.57968 290.27011 290.90472 291.71341
 366.78100 356.35027 345.79755 334.67882 323.09709 311.30637 299.19164 287.00991
 274.73719 262.64946 250.67373 239.99001 230.12728 221.24655 213.44382 206.46110
 200.31037 195.26364 191.86092 189.91819 188.97046 189.04974 189.90001 191.22328
 192.96356 195.07383 197.35210 199.72638 202.18665 204.68192 206.78520 208.64247
 210.28374 211.44402 211.68829 211.93156 211.88383 211.60411 211.25238 210.89765
 210.52993 210.25520 210.07847 209.95775 209.90102 210.24729 210.64857 211.05284
 211.86111 213.05439 214.31966 216.11793 218.06121 220.11948 222.22975 224.32803
 226.40330 228.50257 230.61484 232.73612 234.88039 237.06766 239.33894 241.72421
 244.36048 246.62676 248.64403 250.42430 251.85658 252.99485 253.83212 254.16340
 254.21567 254.00494 253.38022 252.34349 250.96476 249.14104 247.06531 244.91358
 242.71985 240.53913 238.37440 236.22867 234.10395 231.98622 230.02749 228.19977
 226.49804 224.98531 223.63059 222.41786 221.31513 220.29041 219.40968 218.56595
 217.82323 217.01850 216.13177 215.51105 214.97632 214.38603 212.99139 211.90909
 211.34619 211.65942 213.14055 215.18420 217.99915 222.00478 227.38132 231.71367
 235.64134 239.97270 244.47411 248.75438 252.56783 255.94713 259.11130 262.20419
 265.15967 267.89426 270.38928 272.65195 274.77533 276.80991 278.69312 280.35077
 281.76263 282.95117 283.95749 284.86713 285.76566 286.66901 287.61346 288.48569
 289.25803 289.84055 290.32446 291.08624
 366.78100 356.34942 345.79585 334.67627 323.09370 311.30212 299.18655 287.00397
 274.73040 262.64182 250.66525 239.98067 230.11710 221.23552 213.43194 206.44837
 200.29679 195.24922 191.84564 189.90207 188.95349 189.03192 189.88134 191.20377
 192.94319 195.05262 197.33004 199.70347 202.16289 204.65731 206.75974 208.61616
 210.25659 211.41601 211.65944 211.90186 211.85329 211.57271 211.22014 210.86456
 210.49599 210.22041 210.04283 209.92126 209.86368 210.20911 210.60953 211.01296
 211.82038 213.01281 214.27723 216.07466 218.01708 220.07451 222.18393 224.28136
 226.35578 228.45420 230.56563 232.68605 234.82948 237.01590 239.28633 241.67075
 244.30618 246.57160 248.58803 250.36745 251.79888 252.93630 253.77272 254.10315
 254.15457 253.94300 253.31742 252.27985 250.90027 249.07570 246.99912 244.84655
 242.65197 240.47040 238.30482 236.15825 234.03267 231.91409 229.95452 228.12594
 226.42337 224.90979 223.55422 222.34064 221.23707 220.21149 219.32992 218.48534
 217.74177 216.93619 216.04861 215.42704 214.89146 214.35013 213.07118 211.77043
 211.29425 211.83173 213.26918 215.27003 218.07970 222.04462 227.33934 231.66071
 235.59357 239.91034 244.39981 248.66585 252.48065 255.88857 259.09317 262.21262
 265.17365 267.90521 270.39557 272.66428 274.81174 276.85806 278.71109 280.30722
 281.66205 282.80984 283.77597 284.67816 285.60889 286.59955 287.55878 288.43356
 289.21069 289.76199 290.26407 291.03204
 366.78100 356.34772 345.79244 334.67116 323.08689 311.29361 299.17633 286.99205
 274.71677 262.62649 250.64822 239.96194 230.09666 221.21338 213.40810 206.42282
 200.26955 195.22027 191.81499 189.86971 188.91943 188.99615 189.84388 191.16460
 192.90232 195.01004 197.28576 199.65748 202.11521 204.60793 206.70865 208.56337
 210.20209 211.35981 211.60153 211.84226 211.79198 211.50970 211.15542 210.79814
 210.42786 210.15059 209.97131 209.84803 209.78875 210.13247 210.53119 210.93292
 211.73864 212.92936 214.19208 215.98780 217.92852 219.98425 222.09197 224.18769
 226.26041 228.35713 230.46685 232.58557 234.72730 236.91202 239.18074 241.56346
 244.19718 246.46090 248.47563 250.25335 251.68307 252.81879 253.65351 253.98223
 254.03196 253.81868 253.19140 252.15212 250.77084 248.94456 246.86629 244.71201
 242.51573 240.33245 238.16517 236.01689 233.88962 231.76934 229.80806 227.97778
 226.27350 224.75822 223.40094 222.18567 221.08039 220.05311 219.16983 218.32355
 217.57827 216.77100 215.88172 215.25844 214.72116 214.26505 213.18742 211.80069
 211.16296 211.75319 213.24226 215.31433 218.18729 222.16095 227.38751 231.70148
 235.62132 239.91049 244.37308 248.61298 252.40543 255.81355 259.04251 262.19003
 265.17105 267.91293 270.39581 272.64011 274.76297 276.77539 278.58801 280.16013
 281.50580 282.62991 283.56549 284.49118 285.47592 286.50497 287.47443 288.35538
 289.13196 289.71500 290.25113 291.01971
 366.78100 356.34628 345.78956 334.66684 323.08112 311.28641 299.16769 286.98197
 274.70525 262.61353 250.63381 239.94609 230.07937 221.19466 213.38794 206.40122
 200.24650 195.19578 191.78906 189.84234 188.89062 188.96590 189.81219 191.13147
 192.86775 194.97403 197.24831 199.61859 202.07487 204.56615 206.66544 208.51872
 210.15600 211.31228 211.55256 211.79184 211.74012 211.45640 211.10068 210.74197
 210.37025 210.09153 209.91081 209.78609 209.72537 210.06765 210.46493 210.86522
 211.66950 212.85878 214.12006 215.91434 217.85362 219.90790 222.01418 224.10846
 226.17975 228.27503 230.38331 232.50059 234.64087 236.82415 239.09143 241.47271
 244.10500 246.36728 248.38056 250.15684 251.58512 252.71940 253.55268 253.87996
 253.92824 253.71353 253.08481 252.04409 250.66137 248.83365 246.75393 244.59821
 242.40049 240.21578 238.04706 235.89734 233.76862 231.64690 229.68418 227.85246
 226.14674 224.63002 223.27131 222.05459 220.94787 219.91915 219.03443 218.18671
 217.43999 216.63127 215.74056 215.11584 214.57712 214.18475 213.25774 211.94366
 211.15891 211.61960 213.08351 215.20210 218.14117 222.19551 227.43034 231.75876
 235.68037 239.95880 244.40741 248.63870 252.40854 255.78476 258.98859 262.12170
 265.09274 267.83630 270.32605 272.56595 274.67572 276.67224 278.48038 280.05832
 281.39536 282.48706 283.40439 284.34116 285.33850 286.37384 287.35144 288.24188
 289.01892 289.57294 290.11420 290.88144
 366.78100 356.34596 345.78892 334.66589 323.07985 311.28481 299.16577 286.97974
 274.70270 262.61066 250.63062 239.94259 230.07555 221.19051 213.38347 206.39644
 200.24140 195.19036 191.78332 189.83629 188.88425 188.95921 189.80517 191.12414
 192.86010 194.96606 197.24002 199.60999 202.06595 204.55691 206.65587 208.50884
 210.14580 211.30176 211.54172 211.78068 211.72865 211.44461 211.08857 210.72953
 210.35750 210.07846 209.89742 209.77238 209.71135 210.05331 210.45027 210.85023
 211.65420 212.84316 214.10412 215.89808 217.83705 219.89101 221.99697 224.09093
 226.16190 228.25686 230.36482 232.48178 234.62175 236.80471 239.07167 241.45263
 244.08460 246.34656 248.35952 250.13548 251.56344 252.69741 253.53037 253.85733
 253.90529 253.69026 253.06122 252.02018 250.63714 248.80911 246.72907 244.57303
 242.37499 240.18996 238.02092 235.87088 233.74184 231.61981 229.65677 227.82473
 226.11869 224.60166 223.24262 222.02558 220.91854 219.88951 219.00447 218.15643
 217.40939 216.60036 215.70932 215.08428 214.54524 214.16414 213.26372 212.01979
 211.31142 211.59761 212.90971 215.08543 218.07631 222.15733 227.40501 231.75476
 235.69119 239.97627 244.43494 248.68152 252.45305 255.81256 258.98715 262.09042
 265.02905 267.75107 270.23798 272.48914 274.60428 276.59296 278.39581 279.96387
 281.27014 282.32904 283.24118 284.19815 285.22488 286.26245 287.24133 288.13092
 288.90552 289.43207 289.98154 290.75235
 366.78100 356.34705 345.79111 334.66916 323.08421 311.29027 299.17232 286.98737
 274.71143 262.62048 250.64153 239.95459 230.08864 221.20469 213.39875 206.41280
 200.25885 195.20891 191.80296 189.85702 188.90607 188.98212 189.82918 191.14923
 192.88628 194.99334 197.26839 199.63944 202.09650 204.58855 206.68860 208.54266
 210.18071 211.33776 211.57882 211.81887 211.76792 211.48498 211.13003 210.77208
 210.40114 210.12319 209.94324 209.81930 209.75935 210.10240 210.50046 210.90151
 211.70656 212.89662 214.15867 215.95372 217.89378 219.94883 222.05589 224.15094
 226.22299 228.31905 230.42810 232.54615 234.68721 236.87126 239.13931 241.52137
 244.15442 246.41747 248.43153 250.20858 251.63763 252.77269 253.60674 253.93479
 253.98385 253.76990 253.14195 252.10201 250.72006 248.89311 246.81417 244.65922
 242.46227 240.27833 238.11038 235.96143 233.83349 231.71254 229.75059 227.91965
 226.21470 224.69875 223.34081 222.12486 221.01892 219.99097 219.10702 218.26008
 217.51413 216.70618 215.81624 215.19229 214.65434 214.21585 213.17984 212.16631
 211.43602 211.57767 212.86288 215.01712 217.97006 222.07925 227.35513 231.71182
 235.64738 239.94490 244.41417 248.67531 252.45392 255.82452 259.00821 262.11353
 265.03662 267.73218 270.19699 272.44110 274.55286 276.51965 278.30084 279.85233
 281.14502 282.21295 283.14822 284.11459 285.10788 286.13849 287.11340 287.99948
 288.77814 289.29611 289.85632 290.63135
 366.78100 356.34871 345.79442 334.67413 323.09084 311.29854 299.18225 286.99896
 274.72467 262.63538 250.65809 239.97280 230.10851 221.22622 213.42192 206.43763
 200.28534 195.23705 191.83276 189.88847 188.93918 189.01689 189.86559 191.18730
 192.92601 195.03472 197.31143 199.68414 202.14285 204.63656 206.73827 208.59397
 210.23368 211.39239 211.63510 211.87681 211.82752 211.54623 211.19294 210.83665
 210.46735 210.19106 210.01277 209.89048 209.83219 210.17690 210.57661 210.97932
 211.78602 212.97773 214.24144 216.03815 217.97986 220.03657 222.14528 224.24199
 226.31570 228.41340 230.52411 232.64382 234.78653 236.97224 239.24195 241.62566
 244.26037 246.52508 248.54078 250.31949 251.75020 252.88691 253.72262 254.05233
 254.10304 253.89075 253.26446 252.22616 250.84587 249.02058 246.94329 244.79000
 242.59471 240.41242 238.24613 236.09883 233.97254 231.85325 229.89296 228.06367
 226.36038 224.84609 223.48980 222.27551 221.17121 220.14492 219.26263 218.41734
 217.67305 216.86676 215.97847 215.35618 214.81989 214.29524 213.05571 212.37190
 211.58284 211.51973 212.69885 214.89662 217.95622 222.06477 227.33842 231.69014
 235.61462 239.91316 244.38063 248.63388 252.39755 255.77939 258.99884 262.14340
 265.08264 267.76956 270.20309 272.41885 274.50009 276.41394 278.15002 279.67419
 280.96570 282.06360 283.03934 284.02701 285.04669 286.08377 287.06335 287.95068
 288.72766 289.23538 289.80862 290.58566
 366.78100 356.34850 345.79401 334.67351 323.09002 311.29752 299.18103 286.99753
 274.72304 262.63354 250.65605 239.97055 230.10606 221.22356 213.41907 206.43457
 200.28208 195.23358 191.82909 189.88459 188.93510 189.01260 189.86111 191.18261
 192.92112 195.02962 197.30613 199.67863 202.13714 204.63064 206.73215 208.58765
 210.22716 211.38566 211.62817 211.86967 211.82018 211.53868 211.18519 210.82869
 210.45920 210.18270 210.00421 209.88171 209.82322 210.16772 210.56723 210.96973
 211.77624 212.96774 214.23125 216.02775 217.96926 220.02576 222.13427 224.23077
 226.30428 228.40178 230.51229 232.63179 234.77430 236.95980 239.22931 241.61281
 244.24732 246.51182 248.52733 250.30583 251.73634 252.87284 253.70835 254.03785
 254.08836 253.87586 253.24937 252.21087 250.83038 249.00488 246.92739 244.77389
 242.57840 240.39590 238.22941 236.08191 233.95542 231.83592 229.87543 228.04593
 226.34244 224.82794 223.47145 222.25695 221.15246 220.12596 219.24347 218.39797
 217.65348 216.84698 215.95849 215.33599 214.79950 214.28441 213.06743 212.43755
 211.74622 211.48645 212.59851 214.77249 217.89671 222.02348 227.32672 231.69379
 235.61798 239.91997 244.38208 248.62024 252.34685 255.71021 258.94955 262.13138
 265.09869 267.79382 270.21964 272.41177 274.45917 276.32065 278.00412 279.49365
 280.76886 281.86301 282.86444 283.90109 284.97952 286.01794 286.98404 287.85953
 288.61981 289.27737 289.87744 290.68994
 366.78100 356.34668 345.79036 334.66804 323.08272 311.28840 299.17008 286.98476
 274.70844 262.61712 250.63780 239.95048 230.08416 221.19984 213.39352 206.40720
 200.25288 195.20256 191.79624 189.84992 188.89860 188.97428 189.82096 191.14064
 192.87732 194.98400 197.25869 199.62937 202.08605 204.57773 206.67741 208.53109
 210.16877 211.32545 211.56613 211.80581 211.75449 211.47117 211.11585 210.75753
 210.38621 210.10789 209.92757 209.80325 209.74293 210.08561 210.48329 210.88397
 211.68865 212.87833 214.14001 215.93469 217.87437 219.92905 222.03573 224.13041
 226.20209 228.29777 230.40645 232.52413 234.66481 236.84849 239.11617 241.49785
 244.13053 246.39321 248.40689 250.18357 251.61225 252.74693 253.58061 253.90829
 253.95697 253.74265 253.11433 252.07401 250.69169 248.86438 246.78506 244.62974
 242.43242 240.24810 238.07978 235.93046 233.80214 231.68082 229.71850 227.88718
 226.18186 224.66554 223.30722 222.09090 220.98458 219.95626 219.07194 218.22462
 217.47830 216.66998 215.77966 215.15534 214.61702 214.19380 213.19389 212.38747
 211.88950 211.50536 212.53085 214.67043 217.80391 221.96260 227.30968 231.69775
 235.63803 239.95007 244.41736 248.65355 252.34805 255.67058 258.89151 262.07715
 265.05664 267.77069 270.20059 272.38644 274.40857 276.21863 277.86603 279.35022
 280.65359 281.79840 282.83701 283.85547 284.91098 285.95212 286.91956 287.79309
 288.55554 289.23691 289.84726 290.68082
 366.78100 356.34487 345.78675 334.66262 323.07550 311.27937 299.15925 286.97212
 274.69400 262.60087 250.61975 239.93062 230.06250 221.17637 213.36824 206.38012
 200.22399 195.17187 191.76374 189.81562 188.86249 188.93637 189.78124 191.09912
 192.83399 194.93887 197.21174 199.58061 202.03549 204.52536 206.62324 208.47511
 210.11099 211.26586 211.50474 211.74261 211.68949 211.40436 211.04724 210.68711
 210.31398 210.03386 209.85173 209.72561 209.66348 210.00436 210.40023 210.79911
 211.60198 212.78986 214.04973 215.84261 217.78048 219.83336 221.93823 224.03110
 226.10098 228.19485 230.30173 232.41760 234.55648 236.73835 239.00423 241.38410
 244.01498 246.27585 248.28773 250.06260 251.48947 252.62235 253.45422 253.78010
 253.82697 253.61085 252.98072 251.93860 250.55447 248.72535 246.64422 244.48710
 242.28797 240.10184 237.93172 235.78059 233.65047 231.52734 229.56322 227.73009
 226.02297 224.50484 223.14472 221.92659 220.81847 219.78834 218.90221 218.05309
 217.30496 216.49484 215.60271 214.97659 214.43646 214.10767 213.33084 212.35695
 211.97694 211.49956 212.43477 214.62512 217.74475 221.92064 227.26912 231.69987
 235.62901 239.95749 244.43036 248.67401 252.37318 255.68564 258.88193 262.03940
 265.00348 267.72153 270.17038 272.36267 274.34531 276.10147 277.69952 279.17599
 280.51428 281.71365 282.80820 283.87338 284.96176 286.01132 286.98141 287.85416
 288.62848 289.32062 289.95215 290.77661
 366.78100 356.34385 345.78470 334.65955 323.07140 311.27425 299.15310 286.96494
 274.68579 262.59164 250.60949 239.91934 230.05019 221.16304 213.35389 206.36474
 200.20759 195.15444 191.74529 189.79614 188.84198 188.91483 189.75868 191.07553
 192.80938 194.91323 197.18508 199.55293 202.00678 204.49563 206.59248 208.44333
 210.07818 211.23202 211.46987 211.70672 211.65257 211.36642 211.00827 210.64712
 210.27297 209.99182 209.80867 209.68152 209.61837 209.95822 210.35306 210.75091
 211.55276 212.73961 213.99846 215.79031 217.72716 219.77901 221.88286 223.97471
 226.04356 228.13641 230.24226 232.35710 234.49495 236.67580 238.94065 241.31950
 243.94935 246.20920 248.22005 249.99390 251.41975 252.55160 253.38245 253.70730
 253.75314 253.53599 252.90484 251.86169 250.47654 248.64639 246.56424 244.40609
 242.20594 240.01879 237.84764 235.69549 233.56434 231.44018 229.47503 227.64088
 225.93273 224.41358 223.05243 221.83328 220.72413 219.69298 218.80583 217.95568
 217.20653 216.39538 215.50222 214.87507 214.33392 214.06216 213.42010 212.39819
 211.99246 211.48196 212.33670 214.60413 217.72946 221.90884 227.22896 231.70825
 235.60178 239.93706 244.40636 248.64998 252.37495 255.72054 258.92746 262.06598
 265.00754 267.71234 270.15723 272.35559 274.32117 276.03729 277.57709 278.99426
 280.29819 281.50601 282.67932 283.88864 285.04724 286.09845 287.06998 287.93192
 288.71027 289.44046 290.09662 290.93280
 366.78100 356.34421 345.78541 334.66062 323.07283 311.27603 299.15524 286.96745
 274.68865 262.59486 250.61307 239.92327 230.05448 221.16769 213.35889 206.37010
 200.21331 195.16051 191.75172 189.80293 188.84913 188.92234 189.76655 191.08375
 192.81796 194.92216 197.19437 199.56258 202.01678 204.50599 206.60320 208.45440
 210.08961 211.24382 211.48202 211.71923 211.66544 211.37964 211.02185 210.66106
 210.28726 210.00647 209.82368 209.69688 209.63409 209.97430 210.36950 210.76771
 211.56992 212.75712 214.01633 215.80854 217.74574 219.79795 221.90216 223.99436
 226.06357 228.15678 230.26298 232.37819 234.51640 236.69760 238.96281 241.34202
 243.97222 246.23243 248.24364 250.01784 251.44405 252.57626 253.40746 253.73267
 253.77887 253.56208 252.93129 251.88849 250.50370 248.67391 246.59211 244.43432
 242.23453 240.04773 237.87694 235.72515 233.59435 231.47056 229.50577 227.67197
 225.96418 224.44539 223.08459 221.86580 220.75701 219.72621 218.83942 217.98963
 217.24083 216.43004 215.53725 214.91045 214.36966 214.08025 213.39650 212.52803
 212.05971 211.42230 212.18660 214.55930 217.72156 221.92384 227.24469 231.71777
 235.59016 239.91138 244.36920 248.60239 252.32878 255.70326 258.94196 262.09338
 265.03137 267.73306 270.17758 272.35812 274.31348 275.98215 277.47516 278.86813
 280.17288 281.40195 282.61404 283.83466 284.98895 286.03766 287.00101 287.86194
 288.64886 289.38766 290.06616 290.93082
 366.78100 356.34502 345.78704 334.66306 323.07609 311.28011 299.16013 286.97315
 274.69517 262.60219 250.62121 239.93223 230.06426 221.17828 213.37030 206.38232
 200.22634 195.17436 191.76638 189.81840 188.86543 188.93945 189.78447 191.10249
 192.83751 194.94253 197.21555 199.58457 202.03960 204.52962 206.62764 208.47966
 210.11568 211.27070 211.50972 211.74774 211.69477 211.40979 211.05281 210.69283
 210.31985 210.03987 209.85789 209.73191 209.66994 210.01096 210.40698 210.80600
 211.60902 212.79704 214.05706 215.85008 217.78811 219.84113 221.94615 224.03917
 226.10919 228.20321 230.31023 232.42625 234.56528 236.74730 239.01332 241.39334
 244.02436 246.28538 248.29740 250.07242 251.49945 252.63247 253.46449 253.79051
 253.83753 253.62155 252.99157 251.94959 250.56562 248.73664 246.65566 244.49868
 242.29970 240.11372 237.94374 235.79276 233.66279 231.53981 229.57583 227.74285
 226.03587 224.51789 223.15791 221.93993 220.83196 219.80198 218.91600 218.06702
 217.31904 216.50906 215.61708 214.99110 214.45113 214.12408 213.35143 212.65373
 212.17513 211.35738 212.02112 214.49062 217.73055 221.95018 227.26414 231.76184
 235.59569 239.90154 244.33214 248.52867 252.22957 255.61937 258.89508 262.07056
 265.01190 267.70798 270.15430 272.33994 274.25296 275.88620 277.37173 278.79694
 280.16159 281.44513 282.65164 283.80597 284.93314 285.97745 286.94394 287.81332
 288.60724 289.36508 290.05347 290.93076
 366.78100 356.34507 345.78713 334.66320 323.07627 311.28033 299.16040 286.97347
 274.69553 262.60260 250.62167 239.93273 230.06480 221.17887 213.37093 206.38300
 200.22707 195.17513 191.76720 189.81927 188.86633 188.94040 189.78546 191.10353
 192.83860 194.94366 197.21673 199.58580 202.04086 204.53093 206.62900 208.48106
 210.11713 211.27220 211.51126 211.74933 211.69640 211.41146 211.05453 210.69460
 210.32166 210.04173 209.85980 209.73386 209.67193 210.01300 210.40906 210.80813
 211.61120 212.79926 214.05933 215.85240 217.79046 219.84353 221.94860 224.04166
 226.11173 228.20580 230.31286 232.42893 234.56799 236.75006 239.01613 241.39619
 244.02726 246.28833 248.30039 250.07546 251.50253 252.63559 253.46766 253.79373
 253.84079 253.62486 252.99493 251.95299 250.56906 248.74013 246.65919 244.50226
 242.30333 240.11739 237.94746 235.79653 233.66659 231.54366 229.57973 227.74679
 226.03986 224.52193 223.16199 221.94406 220.83613 219.80619 218.92026 218.07133
 217.32339 216.51346 215.62152 214.99559 214.45566 214.13243 213.36835 212.70822
 212.28008 211.34459 211.90628 214.39323 217.69563 221.93298 227.25514 231.79970
 235.61671 239.92062 244.33430 248.50446 252.18474 255.57697 258.87122 262.06189
 265.00235 267.68793 270.12717 272.30746 274.16373 275.75040 277.21671 278.68430
 280.12253 281.46906 282.70560 283.88675 285.04388 286.09448 287.06564 287.94232
 288.74472 289.51889 290.20151 291.07141
 366.78100 356.34565 345.78829 334.66494 323.07858 311.28323 299.16387 286.97752
 274.70016 262.60781 250.62745 239.93910 230.07174 221.18639 213.37903 206.39168
 200.23632 195.18497 191.77761 189.83026 188.87790 188.95255 189.79819 191.11684
 192.85248 194.95813 197.23178 199.60142 202.05707 204.54771 206.64636 208.49900
 210.13565 211.29129 211.53094 211.76958 211.71723 211.43287 211.07652 210.71716
 210.34481 210.06545 209.88410 209.75874 209.69739 210.03903 210.43568 210.83532
 211.63897 212.82761 214.08826 215.88190 217.82055 219.87420 221.97984 224.07349
 226.14413 228.23878 230.34642 232.46307 234.60271 236.78536 239.05200 241.43265
 244.06429 246.32594 248.33858 250.11423 251.54187 252.67552 253.50816 253.83481
 253.88245 253.66710 253.03774 251.99639 250.61303 248.78468 246.70433 244.54797
 242.34962 240.16426 237.99491 235.84455 233.71520 231.59284 229.62949 227.79713
 226.09078 224.57342 223.21407 221.99671 220.88936 219.86000 218.97465 218.12629
 217.37894 216.56958 215.67823 215.05287 214.51352 214.16650 213.34731 212.82051
 212.34547 211.32613 211.86482 214.30191 217.61621 221.86026 227.19807 231.78856
 235.61241 239.92857 244.34244 248.50423 252.18135 255.57590 258.87909 262.07819
 265.02081 267.69150 270.11703 272.29227 274.08569 275.58011 277.02829 278.53845
 280.02411 281.40485 282.70380 284.00171 285.16956 286.22470 287.19711 288.07349
 288.89542 289.66949 290.34576 291.20755
 366.78100 356.34586 345.78872 334.66558 323.07944 311.28429 299.16515 286.97901
 274.70187 262.60973 250.62959 239.94145 230.07431 221.18917 213.38203 206.39488
 200.23974 195.18860 191.78146 189.83432 188.88218 188.95704 189.80290 191.12176
 192.85762 194.96347 197.23733 199.60719 202.06305 204.55391 206.65277 208.50563
 210.14249 211.29835 211.53820 211.77706 211.72492 211.44078 211.08464 210.72550
 210.35336 210.07422 209.89308 209.76794 209.70679 210.04865 210.44551 210.84537
 211.64923 212.83809 214.09895 215.89281 217.83167 219.88553 221.99138 224.08524
 226.15610 228.25096 230.35882 232.47568 234.61554 236.79840 239.06526 241.44612
 244.07797 246.33983 248.35269 250.12855 251.55641 252.69027 253.52313 253.84999
 253.89785 253.68270 253.05356 252.01242 250.62928 248.80114 246.72100 244.56486
 242.36672 240.18158 238.01244 235.86229 233.73315 231.61101 229.64787 227.81573
 226.10959 224.59245 223.23331 222.01617 220.90903 219.87988 218.99474 218.14660
 217.39946 216.59032 215.69918 215.07404 214.53490 214.18675 213.36787 212.90559
 212.36026 211.32614 211.81831 214.18933 217.54370 221.79648 227.13274 231.77682
 235.60373 239.92865 244.33946 248.48859 252.17924 255.59409 258.91440 262.11304
 265.05533 267.70816 270.10977 272.21310 273.99524 275.47015 276.91827 278.43381
 279.93900 281.34641 282.71896 283.97290 285.13266 286.19272 287.16940 288.07825
 288.93115 289.69070 290.35419 291.19977
 366.78100 356.34461 345.78621 334.66182 323.07442 311.27803 299.15763 286.97024
 274.69184 262.59845 250.61706 239.92766 230.05927 221.17287 213.36448 206.37608
 200.21969 195.16730 191.75890 189.81051 188.85711 188.93072 189.77532 191.09293
 192.82753 194.93214 197.20475 199.57335 202.02796 204.51756 206.61517 208.46677
 210.10238 211.25699 211.49559 211.73320 211.67980 211.39441 211.03701 210.67662
 210.30322 210.02283 209.84044 209.71404 209.65165 209.99225 210.38786 210.78646
 211.58907 212.77667 214.03628 215.82889 217.76649 219.81910 221.92370 224.01631
 226.08591 228.17952 230.28613 232.40173 234.54034 236.72194 238.98755 241.36715
 243.99776 246.25836 248.26997 250.04458 251.47118 252.60379 253.43539 253.76100
 253.80760 253.59121 252.96082 251.91842 250.53403 248.70463 246.62324 244.46584
 242.26645 240.08005 237.90966 235.75827 233.62787 231.50448 229.54008 227.70669
 225.99929 224.48090 223.12051 221.90211 220.79372 219.76332 218.87693 218.02753
 217.27914 216.46874 215.57635 214.94996 214.40956 214.13625 213.48439 212.88901
 212.40614 211.31418 211.72083 214.06551 217.47763 221.75577 227.11197 231.78975
 235.61705 239.94089 244.35246 248.49219 252.18704 255.60634 258.93524 262.14587
 265.10205 267.74152 270.12418 272.22678 273.98022 275.35263 276.78418 278.37704
 279.85162 281.22299 282.59317 283.91443 285.10748 286.19733 287.26031 288.27197
 289.18185 289.99210 290.69992 291.60193
 366.78100 356.34240 345.78179 334.65519 323.06559 311.26699 299.14438 286.95478
 274.67418 262.57858 250.59497 239.90337 230.03277 221.14417 213.33356 206.34296
 200.18436 195.12976 191.71915 189.76855 188.81295 188.88434 189.72674 191.04214
 192.77454 194.87693 197.14733 199.51373 201.96613 204.45352 206.54892 208.39832
 210.03172 211.18411 211.42051 211.65591 211.60030 211.31270 210.95310 210.59050
 210.21489 209.93229 209.74769 209.61909 209.55448 209.89288 210.28628 210.68268
 211.48307 212.66847 213.92587 215.71627 217.65166 219.70206 221.80446 223.89485
 225.96225 228.05365 230.15805 232.27144 234.40784 236.58724 238.85064 241.22803
 243.85643 246.11483 248.12423 249.89662 251.32102 252.45142 253.28082 253.60421
 253.64861 253.43001 252.79740 251.75280 250.36620 248.53460 246.45099 244.29139
 242.08979 239.90119 237.72858 235.57498 233.44238 231.31678 229.35017 227.51457
 225.80497 224.28437 222.92176 221.70116 220.59056 219.55795 218.66935 217.81775
 217.06715 216.25454 215.35994 214.73134 214.18874 214.04922 213.66032 212.81410
 212.47783 211.57646 211.86635 214.05547 217.43239 221.69446 227.06039 231.71881
 235.58090 239.90584 244.31712 248.43355 252.12526 255.56546 258.92990 262.18060
 265.16772 267.81589 270.19611 272.28076 273.95209 275.29404 276.73810 278.30640
 279.79095 281.17197 282.54272 283.92697 285.23828 286.52545 287.69977 288.76364
 289.72046 290.57251 291.31686 292.26544
 366.78100 356.34189 345.78078 334.65368 323.06357 311.26446 299.14135 286.95124
 274.67014 262.57403 250.58992 239.89781 230.02671 221.13760 213.32649 206.33538
 200.17627 195.12117 191.71006 189.75895 188.80284 188.87373 189.71563 191.03052
 192.76241 194.86430 197.13420 199.50009 201.95198 204.43887 206.53376 208.38266
 210.01555 211.16744 211.40333 211.63822 211.58212 211.29401 210.93390 210.57079
 210.19469 209.91158 209.72647 209.59736 209.53225 209.87015 210.26304 210.65893
 211.45882 212.64371 213.90061 215.69050 217.62539 219.67528 221.77718 223.86707
 225.93396 228.02485 230.12874 232.24164 234.37753 236.55642 238.81931 241.19620
 243.82410 246.08199 248.09088 249.86277 251.28667 252.41656 253.24545 253.56834
 253.61223 253.39313 252.76002 251.71491 250.32780 248.49569 246.41159 244.25148
 242.04937 239.86026 237.68716 235.53305 233.39994 231.27383 229.30672 227.47062
 225.76051 224.23940 222.87629 221.65518 220.54408 219.51097 218.62186 217.76975
 217.01865 216.20554 215.31043 214.68132 214.13821 214.02945 213.71332 212.94272
 212.30348 211.77139 212.13351 214.06963 217.32799 221.58392 226.95395 231.62820
 235.52347 239.85229 244.25345 248.34831 252.02197 255.47438 258.87723 262.17227
 265.20898 267.92029 270.35574 272.46863 274.11902 275.44455 276.88727 278.43692
 279.93222 281.33118 282.85510 284.30545 285.80869 287.17517 288.42188 289.55130
 290.56711 291.47168 292.26190 293.26892
 366.78100 356.34352 345.78404 334.65856 323.07008 311.27260 299.15112 286.96264
 274.68316 262.58868 250.60620 239.91572 230.04624 221.15876 213.34928 206.35979
 200.20231 195.14883 191.73935 189.78987 188.83539 188.90791 189.75143 191.06795
 192.80147 194.90499 197.17651 199.54403 201.99755 204.48607 206.58259 208.43311
 210.06763 211.22115 211.45867 211.69519 211.64071 211.35423 210.99575 210.63427
 210.25979 209.97831 209.79483 209.66734 209.60386 209.94338 210.33790 210.73542
 211.53694 212.72346 213.98198 215.77350 217.71002 219.76154 221.86506 223.95658
 226.02510 228.11762 230.22314 232.33766 234.47518 236.65570 238.92022 241.29874
 243.92826 246.18778 248.19830 249.97182 251.39734 252.52886 253.35938 253.68389
 253.72941 253.51193 252.88045 251.83697 250.45149 248.62101 246.53853 244.38005
 242.17957 239.99209 237.82061 235.66813 233.53665 231.41217 229.44669 227.61221
 225.90373 224.38425 223.02277 221.80329 220.69381 219.66233 218.77485 217.92437
 217.17489 216.36341 215.46993 214.84244 214.30096 214.10738 213.64464 213.17671
 212.27405 211.52744 212.17813 214.25058 217.40445 221.58427 226.92369 231.58725
 235.49606 239.83217 244.22858 248.31535 251.95239 255.34752 258.70255 261.99277
 265.06219 267.81653 270.29910 272.47433 274.14066 275.39145 276.82492 278.46014
 279.96451 281.61002 283.17065 284.59686 285.99869 287.25607 288.40326 289.44250
 290.37723 291.20959 291.93671 292.86337
 366.78100 356.34514 345.78727 334.66341 323.07654 311.28068 299.16081 286.97395
 274.69608 262.60322 250.62235 239.93349 230.06562 221.17976 213.37190 206.38403
 200.22817 195.17630 191.76844 189.82057 188.86771 188.94184 189.78698 191.10511
 192.84025 194.94538 197.21852 199.58766 202.04279 204.53293 206.63106 208.48320
 210.11933 211.27447 211.51360 211.75174 211.69887 211.41401 211.05715 210.69728
 210.32442 210.04455 209.86269 209.73682 209.67496 210.01609 210.41223 210.81136
 211.61450 212.80263 214.06277 215.85591 217.79404 219.84718 221.95231 224.04545
 226.11558 228.20972 230.31685 232.43299 234.57212 236.75426 239.02039 241.40053
 244.03167 246.29280 248.30494 250.08007 251.50721 252.64034 253.47248 253.79861
 253.84575 253.62988 253.00002 251.95815 250.57429 248.74543 246.66456 244.50770
 242.30883 240.12297 237.95310 235.80224 233.67237 231.54951 229.58564 227.75278
 226.04591 224.52805 223.16819 221.95032 220.84246 219.81259 218.92673 218.07786
 217.33000 216.52013 215.62827 215.00240 214.46254 214.22185 213.64529 213.16898
 212.36203 211.48318 212.15141 214.35310 217.50763 221.63808 227.00797 231.62573
 235.49911 239.80313 244.14941 248.21127 251.89363 255.35031 258.71338 261.96771
 264.97842 267.70135 270.14697 272.22351 273.76224 275.10074 276.58362 278.30655
 280.32303 282.25995 284.17825 285.86267 287.32037 288.61008 289.78674 290.85272
 291.81143 292.66519 293.41101 294.36148
 366.78100 356.34634 345.78967 334.66701 323.08135 311.28668 299.16802 286.98235
 274.70569 262.61403 250.63436 239.94670 230.08004 221.19537 213.38871 206.40204
 200.24738 195.19672 191.79005 189.84339 188.89173 188.96706 189.81340 191.13273
 192.86907 194.97541 197.24974 199.62008 202.07642 204.56775 206.66709 208.52042
 210.15776 211.31410 211.55443 211.79377 211.74211 211.45844 211.10278 210.74411
 210.37245 210.09379 209.91312 209.78846 209.72780 210.07013 210.46747 210.86780
 211.67214 212.86148 214.12281 215.91715 217.85649 219.91082 222.01716 224.11149
 226.18283 228.27817 230.38650 232.50384 234.64418 236.82751 239.09485 241.47618
 244.10852 246.37086 248.38419 250.16053 251.58887 252.72320 253.55654 253.88387
 253.93221 253.71755 253.08888 252.04822 250.66556 248.83789 246.75823 244.60256
 242.40490 240.22024 238.05157 235.90191 233.77325 231.65158 229.68892 227.85725
 226.15159 224.63493 223.27626 222.05960 220.95294 219.92427 219.03961 218.19195
 217.44528 216.63662 215.74595 215.12129 214.58263 214.30865 213.65103 213.19482
 212.41632 211.39314 211.91985 214.31723 217.57390 221.65082 227.03407 231.64680
 235.50974 239.80472 244.14836 248.23213 251.95807 255.46918 258.87836 262.14874
 265.17480 267.89902 270.29788 272.28024 273.69440 274.84619 276.42932 278.41400
 280.69720 282.83636 284.68744 286.31281 287.71942 288.96393 290.09933 291.12796
 292.05307 292.87689 293.59659 294.51373
 366.78100 356.34704 345.79109 334.66913 323.08418 311.29022 299.17227 286.98731
 274.71136 262.62040 250.64145 239.95449 230.08853 221.20458 213.39862 206.41267
 200.25871 195.20876 191.80280 189.85685 188.90589 188.98194 189.82898 191.14903
 192.88607 194.99311 197.26816 199.63920 202.09625 204.58829 206.68834 208.54238
 210.18043 211.33747 211.57852 211.81856 211.76760 211.48465 211.12969 210.77174
 210.40078 210.12283 209.94287 209.81892 209.75896 210.10201 210.50005 210.90110
 211.70614 212.89618 214.15823 215.95327 217.89332 219.94836 222.05541 224.15045
 226.22250 228.31854 230.42759 232.54563 234.68667 236.87072 239.13876 241.52081
 244.15385 246.41690 248.43094 250.20799 251.63703 252.77208 253.60612 253.93416
 253.98321 253.76925 253.14130 252.10134 250.71939 248.89243 246.81348 244.65852
 242.46157 240.27761 238.10966 235.96070 233.83274 231.71179 229.74983 227.91888
 226.21392 224.69797 223.34001 222.12406 221.01810 219.99015 219.10619 218.25923
 217.51328 216.70532 215.81537 215.19141 214.65346 214.34879 213.65569 213.30783
 212.58565 211.44157 211.69698 214.04890 217.44373 221.63173 227.00848 231.61688
 235.46304 239.73456 244.04874 248.11487 251.85791 255.42484 258.90570 262.24716
 265.34589 268.12729 270.56461 272.59698 273.99796 274.90982 276.32913 278.34787
 280.59573 282.83932 284.78082 286.48557 287.96088 289.26617 290.45703 291.53589
 292.50616 293.37024 294.12506 295.08701
 366.78100 356.34668 345.79035 334.66803 323.08270 311.28838 299.17005 286.98473
 274.70840 262.61708 250.63775 239.95043 230.08410 221.19978 213.39345 206.40713
 200.25280 195.20248 191.79615 189.84983 188.89850 188.97418 189.82085 191.14053
 192.87720 194.98388 197.25855 199.62923 202.08590 204.57758 206.67725 208.53093
 210.16861 211.32528 211.56596 211.80563 211.75431 211.47098 211.11566 210.75733
 210.38601 210.10768 209.92736 209.80303 209.74271 210.08538 210.48306 210.88373
 211.68841 212.87808 214.13976 215.93443 217.87411 219.92878 222.03546 224.13013
 226.20181 228.29748 230.40616 232.52383 234.66451 236.84818 239.11586 241.49754
 244.13021 246.39289 248.40656 250.18324 251.61191 252.74659 253.58026 253.90794
 253.95661 253.74229 253.11396 252.07364 250.69131 248.86399 246.78466 244.62934
 242.43201 240.24769 238.07936 235.93004 233.80171 231.68039 229.71806 227.88674
 226.18141 224.66509 223.30676 222.09044 220.98411 219.95579 219.07147 218.22414
 217.47782 216.66949 215.77917 215.15484 214.61652 214.35196 213.70116 213.28551
 212.76511 211.69672 211.62900 213.78809 217.23724 221.54192 226.93819 231.56819
 235.41127 239.66536 243.94911 247.98656 251.72273 255.31645 258.83945 262.22061
 265.36371 268.19250 270.67276 272.80344 274.33954 275.32239 276.32092 278.48523
 280.94644 283.47064 285.65488 287.57285 289.23264 290.70114 292.04095 293.25470
 294.34634 295.31845 296.16769 297.24991
 366.78100 356.34486 345.78671 334.66257 323.07543 311.27928 299.15914 286.97200
 274.69385 262.60071 250.61957 239.93042 230.06228 221.17614 213.36799 206.37985
 200.22371 195.17156 191.76342 189.81528 188.86213 188.93599 189.78085 191.09870
 192.83356 194.93842 197.21127 199.58013 202.03499 204.52484 206.62270 208.47456
 210.11041 211.26527 211.50413 211.74198 211.68884 211.40369 211.04655 210.68641
 210.31326 210.03312 209.85098 209.72483 209.66269 210.00355 210.39940 210.79826
 211.60112 212.78897 214.04883 215.84169 217.77954 219.83240 221.93726 224.03011
 226.09997 228.19383 230.30068 232.41654 234.55540 236.73725 239.00311 241.38297
 244.01382 246.27468 248.28654 250.06139 251.48825 252.62111 253.45296 253.77882
 253.82568 253.60953 252.97939 251.93725 250.55310 248.72396 246.64282 244.48567
 242.28653 240.10039 237.93024 235.77910 233.64896 231.52581 229.56167 227.72853
 226.02138 224.50324 223.14310 221.92495 220.81681 219.78667 218.90052 218.05138
 217.30324 216.49309 215.60095 214.97481 214.43466 214.28476 213.80504 213.12016
 212.74742 212.06342 211.92220 213.69891 217.04218 221.41820 226.80562 231.48216
 235.34317 239.60391 243.88077 247.90755 251.64340 255.25362 258.80963 262.22610
 265.40741 268.24771 270.72791 272.91736 274.58319 275.63568 276.53757 278.71616
 281.03287 283.45847 285.55740 287.40045 288.99545 290.40662 291.69406 292.86044
 293.90945 294.84360 295.65964 296.69962
 366.78100 356.34504 345.78707 334.66311 323.07614 311.28018 299.16022 286.97325
 274.69529 262.60232 250.62136 239.93240 230.06443 221.17847 213.37050 206.38254
 200.22657 195.17461 191.76665 189.81868 188.86572 188.93975 189.78479 191.10283
 192.83786 194.94290 197.21593 199.58497 202.04001 204.53004 206.62808 208.48011
 210.11615 211.27119 211.51022 211.74826 211.69529 211.41033 211.05336 210.69340
 210.32044 210.04047 209.85851 209.73254 209.67058 210.01162 210.40765 210.80669
 211.60972 212.79776 214.05780 215.85083 217.78887 219.84190 221.94694 224.03998
 226.11001 228.20405 230.31108 232.42712 234.56615 236.74819 239.01423 241.39426
 244.02530 246.28633 248.29837 250.07341 251.50044 252.63348 253.46551 253.79155
 253.83859 253.62262 252.99266 251.95069 250.56673 248.73777 246.65680 244.49984
 242.30087 240.11491 237.94494 235.79398 233.66402 231.54105 229.57709 227.74412
 226.03716 224.51920 223.15923 221.94127 220.83330 219.80334 218.91738 218.06841
 217.32045 216.51048 215.61852 214.99256 214.45259 214.28897 213.83272 213.12064
 212.52531 212.16948 212.37961 213.93182 217.00397 221.38492 226.63918 231.37503
 235.23322 239.48979 243.74355 247.75342 251.49751 255.13484 258.71539 262.15707
 265.36316 268.17258 270.59009 272.70981 274.41562 275.74640 277.02258 278.78558
 280.93216 282.89462 284.92368 286.70535 288.24725 289.61142 290.85602 291.98355
 292.99762 293.90067 294.68954 295.69489
 366.78100 356.34698 345.79097 334.66895 323.08393 311.28992 299.17190 286.98689
 274.71087 262.61985 250.64084 239.95382 230.08780 221.20379 213.39777 206.41176
 200.25774 195.20772 191.80171 189.85569 188.90467 188.98066 189.82764 191.14762
 192.88461 194.99159 197.26658 199.63756 202.09454 204.58653 206.68651 208.54049
 210.17848 211.33546 211.57645 211.81643 211.76541 211.48240 211.12738 210.76936
 210.39835 210.12033 209.94032 209.81630 209.75628 210.09927 210.49725 210.89823
 211.70322 212.89320 214.15518 215.95017 217.89015 219.94514 222.05212 224.14710
 226.21909 228.31507 230.42405 232.54204 234.68302 236.86701 239.13499 241.51697
 244.14996 246.41294 248.42692 250.20391 251.63289 252.76787 253.60186 253.92984
 253.97883 253.76481 253.13679 252.09678 250.71476 248.88774 246.80873 244.65371
 242.45670 240.27268 238.10466 235.95565 233.82763 231.70661 229.74460 227.91358
 226.20857 224.69255 223.33453 222.11852 221.01250 219.98448 219.10047 218.25345
 217.50743 216.69942 215.80940 215.18539 214.64737 214.37801 213.75894 213.29486
 212.39935 211.85614 212.38585 214.23154 217.25125 221.48091 226.65038 231.36507
 235.20943 239.46707 243.70410 247.68343 251.39465 255.02805 258.63080 262.09708
 265.31158 268.10654 270.41980 272.38467 274.04816 275.53278 277.12878 278.79584
 280.81192 282.68915 284.40366 286.10010 287.56821 288.86713 290.05219 291.12576
 292.09131 292.95117 293.70230 294.65955
 366.78100 356.34671 345.79042 334.66813 323.08284 311.28854 299.17025 286.98496
 274.70867 262.61738 250.63809 239.95080 230.08451 221.20022 213.39392 206.40763
 200.25334 195.20305 191.79676 189.85047 188.89918 188.97489 189.82160 191.14130
 192.87801 194.98472 197.25943 199.63014 202.08685 204.57856 206.67827 208.53198
 210.16968 211.32639 211.56710 211.80681 211.75552 211.47223 211.11694 210.75865
 210.38736 210.10906 209.92877 209.80448 209.74419 210.08690 210.48461 210.88532
 211.69003 212.87974 214.14144 215.93615 217.87586 219.93057 222.03728 224.13199
 226.20370 228.29941 230.40812 232.52582 234.66653 236.85024 239.11795 241.49966
 244.13237 246.39508 248.40879 250.18550 251.61420 252.74891 253.58262 253.91033
 253.95904 253.74475 253.11646 252.07617 250.69388 248.86658 246.78729 244.63200
 242.43471 240.25042 238.08213 235.93284 233.80455 231.68326 229.72096 227.88967
 226.18438 224.66809 223.30980 222.09351 220.98722 219.95893 219.07464 218.22734
 217.48105 216.67276 215.78247 215.15818 214.61989 214.37029 213.79370 213.38327
 212.47771 211.55109 212.03081 214.17964 217.38014 221.58543 226.77130 231.44388
 235.28192 239.54250 243.78828 247.76382 251.43800 255.04016 258.63266 262.10510
 265.34796 268.16049 270.42325 272.26511 273.81244 275.31146 277.10306 278.99692
 280.76117 282.58200 284.23959 285.78931 287.18738 288.42435 289.55289 290.57526
 291.49475 292.31360 293.02890 293.94049
 366.78100 356.34357 345.78415 334.65872 323.07030 311.27287 299.15145 286.96302
 274.68360 262.58917 250.60674 239.91632 230.04689 221.15947 213.35004 206.36062
 200.20319 195.14977 191.74034 189.79091 188.83649 188.90906 189.75264 191.06921
 192.80279 194.90636 197.17793 199.54551 201.99908 204.48766 206.58423 208.43481
 210.06938 211.22296 211.46053 211.69710 211.64268 211.35625 210.99783 210.63640
 210.26198 209.98055 209.79713 209.66970 209.60627 209.94585 210.34042 210.73800
 211.53957 212.72615 213.98472 215.77630 217.71287 219.76444 221.86802 223.95959
 226.02817 228.12074 230.22632 232.34089 234.47847 236.65904 238.92361 241.30219
 243.93176 246.19134 248.20191 249.97549 251.40106 252.53264 253.36321 253.68778
 253.73336 253.51593 252.88451 251.84108 250.45566 248.62523 246.54280 244.38438
 242.18395 239.99653 237.82510 235.67268 233.54125 231.41683 229.45140 227.61697
 225.90855 224.38912 223.02770 221.80827 220.69885 219.66742 218.78000 217.92957
 217.18014 216.36872 215.47529 214.84787 214.30644 214.22504 213.97923 213.33150
 212.64514 211.54469 211.73351 213.87973 217.24847 221.54237 226.77544 231.46358
 235.32132 239.57954 243.83397 247.82950 251.49547 255.06866 258.63800 262.09860
 265.37186 268.25491 270.56046 272.37006 273.83792 275.27597 277.06705 279.09802
 280.91974 282.58847 284.16629 285.58026 286.95163 288.16495 289.27188 290.27472
 291.17667 291.97983 292.68146 293.57562
 366.78100 356.34047 345.77793 334.64940 323.05786 311.25733 299.13280 286.94126
 274.65873 262.56119 250.57566 239.88212 230.00959 221.11906 213.30652 206.31399
 200.15345 195.09692 191.68439 189.73185 188.77432 188.84378 189.68425 190.99772
 192.72818 194.82865 197.09711 199.46158 201.91205 204.39751 206.49098 208.33844
 209.96991 211.12037 211.35484 211.58831 211.53077 211.24124 210.87970 210.51517
 210.13764 209.85310 209.66657 209.53603 209.46950 209.80597 210.19743 210.59190
 211.39036 212.57383 213.82930 215.61776 217.55123 219.59969 221.70016 223.78862
 225.85409 227.94356 230.04602 232.15749 234.29195 236.46942 238.73089 241.10635
 243.73282 245.98928 247.99675 249.76722 251.18968 252.31815 253.14561 253.46708
 253.50954 253.28901 252.65448 251.60794 250.21941 248.38587 246.30034 244.13881
 241.93527 239.74474 237.57020 235.41467 233.28014 231.15260 229.18407 227.34653
 225.63500 224.11247 222.74793 221.52540 220.41286 219.37833 218.48779 217.63426
 216.88173 216.06719 215.17066 214.54012 213.99559 214.08339 214.18576 213.21364
 212.68074 211.86900 211.75049 213.59885 216.98581 221.36665 226.65207 231.37979
 235.26761 239.53413 243.79799 247.81010 251.49969 255.07196 258.61127 262.04016
 265.32220 268.26434 270.65381 272.51935 273.99905 275.36032 277.10757 279.10501
 281.05875 282.68295 284.20587 285.57724 286.87854 288.09879 289.21204 290.22061
 291.12769 291.93542 292.64108 293.54034
 366.78100 356.34098 345.77896 334.65094 323.05993 311.25991 299.13589 286.94487
 274.66285 262.56583 250.58082 239.88780 230.01578 221.12576 213.31374 206.32172
 200.16171 195.10569 191.69367 189.74165 188.78463 188.85461 189.69560 191.00958
 192.74056 194.84154 197.11052 199.47550 201.92649 204.41247 206.50645 208.35443
 209.98641 211.13739 211.37238 211.60636 211.54934 211.26032 210.89930 210.53528
 210.15827 209.87425 209.68823 209.55821 209.49219 209.82917 210.22116 210.61614
 211.41512 212.59910 213.85508 215.64406 217.57805 219.62703 221.72801 223.81699
 225.88297 227.97295 230.07594 232.18792 234.32290 236.50088 238.76286 241.13884
 243.76583 246.02281 248.03079 249.80177 251.22475 252.35373 253.18172 253.50370
 253.54668 253.32666 252.69264 251.64662 250.25861 248.42559 246.34057 244.17955
 241.97653 239.78651 237.61250 235.45748 233.32346 231.19644 229.22842 227.39140
 225.68039 224.15837 222.79435 221.57233 220.46031 219.42629 218.53628 217.68326
 216.93124 216.11722 215.22120 214.59118 214.04716 214.12015 214.19881 213.26933
 212.50363 212.05878 212.08031 213.63963 216.84744 221.22577 226.50603 231.25735
 235.16193 239.43872 243.71252 247.74899 251.48048 255.09071 258.63217 262.02115
 265.26733 268.20303 270.63544 272.55536 274.05429 275.43347 277.17963 279.14828
 281.09161 282.73447 284.23761 285.61072 286.90311 288.10147 289.19476 290.18521
 291.07602 291.86929 292.56229 293.44540
 366.78100 356.34372 345.78445 334.65917 323.07089 311.27361 299.15234 286.96406
 274.68478 262.59050 250.60823 239.91795 230.04867 221.16139 213.35212 206.36284
 200.20556 195.15228 191.74301 189.79373 188.83945 188.91217 189.75590 191.07262
 192.80634 194.91006 197.18179 199.54951 202.00323 204.49195 206.58868 208.43940
 210.07412 211.22785 211.46557 211.70229 211.64801 211.36174 211.00346 210.64218
 210.26790 209.98663 209.80335 209.67607 209.61279 209.95252 210.34724 210.74496
 211.54668 212.73341 213.99213 215.78385 217.72057 219.77230 221.87602 223.96774
 226.03646 228.12919 230.23491 232.34963 234.48736 236.66808 238.93280 241.31152
 243.94125 246.20097 248.21169 249.98541 251.41114 252.54286 253.37358 253.69830
 253.74403 253.52675 252.89547 251.85219 250.46692 248.63664 246.55436 244.39608
 242.19581 240.00853 237.83725 235.68497 233.55370 231.42942 229.46414 227.62986
 225.92159 224.40231 223.04103 221.82176 220.71248 219.68120 218.79392 217.94365
 217.19437 216.38309 215.48981 214.86254 214.32126 214.26428 214.09279 213.49104
 212.35226 211.90912 212.31900 213.89694 216.92200 221.19911 226.43576 231.16853
 235.05945 239.33070 243.59700 247.64900 251.42302 255.10536 258.69125 262.08499
 265.29510 268.18997 270.61758 272.55460 274.03372 275.45319 277.19519 279.19122
 281.08795 282.76566 284.33127 285.76205 287.10733 288.29755 289.38342 290.36716
 291.25192 292.03983 292.72809 293.60526
 366.78100 356.34433 345.78567 334.66100 323.07334 311.27667 299.15601 286.96834
 274.68967 262.59601 250.61434 239.92468 230.05601 221.16935 213.36068 206.37201
 200.21535 195.16268 191.75402 189.80535 188.85169 188.92502 189.76935 191.08669
 192.82102 194.92536 197.19769 199.56603 202.02036 204.50969 206.60703 208.45836
 210.09370 211.24803 211.48637 211.72370 211.67004 211.38437 211.02670 210.66604
 210.29237 210.01171 209.82904 209.70238 209.63971 209.98004 210.37538 210.77371
 211.57605 212.76338 214.02272 215.81505 217.75238 219.80472 221.90905 224.00139
 226.07072 228.16406 230.27039 232.38572 234.52406 236.70539 238.97073 241.35006
 243.98040 246.24073 248.25206 250.02640 251.45273 252.58507 253.41640 253.74174
 253.78807 253.57140 252.94074 251.89807 250.51341 248.68374 246.60208 244.44441
 242.24474 240.05808 237.88741 235.73575 233.60508 231.48142 229.51675 227.68308
 225.97542 224.45675 223.09609 221.87742 220.76876 219.73809 218.85143 218.00176
 217.25309 216.44243 215.54976 214.92310 214.38243 214.30444 214.10188 213.63011
 212.41345 211.64735 212.22429 214.05191 217.05936 221.25233 226.44421 231.12454
 234.98943 239.23297 243.47115 247.51297 251.32199 255.07112 258.71674 262.14279
 265.35770 268.24637 270.68201 272.64136 274.09073 275.46954 277.20370 279.21918
 281.08456 282.81189 284.39539 285.87186 287.22305 288.41852 289.50919 290.49725
 291.38593 292.17728 292.86859 293.74960
 366.78100 356.34336 345.78372 334.65808 323.06945 311.27181 299.15017 286.96153
 274.68189 262.58725 250.60461 239.91397 230.04434 221.15670 213.34706 206.35742
 200.19978 195.14614 191.73650 189.78686 188.83223 188.90459 189.74795 191.06431
 192.79767 194.90103 197.17239 199.53975 201.99312 204.48148 206.57784 208.42820
 210.06256 211.21592 211.45328 211.68964 211.63501 211.34837 210.98973 210.62809
 210.25345 209.97181 209.78817 209.66053 209.59690 209.93626 210.33062 210.72798
 211.52934 212.71570 213.97406 215.76542 217.70179 219.75315 221.85651 223.94787
 226.01623 228.10859 230.21395 232.32831 234.46568 236.64604 238.91040 241.28876
 243.91812 246.17748 248.18784 249.96120 251.38657 252.51793 253.34829 253.67265
 253.71801 253.50037 252.86873 251.82509 250.43946 248.60882 246.52618 244.36754
 242.16690 239.97926 237.80762 235.65498 233.52335 231.39871 229.43307 227.59843
 225.88979 224.37015 223.00851 221.78887 220.67924 219.64760 218.75996 217.90932
 217.15968 216.34804 215.45440 214.82676 214.28513 214.27637 214.19452 213.59471
 212.65833 211.59846 211.98624 213.98418 217.09842 221.29204 226.47774 231.11217
 234.95105 239.16315 243.36758 247.38300 251.20125 254.99159 258.68201 262.13974
 265.37350 268.27100 270.72696 272.72012 274.16776 275.50711 277.22861 279.23956
 281.12427 282.89853 284.49536 285.98935 287.32303 288.50302 289.57959 290.55487
 291.43204 292.21313 292.89551 293.76511
 366.78100 356.34260 345.78219 334.65579 323.06638 311.26798 299.14558 286.95617
 274.67577 262.58036 250.59696 239.90555 230.03515 221.14675 213.33634 206.34594
 200.18753 195.13313 191.72273 189.77232 188.81692 188.88851 189.73111 191.04671
 192.77930 194.88190 197.15249 199.51909 201.97168 204.45928 206.55488 208.40447
 210.03807 211.19066 211.42726 211.66286 211.60745 211.32005 210.96064 210.59824
 210.22284 209.94043 209.75603 209.62762 209.56322 209.90181 210.29541 210.69201
 211.49260 212.67820 213.93579 215.72639 217.66199 219.71258 221.81518 223.90577
 225.97337 228.06496 230.16956 232.28316 234.41975 236.59935 238.86294 241.24054
 243.86914 246.12773 248.13733 249.90992 251.33452 252.46512 253.29471 253.61831
 253.66290 253.44450 252.81209 251.76769 250.38129 248.54988 246.46648 244.30707
 242.10567 239.91727 237.74486 235.59146 233.45905 231.33365 229.36725 227.53184
 225.82244 224.30203 222.93963 221.71922 220.60882 219.57642 218.68801 217.83661
 217.08620 216.27380 215.37940 214.75099 214.20859 214.26424 214.28534 213.51813
 212.76656 211.74190 211.91617 213.84219 217.03038 221.28023 226.50902 231.12337
 234.94618 239.13959 243.32347 247.32619 251.14729 254.94740 258.64914 262.11731
 265.35477 268.24973 270.71503 272.70349 274.19540 275.54004 277.29437 279.27930
 281.20682 283.02921 284.65826 286.17447 287.49631 288.66580 289.73276 290.69937
 291.56876 292.34293 293.01923 293.88107
 366.78100 356.34313 345.78326 334.65739 323.06853 311.27066 299.14879 286.95992
 274.68005 262.58518 250.60232 239.91145 230.04158 221.15371 213.34384 206.35397
 200.19611 195.14224 191.73237 189.78250 188.82763 188.89976 189.74290 191.05903
 192.79216 194.89529 197.16642 199.53355 201.98669 204.47482 206.57095 208.42108
 210.05521 211.20834 211.44547 211.68161 211.62674 211.33987 210.98100 210.61913
 210.24426 209.96240 209.77853 209.65066 209.58679 209.92592 210.32005 210.71719
 211.51832 212.70445 213.96258 215.75371 217.68984 219.74098 221.84411 223.93524
 226.00337 228.09550 230.20063 232.31477 234.45190 236.63203 238.89616 241.27429
 243.90342 246.16255 248.17269 249.94582 251.37095 252.50208 253.33221 253.65634
 253.70148 253.48361 252.85174 251.80787 250.42200 248.59113 246.50827 244.34940
 242.14853 239.96066 237.78879 235.63592 233.50406 231.37919 229.41332 227.57845
 225.86958 224.34971 222.98785 221.76798 220.65811 219.62624 218.73837 217.88750
 217.13763 216.32577 215.43190 214.80403 214.26216 214.30876 214.31061 213.53770
 212.71951 211.83018 211.96458 213.74521 216.92706 221.22885 226.51096 231.13213
 234.95355 239.14079 243.32643 247.33255 251.15602 254.95200 258.64682 262.10580
 265.33145 268.21667 270.67969 272.66061 274.16272 275.52344 277.34268 279.35635
 281.32001 283.15530 284.79584 286.33154 287.66144 288.83807 289.91153 290.88403
 291.75870 292.53760 293.21802 294.08511
 366.78100 356.34422 345.78544 334.66066 323.07288 311.27610 299.15532 286.96754
 274.68876 262.59497 250.61319 239.92341 230.05463 221.16785 213.35907 206.37029
 200.21351 195.16073 191.75195 189.80317 188.84939 188.92261 189.76683 191.08405
 192.81827 194.92249 197.19470 199.56292 202.01714 204.50636 206.60358 208.45480
 210.09002 211.24424 211.48246 211.71968 211.66590 211.38012 211.02234 210.66156
 210.28778 210.00700 209.82422 209.69743 209.63465 209.97487 210.37009 210.76831
 211.57053 212.75775 214.01697 215.80919 217.74641 219.79863 221.90285 223.99507
 226.06429 228.15751 230.26373 232.37895 234.51716 236.69838 238.96360 241.34282
 243.97304 246.23326 248.24448 250.01870 251.44492 252.57714 253.40836 253.73358
 253.77980 253.56302 252.93224 251.88946 250.50468 248.67489 246.59311 244.43533
 242.23555 240.04877 237.87799 235.72621 233.59543 231.47165 229.50687 227.67309
 225.96531 224.44653 223.08575 221.86697 220.75819 219.72741 218.84062 217.99084
 217.24206 216.43128 215.53850 214.91172 214.37094 214.37958 214.31047 213.58730
 212.68880 211.89145 212.04938 213.70236 216.81424 221.13901 226.44858 231.09007
 234.91443 239.10358 243.29703 247.31926 251.16096 254.97379 258.67838 262.13065
 265.34738 268.22726 270.68204 272.66464 274.12811 275.40948 277.23019 279.30170
 281.39206 283.24313 284.89041 286.41110 287.72717 288.89154 289.95383 290.91620
 291.78177 292.55255 293.22586 294.08395
 366.78100 356.34413 345.78526 334.66039 323.07252 311.27565 299.15478 286.96691
 274.68804 262.59417 250.61230 239.92243 230.05356 221.16669 213.35782 206.36895
 200.21208 195.15920 191.75033 189.80146 188.84759 188.92072 189.76485 191.08198
 192.81611 194.92024 197.19237 199.56050 202.01463 204.50376 206.60089 208.45202
 210.08715 211.24128 211.47941 211.71654 211.66267 211.37680 211.01893 210.65806
 210.28419 210.00332 209.82045 209.69358 209.63071 209.97084 210.36597 210.76410
 211.56623 212.75335 214.01248 215.80461 217.74174 219.79387 221.89800 223.99013
 226.05926 228.15239 230.25852 232.37365 234.51178 236.69291 238.95804 241.33717
 243.96730 246.22743 248.23856 250.01269 251.43882 252.57095 253.40208 253.72721
 253.77334 253.55647 252.92560 251.88273 250.49786 248.66799 246.58612 244.42825
 242.22838 240.04150 237.87063 235.71876 233.58789 231.46402 229.49915 227.66528
 225.95741 224.43854 223.07767 221.85880 220.74993 219.71906 218.83219 217.98232
 217.23345 216.42258 215.52971 214.90284 214.36197 214.38878 214.36929 213.62373
 212.63168 211.93127 212.13101 213.72664 216.76131 221.06573 226.35294 231.01180
 234.84108 239.03233 243.23222 247.26912 251.13052 254.96773 258.69458 262.15070
 265.36569 268.26431 270.76251 272.81619 274.28409 275.52826 277.24097 279.22742
 281.09540 282.82703 284.41962 285.88864 287.18890 288.33929 289.38882 290.33966
 291.19482 291.95633 292.62158 293.46936
 366.78100 356.34337 345.78374 334.65810 323.06947 311.27184 299.15021 286.96158
 274.68194 262.58731 250.60468 239.91405 230.04442 221.15679 213.34715 206.35752
 200.19989 195.14626 191.73663 189.78699 188.83236 188.90473 189.74810 191.06447
 192.79783 194.90120 197.17257 199.53994 201.99331 204.48168 206.57804 208.42841
 210.06278 211.21615 211.45352 211.68988 211.63525 211.34862 210.98999 210.62836
 210.25372 209.97209 209.78846 209.66083 209.59720 209.93657 210.33093 210.72830
 211.52967 212.71604 213.97441 215.76577 217.70214 219.75351 221.85688 223.94825
 226.01661 228.10898 230.21435 232.32872 234.46609 236.64646 238.91082 241.28919
 243.91856 246.17793 248.18830 249.96166 251.38703 252.51840 253.34877 253.67314
 253.71850 253.50087 252.86924 251.82561 250.43998 248.60935 246.52671 244.36808
 242.16745 239.97982 237.80819 235.65555 233.52392 231.39929 229.43366 227.59903
 225.89039 224.37076 223.00913 221.78950 220.67987 219.64824 218.76060 217.90997
 217.16034 216.34871 215.45508 214.82744 214.28581 214.36401 214.46312 213.68814
 212.58380 211.88000 212.14337 213.77364 216.75938 221.01524 226.27818 230.93542
 234.75493 238.93620 243.13368 247.18655 251.06837 254.93387 258.68329 262.13602
 265.34555 268.25342 270.77753 272.87845 274.39743 275.66461 277.31607 279.24844
 281.04626 282.59680 284.10416 285.52026 286.82358 287.97668 289.02872 289.98178
 290.83896 291.60229 292.26910 293.11890
 366.78100 356.34280 345.78261 334.65641 323.06721 311.26901 299.14682 286.95762
 274.67742 262.58222 250.59903 239.90783 230.03763 221.14943 213.33924 206.34904
 200.19084 195.13664 191.72645 189.77625 188.82105 188.89286 189.73566 191.05146
 192.78426 194.88707 197.15787 199.52467 201.97747 204.46528 206.56108 208.41088
 210.04468 211.19749 211.43429 211.67009 211.61489 211.32770 210.96850 210.60630
 210.23111 209.94891 209.76471 209.63651 209.57232 209.91112 210.30492 210.70172
 211.50253 212.68833 213.94613 215.73693 217.67274 219.72354 221.82634 223.91714
 225.98495 228.07675 230.18155 232.29536 234.43216 236.61196 238.87576 241.25357
 243.88237 246.14117 248.15097 249.92378 251.34858 252.47938 253.30918 253.63299
 253.67779 253.45959 252.82739 251.78320 250.39700 248.56580 246.48261 244.32341
 242.12221 239.93401 237.76182 235.60862 233.47642 231.35122 229.38503 227.54983
 225.84063 224.32043 222.95824 221.73804 220.62784 219.59564 218.70745 217.85625
 217.10605 216.29386 215.39966 214.77146 214.22926 214.35925 214.54816 213.70509
 212.63307 211.84413 212.09360 213.82274 216.81654 221.03543 226.26329 230.88576
 234.69377 238.86687 243.05835 247.12177 251.04221 254.93236 258.67844 262.12634
 265.32477 268.22647 270.77402 272.89395 274.41498 275.69504 277.35608 279.26813
 280.97330 282.55954 284.15836 285.65268 286.96884 288.13327 289.19568 290.15811
 291.02371 291.79456 292.46796 293.32608
 366.78100 356.34324 345.78349 334.65773 323.06898 311.27122 299.14947 286.96071
 274.68096 262.58620 250.60345 239.91269 230.04294 221.15518 213.34543 206.35567
 200.19792 195.14416 191.73441 189.78465 188.82990 188.90214 189.74539 191.06163
 192.79488 194.89812 197.16937 199.53661 201.98986 204.47810 206.57435 208.42459
 210.05884 211.21208 211.44933 211.68557 211.63082 211.34406 210.98531 210.62355
 210.24880 209.96704 209.78329 209.65553 209.59178 209.93102 210.32527 210.72251
 211.52376 212.71000 213.96825 215.75949 217.69574 219.74698 221.85023 223.94147
 226.00972 228.10196 230.20721 232.32145 234.45870 236.63894 238.90319 241.28143
 243.91068 246.16992 248.18017 249.95341 251.37866 252.50990 253.34015 253.66439
 253.70964 253.49188 252.86013 251.81637 250.43062 248.59986 246.51711 244.35835
 242.15760 239.96984 237.79809 235.64533 233.51358 231.38882 229.42307 227.58831
 225.87956 224.35980 222.99805 221.77829 220.66854 219.63678 218.74903 217.89827
 217.14852 216.33676 215.44301 214.81525 214.27350 214.41037 214.58112 213.72787
 212.72458 211.81989 211.99425 213.81644 216.84622 221.06215 226.33705 230.89107
 234.67419 238.82739 243.01447 247.08043 251.01892 254.91808 258.66202 262.10306
 265.28302 268.18027 270.73148 272.88812 274.51303 275.80038 277.27698 279.04507
 280.83997 282.69373 284.39777 285.93317 287.26193 288.43753 289.51010 290.48175
 291.35568 292.13388 292.81372 293.68011
 366.78100 356.34541 345.78782 334.66423 323.07764 311.28205 299.16247 286.97588
 274.69829 262.60570 250.62511 239.93652 230.06893 221.18334 213.37575 206.38816
 200.23258 195.18099 191.77340 189.82581 188.87322 188.94763 189.79304 191.11145
 192.84686 194.95227 197.22569 199.59510 202.05051 204.54092 206.63933 208.49174
 210.12815 211.28356 211.52297 211.76138 211.70879 211.42421 211.06762 210.70803
 210.33544 210.05585 209.87426 209.74867 209.68708 210.02849 210.42490 210.82432
 211.62773 212.81614 214.07655 215.86996 217.80837 219.86178 221.96719 224.06060
 226.13101 228.22543 230.33284 232.44925 234.58866 236.77107 239.03748 241.41789
 244.04930 246.31071 248.32312 250.09854 251.52595 252.65936 253.49177 253.81818
 253.86559 253.65000 253.02041 251.97882 250.59523 248.76664 246.68606 244.52947
 242.33088 240.14529 237.97570 235.82511 233.69552 231.57293 229.60934 227.77675
 226.07017 224.55258 223.19299 221.97540 220.86781 219.83822 218.95263 218.10404
 217.35645 216.54686 215.65528 215.02969 214.49010 214.55554 214.54372 213.77823
 212.77325 211.81071 211.82422 213.76015 216.87029 220.99423 226.31557 230.87143
 234.63860 238.76686 242.94887 247.03212 251.00191 254.92415 258.65366 262.08463
 265.24338 268.12610 270.67581 272.81931 274.48737 275.91776 277.44766 279.06122
 281.25821 283.35931 285.17749 286.77396 288.15558 289.37793 290.49316 291.50348
 292.41217 293.22134 293.92822 294.82907
 366.78100 356.34708 345.79116 334.66924 323.08432 311.29040 299.17248 286.98757
 274.71165 262.62073 250.64181 239.95489 230.08897 221.20505 213.39913 206.41321
 200.25929 195.20937 191.80345 189.85753 188.90661 188.98270 189.82978 191.14986
 192.88694 194.99402 197.26910 199.64018 202.09726 204.58934 206.68942 208.54350
 210.18158 211.33866 211.57975 211.81983 211.76891 211.48599 211.13107 210.77315
 210.40223 210.12431 209.94439 209.82047 209.76055 210.10363 210.50171 210.90279
 211.70788 212.89796 214.16004 215.95512 217.89520 219.95028 222.05736 224.15244
 226.22452 228.32060 230.42968 232.54776 234.68884 236.87293 239.14101 241.52309
 244.15617 246.41925 248.43333 250.21041 251.63949 252.77457 253.60865 253.93673
 253.98581 253.77189 253.14397 252.10406 250.72214 248.89522 246.81630 244.66138
 242.46446 240.28054 238.11262 235.96370 233.83578 231.71486 229.75294 227.92202
 226.21711 224.70119 223.34327 222.12735 221.02143 219.99351 219.10959 218.26267
 217.51675 216.70883 215.81891 215.19499 214.65707 214.66351 214.52954 213.74695
 212.71909 211.82390 211.84792 213.78670 216.90140 221.04211 226.30177 230.85298
 234.62408 238.75841 242.93835 247.01566 251.00043 254.95259 258.68604 262.09467
 265.23550 268.12778 270.75168 272.94376 274.48169 275.73895 277.32440 279.53534
 281.90405 284.02417 285.85876 287.46970 288.86380 290.09726 291.22256 292.24203
 293.15894 293.97543 294.68872 295.59769
 366.78100 356.34488 345.78676 334.66265 323.07553 311.27941 299.15929 286.97217
 274.69406 262.60094 250.61982 239.93070 230.06259 221.17647 213.36835 206.38023
 200.22411 195.17200 191.76388 189.81576 188.86264 188.93652 189.78141 191.09929
 192.83417 194.93905 197.21193 199.58082 202.03570 204.52558 206.62346 208.47535
 210.11123 211.26611 211.50499 211.74287 211.68976 211.40464 211.04752 210.68740
 210.31428 210.03417 209.85205 209.72593 209.66381 210.00469 210.40058 210.79946
 211.60234 212.79022 214.05011 215.84299 217.78087 219.83375 221.93863 224.03152
 226.10140 228.19528 230.30216 232.41804 234.55693 236.73881 239.00469 241.38457
 244.01545 246.27634 248.28822 250.06310 251.48998 252.62286 253.45475 253.78063
 253.82751 253.61139 252.98128 251.93916 250.55504 248.72592 246.64480 244.48769
 242.28857 240.10245 237.93233 235.78121 233.65110 231.52798 229.56386 227.73074
 226.02362 224.50551 223.14539 221.92727 220.81915 219.78904 218.90292 218.05380
 217.30568 216.49556 215.60345 214.97733 214.43721 214.55206 214.68764 213.71823
 212.54521 211.77031 211.97664 213.80818 216.96771 221.18730 226.27158 230.90038
 234.64343 238.76622 242.92386 246.98796 250.96170 254.86279 258.58429 262.01282
 265.16751 268.07101 270.68433 272.87442 274.61951 276.10330 277.60602 279.12750
 280.56693 281.94418 283.43378 284.94116 286.24570 287.39984 288.45285 289.40680
 290.26477 291.02878 291.69623 292.54681
 366.78100 356.34407 345.78514 334.66021 323.07228 311.27535 299.15442 286.96649
 274.68756 262.59363 250.61170 239.92177 230.05284 221.16591 213.35698 206.36805
 200.21112 195.15819 191.74926 189.80033 188.84640 188.91947 189.76354 191.08061
 192.81468 194.91875 197.19082 199.55889 202.01297 204.50204 206.59911 208.45018
 210.08525 211.23932 211.47739 211.71446 211.66053 211.37460 211.01667 210.65574
 210.28181 210.00088 209.81795 209.69102 209.62809 209.96816 210.36323 210.76130
 211.56337 212.75044 214.00951 215.80158 217.73865 219.79072 221.89479 223.98686
 226.05593 228.14900 230.25507 232.37014 234.50821 236.68928 238.95435 241.33342
 243.96349 246.22356 248.23463 250.00870 251.43477 252.56684 253.39791 253.72298
 253.76905 253.55212 252.92119 251.87826 250.49333 248.66340 246.58147 244.42354
 242.22361 240.03668 237.86575 235.71382 233.58290 231.45897 229.49404 227.66011
 225.95218 224.43325 223.07232 221.85339 220.74446 219.71353 218.82660 217.97667
 217.22774 216.41681 215.52388 214.89695 214.35602 214.49396 214.77867 213.96304
 212.42355 211.32962 211.59476 213.54591 216.83264 221.09689 226.31012 230.83711
 234.64925 238.73933 242.89359 246.95624 250.92551 254.81348 258.52402 261.94852
 265.09830 268.00192 270.61041 272.84808 274.64957 276.16388 277.65256 279.20221
 280.68396 281.89008 282.78253 283.63873 284.29901 284.93900 285.93390 286.86584
 287.70401 288.45041 289.10248 289.93341
 366.78100 356.34537 345.78773 334.66410 323.07747 311.28184 299.16220 286.97557
 274.69794 262.60531 250.62467 239.93604 230.06841 221.18278 213.37514 206.38751
 200.23188 195.18024 191.77261 189.82498 188.87235 188.94671 189.79208 191.11045
 192.84582 194.95118 197.22455 199.59392 202.04929 204.53965 206.63802 208.49039
 210.12675 211.28212 211.52149 211.75986 211.70722 211.42259 211.06596 210.70633
 210.33369 210.05406 209.87243 209.74680 209.68516 210.02653 210.42290 210.82226
 211.62563 212.81400 214.07437 215.86773 217.80610 219.85947 221.96484 224.05820
 226.12857 228.22294 230.33031 232.44667 234.58604 236.76841 239.03477 241.41514
 244.04651 246.30788 248.32024 250.09561 251.52298 252.65635 253.48871 253.81508
 253.86245 253.64682 253.01718 251.97555 250.59192 248.76328 246.68265 244.52602
 242.32739 240.14175 237.97212 235.82149 233.69186 231.56922 229.60559 227.77296
 226.06633 224.54869 223.18906 221.97143 220.86379 219.83416 218.94853 218.09990
 217.35226 216.54263 215.65100 215.02537 214.48573 214.56715 214.74365 214.00061
 212.70190 211.32675 211.38326 213.37051 216.73349 221.03952 226.33701 230.81258
 234.66862 238.76280 242.92961 246.99522 250.96538 254.85211 258.55917 261.96320
 265.08560 267.96875 270.57855 272.83765 274.65149 276.14380 277.59625 279.08917
 280.55835 281.71649 282.51672 283.36011 284.32053 284.79599 285.56842 286.45468
 287.27744 288.01013 288.65018 289.46585
 366.78100 356.34510 345.78720 334.66330 323.07640 311.28049 299.16059 286.97369
 274.69579 262.60289 250.62199 239.93309 230.06519 221.17928 213.37138 206.38348
 200.22758 195.17568 191.76778 189.81988 188.86698 188.94107 189.78617 191.10427
 192.83937 194.94447 197.21757 199.58667 202.04177 204.53186 206.62996 208.48206
 210.11816 211.27326 211.51236 211.75046 211.69756 211.41265 211.05575 210.69585
 210.32295 210.04305 209.86115 209.73525 209.67335 210.01444 210.41054 210.80964
 211.61274 212.80084 214.06094 215.85404 217.79214 219.84524 221.95033 224.04343
 226.11353 228.20763 230.31473 232.43083 234.56993 236.75203 239.01812 241.39822
 244.02932 246.29042 248.30252 250.07762 251.50472 252.63782 253.46991 253.79601
 253.84311 253.62721 252.99731 251.95541 250.57151 248.74261 246.66170 244.50480
 242.30590 240.12000 237.95010 235.79920 233.66930 231.54640 229.58249 227.74959
 226.04269 224.52479 223.16489 221.94699 220.83909 219.80919 218.92328 218.07438
 217.32648 216.51658 215.62468 214.99878 214.45888 214.57144 214.82053 213.93138
 212.71114 211.31459 211.32455 213.34152 216.73508 221.05428 226.34068 230.82182
 234.68097 238.78453 242.96007 247.03169 251.00394 254.88815 258.58472 261.96661
 265.06741 267.93658 270.55429 272.85016 274.69205 276.18964 277.63297 279.07083
 280.45795 281.48016 282.16074 282.94937 283.87076 284.65240 285.34296 286.18683
 287.02042 287.76273 288.41119 289.23758
 366.78100 356.34557 345.78814 334.66471 323.07828 311.28285 299.16342 286.97698
 274.69955 262.60712 250.62669 239.93826 230.07083 221.18540 213.37797 206.39054
 200.23511 195.18368 191.77625 189.82881 188.87638 188.95095 189.79652 191.11509
 192.85066 194.95623 197.22980 199.59937 202.05494 204.54551 206.64408 208.49665
 210.13321 211.28878 211.52835 211.76692 211.71449 211.43006 211.07363 210.71420
 210.34177 210.06234 209.88091 209.75548 209.69404 210.03561 210.43218 210.83175
 211.63532 212.82389 214.08446 215.87803 217.81660 219.87017 221.97574 224.06931
 226.13988 228.23444 230.34201 232.45858 234.59815 236.78072 239.04729 241.42786
 244.05943 246.32100 248.33357 250.10914 251.53671 252.67028 253.50284 253.82941
 253.87698 253.66155 253.03212 251.99069 250.60726 248.77883 246.69840 244.54197
 242.34354 240.15811 237.98867 235.83824 233.70881 231.58638 229.62295 227.79052
 226.08409 224.56666 223.20723 221.98980 220.88237 219.85294 218.96751 218.11907
 217.37164 216.56221 215.67078 215.04535 214.50592 214.60609 214.83160 214.04024
 212.65591 211.22346 211.28172 213.34843 216.72751 220.99094 226.31908 230.81270
 234.67505 238.78491 242.96289 247.03203 251.00212 254.88011 258.56442 261.92819
 265.01715 267.88443 270.52032 272.85873 274.74554 276.27118 277.70728 279.10870
 280.43057 281.39810 282.00943 282.43701 283.07132 284.13480 285.10068 285.92679
 286.74167 287.46936 288.10504 288.91516
 366.78100 356.34730 345.79161 334.66991 323.08521 311.29152 299.17382 286.98913
 274.71343 262.62273 250.64404 239.95734 230.09164 221.20795 213.40225 206.41656
 200.26286 195.21316 191.80747 189.86177 188.91107 188.98738 189.83468 191.15498
 192.89229 194.99959 197.27490 199.64620 202.10350 204.59581 206.69611 208.55041
 210.18872 211.34602 211.58732 211.82763 211.77693 211.49424 211.13954 210.78184
 210.41115 210.13345 209.95375 209.83006 209.77036 210.11367 210.51197 210.91327
 211.71858 212.90888 214.17118 215.96649 217.90679 219.96209 222.06940 224.16470
 226.23701 228.33331 230.44261 232.56092 234.70222 236.88652 239.15483 241.53713
 244.17043 246.43374 248.44804 250.22535 251.65465 252.78995 253.62426 253.95256
 254.00186 253.78817 253.16047 252.12078 250.73908 248.91238 246.83369 244.67899
 242.48229 240.29860 238.13090 235.98220 233.85451 231.73381 229.77212 227.94142
 226.23672 224.72103 223.36333 222.14763 221.04194 220.01424 219.13055 218.28385
 217.53815 216.73046 215.84076 215.21706 214.67937 214.70232 214.75394 214.17497
 212.69417 211.13474 211.19249 213.32042 216.70816 220.91806 226.31337 230.81117
 234.68138 238.79675 242.97610 247.03848 251.00136 254.86913 258.53979 261.88483
 264.96371 267.83176 270.48212 272.84952 274.78214 276.33347 277.75369 279.11758
 280.35074 281.25464 281.72812 282.10229 282.85980 283.91183 284.90259 285.63864
 286.43472 287.17245 287.81696 288.63828
 366.78100 356.34792 345.79283 334.67175 323.08767 311.29459 299.17750 286.99342
 274.71834 262.62825 250.65017 239.96409 230.09900 221.21592 213.41084 206.42576
 200.27267 195.22359 191.81851 189.87342 188.92334 189.00026 189.84818 191.16909
 192.90701 195.01493 197.29084 199.66276 202.12068 204.61360 206.71451 208.56943
 210.20835 211.36626 211.60818 211.84910 211.79901 211.51693 211.16285 210.80577
 210.43568 210.15860 209.97952 209.85643 209.79735 210.14127 210.54019 210.94210
 211.74802 212.93894 214.20185 215.99777 217.93869 219.99460 222.10252 224.19844
 226.27136 228.36827 230.47819 232.59711 234.73902 236.92394 239.19286 241.57578
 244.20969 246.47361 248.48853 250.26644 251.69636 252.83228 253.66720 253.99611
 254.04603 253.83295 253.20586 252.16678 250.78570 248.95961 246.88153 244.72745
 242.53137 240.34828 238.18120 236.03312 233.90603 231.78595 229.82487 227.99479
 226.29070 224.77562 223.41854 222.20345 221.09837 220.07129 219.18820 218.34212
 217.59704 216.78996 215.90087 215.27779 214.74071 214.74390 214.75140 214.19890
 212.78352 211.08035 211.05153 213.25055 216.68413 220.85985 226.32080 230.82901
 234.70134 238.82391 243.00488 247.06071 251.01538 254.86917 258.52319 261.84830
 264.91571 267.78192 270.44241 272.83395 274.80685 276.38699 277.79565 279.11606
 280.26913 281.06610 281.40353 281.73444 282.58588 283.65982 284.67712 285.58447
 286.38864 287.12753 287.77298 288.59555
 366.78100 356.34765 345.79229 334.67094 323.08658 311.29323 299.17587 286.99152
 274.71616 262.62581 250.64745 239.96110 230.09574 221.21239 213.40703 206.42168
 200.26832 195.21897 191.81361 189.86826 188.91790 188.99455 189.84219 191.16284
 192.90048 195.00813 197.28377 199.65542 202.11306 204.60571 206.70635 208.56100
 210.19965 211.35729 211.59894 211.83958 211.78923 211.50687 211.15252 210.79516
 210.42481 210.14745 209.96810 209.84474 209.78539 210.12903 210.52768 210.92932
 211.73497 212.92561 214.18826 215.98390 217.92455 219.98019 222.08784 224.18348
 226.25613 228.35277 230.46242 232.58106 234.72271 236.90735 239.17600 241.55865
 244.19229 246.45594 248.47058 250.24823 251.67787 252.81352 253.64816 253.97681
 254.02645 253.81310 253.18574 252.14639 250.76503 248.93868 246.86032 244.70597
 242.50961 240.32626 238.15890 236.01055 233.88319 231.76284 229.80148 227.97113
 226.26677 224.75142 223.39406 222.17871 221.07335 220.04600 219.16265 218.31629
 217.57094 216.76358 215.87423 215.25087 214.71352 214.73921 214.79990 214.15810
 212.87747 211.06224 210.89844 213.15996 216.64824 220.80321 226.33279 230.84467
 234.72015 238.84888 243.03160 247.08221 251.03180 254.87337 258.51059 261.81671
 264.87180 267.73343 270.39880 272.80823 274.81476 276.42639 277.83557 279.12341
 280.22720 280.95947 281.22446 281.46906 282.20175 283.26129 284.26834 285.18527
 285.99399 286.72781 287.37363 288.19666
 366.78100 356.34769 345.79238 334.67107 323.08676 311.29345 299.17614 286.99183
 274.71652 262.62621 250.64790 239.96159 230.09628 221.21297 213.40766 206.42235
 200.26904 195.21973 191.81442 189.86911 188.91880 188.99549 189.84318 191.16387
 192.90156 195.00925 197.28494 199.65663 202.11432 204.60701 206.70770 208.56239
 210.20108 211.35877 211.60046 211.84115 211.79084 211.50853 211.15422 210.79690
 210.42659 210.14928 209.96997 209.84666 209.78735 210.13104 210.52973 210.93142
 211.73711 212.92780 214.19049 215.98618 217.92687 219.98256 222.09025 224.18594
 226.25863 228.35532 230.46501 232.58370 234.72539 236.91008 239.17877 241.56146
 244.19515 246.45884 248.47353 250.25122 251.68091 252.81660 253.65129 253.97998
 254.02967 253.81636 253.18905 252.14974 250.76843 248.94212 246.86381 244.70950
 242.51319 240.32988 238.16257 236.01426 233.88695 231.76664 229.80533 227.97502
 226.27071 224.75540 223.39809 222.18278 221.07747 220.05016 219.16685 218.32054
 217.57523 216.76792 215.87861 215.25530 214.71799 214.74751 214.81723 214.13428
 212.95912 211.09137 210.77940 213.07346 216.59952 220.73560 226.33980 230.84276
 234.72835 238.86308 243.04759 247.09421 251.04459 254.88004 258.50519 261.79477
 264.83850 267.69278 270.35486 272.77353 274.79926 276.43161 277.84186 279.09839
 280.17853 280.87656 281.18314 281.44162 281.98105 282.69153 283.57657 284.49261
 285.38361 286.11221 286.77454 287.61859
 366.78100 356.34804 345.79308 334.67212 323.08817 311.29521 299.17825 286.99429
 274.71933 262.62937 250.65141 239.96545 230.10050 221.21754 213.41258 206.42762
 200.27466 195.22570 191.82074 189.87578 188.92583 189.00287 189.85091 191.17195
 192.90999 195.01803 197.29407 199.66611 202.12416 204.61720 206.71824 208.57328
 210.21232 211.37036 211.61240 211.85344 211.80349 211.52153 211.16757 210.81061
 210.44065 210.16369 209.98473 209.86178 209.80282 210.14686 210.54590 210.94794
 211.75398 212.94502 214.20806 216.00411 217.94515 220.00119 222.10923 224.20527
 226.27831 228.37535 230.48539 232.60444 234.74648 236.93152 239.20056 241.58360
 244.21764 246.48168 248.49672 250.27477 251.70481 252.84085 253.67589 254.00493
 254.05497 253.84201 253.21505 252.17610 250.79514 248.96918 246.89122 244.73726
 242.54130 240.35834 238.19139 236.04343 233.91647 231.79651 229.83555 228.00559
 226.30163 224.78667 223.42972 222.21476 221.10980 220.08284 219.19988 218.35392
 217.60896 216.80200 215.91305 215.29009 214.75313 214.77008 214.81015 214.13416
 213.02409 211.11580 210.74268 213.04536 216.55614 220.66898 226.33672 230.82829
 234.72523 238.86708 243.05254 247.09747 251.05411 254.88731 258.50348 261.78091
 264.81696 267.66254 270.31854 272.73941 274.77402 276.42047 277.82169 279.04129
 280.10776 280.74829 280.99686 281.18192 281.72757 282.46899 283.41989 284.31229
 285.15259 285.89746 286.53635 287.36469
 366.78100 356.34834 345.79367 334.67301 323.08934 311.29668 299.18001 286.99635
 274.72168 262.63202 250.65435 239.96869 230.10402 221.22136 213.41669 206.43203
 200.27936 195.23070 191.82603 189.88137 188.93170 189.00904 189.85737 191.17871
 192.91704 195.02538 197.30171 199.67405 202.13238 204.62572 206.72705 208.58239
 210.22173 211.38006 211.62240 211.86373 211.81407 211.53240 211.17874 210.82207
 210.45241 210.17574 209.99708 209.87441 209.81575 210.16008 210.55942 210.96175
 211.76809 212.95942 214.22276 216.01909 217.96043 220.01676 222.12510 224.22143
 226.29477 228.39210 230.50244 232.62177 234.76411 236.94945 239.21878 241.60212
 244.23645 246.50079 248.51612 250.29446 251.72479 252.86113 253.69646 254.02580
 254.07613 253.86347 253.23680 252.19814 250.81747 248.99181 246.91414 244.76048
 242.56481 240.38215 238.21548 236.06782 233.94115 231.82149 229.86082 228.03116
 226.32749 224.81283 223.45616 222.24150 221.13684 220.11017 219.22751 218.38184
 217.63718 216.83051 215.94185 215.31918 214.78252 214.79135 214.81221 214.13713
 213.07401 211.11072 210.66513 213.00873 216.52039 220.62048 226.31299 230.82079
 234.71169 238.86253 243.04927 247.09882 251.06255 254.89211 258.49817 261.76849
 264.79965 267.63748 270.28433 272.69879 274.73383 276.39392 277.78177 278.96558
 280.01657 280.61588 280.80652 281.01526 281.61938 282.36377 283.30905 284.19476
 285.02130 285.77350 286.43854 287.29416
 366.78100 356.34866 345.79432 334.67398 323.09064 311.29830 299.18196 286.99862
 274.72429 262.63495 250.65761 239.97227 230.10793 221.22559 213.42125 206.43691
 200.28457 195.23623 191.83189 189.88755 188.93821 189.01587 189.86453 191.18619
 192.92486 195.03352 197.31018 199.68284 202.14150 204.63516 206.73682 208.59248
 210.23214 211.39080 211.63346 211.87512 211.82578 211.54444 211.19110 210.83476
 210.46543 210.18909 210.01075 209.88841 209.83007 210.17473 210.57439 210.97705
 211.78371 212.97537 214.23903 216.03569 217.97735 220.03401 222.14267 224.23933
 226.31300 228.41066 230.52132 232.64098 234.78364 236.96930 239.23896 241.62262
 244.25728 246.52194 248.53760 250.31626 251.74692 252.88358 253.71924 254.04891
 254.09957 253.88723 253.26089 252.22255 250.84221 249.01687 246.93953 244.78619
 242.59085 240.40851 238.24217 236.09483 233.96849 231.84915 229.88881 228.05948
 226.35614 224.84180 223.48546 222.27112 221.16678 220.14044 219.25810 218.41276
 217.66842 216.86208 215.97374 215.35140 214.81506 214.81473 214.81390 214.13982
 213.11082 211.10243 210.57405 212.95097 216.47658 220.57530 226.28102 230.82135
 234.69571 238.85686 243.04608 247.10364 251.07265 254.89885 258.49500 261.76395
 264.79089 267.61929 270.25235 272.64478 274.66791 276.33026 277.70920 278.88193
 279.90146 280.46722 280.67786 280.95654 281.56479 282.35654 283.29172 284.17770
 285.00272 285.75320 286.43137 287.30457
 366.78100 356.34901 345.79502 334.67502 323.09203 311.30004 299.18405 287.00106
 274.72707 262.63807 250.66108 239.97609 230.11210 221.23011 213.42612 206.44212
 200.29013 195.24214 191.83815 189.89416 188.94516 189.02317 189.87218 191.19419
 192.93320 195.04221 197.31921 199.69222 202.15123 204.64524 206.74725 208.60326
 210.24326 211.40227 211.64528 211.88729 211.83830 211.55730 211.20431 210.84832
 210.47933 210.20334 210.02535 209.90335 209.84536 210.19037 210.59038 210.99339
 211.80040 212.99240 214.25641 216.05342 217.99543 220.05244 222.16144 224.25845
 226.33246 228.43047 230.54148 232.66149 234.80449 236.99050 239.26051 241.64452
 244.27953 246.54453 248.56054 250.33955 251.77056 252.90757 253.74358 254.07358
 254.12459 253.91260 253.28661 252.24862 250.86863 249.04363 246.96664 244.81365
 242.61866 240.43667 238.27067 236.12368 233.99769 231.87870 229.91871 228.08972
 226.38672 224.87273 223.51674 222.30275 221.19876 220.17277 219.29077 218.44578
 217.70179 216.89580 216.00781 215.38581 214.84982 214.83914 214.81392 214.14003
 213.15468 211.10246 210.48567 212.88062 216.43051 220.53662 226.24173 230.81589
 234.67555 238.84706 243.03922 247.10402 251.07886 254.90427 258.49622 261.76892
 264.79214 267.60840 270.21936 272.57828 274.57806 276.23404 277.60831 278.78589
 279.78030 280.34442 280.60287 280.93152 281.54956 282.40857 283.35638 284.24884
 285.09152 285.85562 286.53250 287.39514
 366.78100 356.34910 345.79521 334.67531 323.09242 311.30052 299.18462 287.00173
 274.72783 262.63894 250.66204 239.97714 230.11325 221.23135 213.42746 206.44356
 200.29166 195.24377 191.83987 189.89598 188.94708 189.02519 189.87429 191.19639
 192.93550 195.04460 197.32171 199.69481 202.15391 204.64802 206.75012 208.60623
 210.24633 211.40543 211.64854 211.89064 211.84175 211.56085 211.20795 210.85206
 210.48316 210.20727 210.02937 209.90747 209.84958 210.19468 210.59479 210.99789
 211.80499 212.99710 214.26120 216.05831 218.00041 220.05751 222.16662 224.26372
 226.33783 228.43593 230.54704 232.66714 234.81024 236.99635 239.26645 241.65056
 244.28566 246.55076 248.56687 250.34597 251.77708 252.91418 253.75028 254.08039
 254.13149 253.91960 253.29370 252.25580 250.87591 249.05101 246.97412 244.82122
 242.62632 240.44443 238.27853 236.13164 234.00574 231.88684 229.92695 228.09805
 226.39516 224.88126 223.52536 222.31147 221.20757 220.18168 219.29978 218.45489
 217.71099 216.90509 216.01720 215.39530 214.85941 214.85176 214.83372 214.12706
 213.19258 211.09659 210.42046 212.83569 216.38567 220.50919 226.18721 230.80727
 234.64581 238.82841 243.02570 247.10269 251.08307 254.90962 258.50095 261.78293
 264.80444 267.60730 270.19202 272.50821 274.47430 276.11380 277.48242 278.67331
 279.64383 280.25162 280.53348 280.89322 281.54230 282.48489 283.45496 284.36465
 285.22330 286.02112 286.72229 287.61588
 366.78100 356.34896 345.79492 334.67488 323.09184 311.29980 299.18376 287.00073
 274.72669 262.63765 250.66061 239.97557 230.11153 221.22949 213.42545 206.44141
 200.28937 195.24133 191.83729 189.89325 188.94422 189.02218 189.87114 191.19310
 192.93206 195.04102 197.31798 199.69094 202.14990 204.64386 206.74582 208.60178
 210.24174 211.40071 211.64367 211.88563 211.83659 211.55555 211.20251 210.84647
 210.47743 210.20139 210.02335 209.90131 209.84327 210.18823 210.58820 210.99116
 211.79812 212.99008 214.25404 216.05100 217.99296 220.04992 222.15888 224.25584
 226.32980 228.42776 230.53872 232.65869 234.80165 236.98761 239.25757 241.64153
 244.27649 246.54145 248.55741 250.33637 251.76733 252.90429 253.74025 254.07022
 254.12118 253.90914 253.28310 252.24506 250.86502 249.03998 246.96294 244.80990
 242.61486 240.43282 238.26678 236.11974 233.99371 231.87467 229.91463 228.08559
 226.38255 224.86851 223.51247 222.29843 221.19439 220.16835 219.28631 218.44127
 217.69723 216.89120 216.00316 215.38112 214.84508 214.85153 214.86676 214.11366
 213.20474 211.09361 210.43964 212.80106 216.34442 220.49080 226.13043 230.78888
 234.61499 238.80742 243.01300 247.10330 251.08943 254.91924 258.51422 261.80783
 264.82867 267.61526 270.16803 272.43500 274.36014 275.97687 277.33826 278.53958
 279.51251 280.17365 280.46912 280.90161 281.62946 282.56744 283.54556 284.46356
 285.35419 286.17117 286.88492 287.79446
 366.78100 356.34857 345.79414 334.67370 323.09027 311.29784 299.18141 286.99797
 274.72354 262.63411 250.65668 239.97124 230.10681 221.22438 213.41995 206.43552
 200.28308 195.23465 191.83022 189.88579 188.93635 189.01392 189.86249 191.18406
 192.92263 195.03119 197.30776 199.68033 202.13890 204.63246 206.73403 208.58960
 210.22917 211.38773 211.63030 211.87187 211.82244 211.54101 211.18757 210.83114
 210.46171 210.18528 210.00684 209.88441 209.82598 210.17055 210.57011 210.97268
 211.77925 212.97082 214.23439 216.03095 217.97252 220.02909 222.13766 224.23422
 226.30779 228.40536 230.51593 232.63549 234.77806 236.96363 239.23320 241.61677
 244.25133 246.51590 248.53147 250.31004 251.74060 252.87717 253.71274 254.04231
 254.09288 253.88044 253.25401 252.21558 250.83515 249.00971 246.93228 244.77885
 242.58342 240.40098 238.23455 236.08712 233.96069 231.84126 229.88082 228.05139
 226.34796 224.83353 223.47709 222.26266 221.15823 220.13180 219.24936 218.40393
 217.65950 216.85307 215.96464 215.34220 214.80577 214.83598 214.90462 214.09482
 213.21359 211.09938 210.43279 212.76300 216.30263 220.45920 226.08028 230.75496
 234.58403 238.78552 242.99986 247.09956 251.09131 254.92746 258.53262 261.83969
 264.85986 267.62595 270.14062 272.35657 274.23801 275.82773 277.17642 278.37512
 279.36932 280.05881 280.44031 280.95477 281.68719 282.67618 283.65842 284.58310
 285.50299 286.33804 287.06750 287.99713
 366.78100 356.34820 345.79341 334.67261 323.08882 311.29602 299.17923 286.99543
 274.72064 262.63084 250.65304 239.96725 230.10245 221.21966 213.41486 206.43007
 200.27727 195.22847 191.82368 189.87888 188.92909 189.00629 189.85450 191.17570
 192.91391 195.02211 197.29831 199.67052 202.12872 204.62193 206.72313 208.57834
 210.21754 211.37575 211.61795 211.85915 211.80936 211.52756 211.17377 210.81697
 210.44718 210.17038 209.99158 209.86879 209.80999 210.15420 210.55340 210.95561
 211.76181 212.95302 214.21622 216.01242 217.95363 220.00983 222.11804 224.21424
 226.28745 228.38465 230.49486 232.61406 234.75626 236.94147 239.21067 241.59388
 244.22808 246.49229 248.50749 250.28569 251.71590 252.85210 253.68731 254.01651
 254.06672 253.85392 253.22713 252.18833 250.80753 248.98174 246.90394 244.75015
 242.55435 240.37156 238.20476 236.05696 233.93017 231.81037 229.84958 228.01978
 226.31599 224.80119 223.44440 222.22960 221.12480 220.09801 219.21521 218.36942
 217.62462 216.81783 215.92903 215.30624 214.76944 214.81944 214.93352 214.08481
 213.24091 211.11778 210.41541 212.70061 216.25908 220.43300 226.02811 230.70618
 234.54636 238.75905 242.98485 247.09300 251.08925 254.93173 258.54974 261.87088
 264.88980 267.63519 270.11276 272.28061 274.11566 275.67010 277.00293 278.19986
 279.21689 279.95023 280.43509 281.03378 281.83163 282.84723 283.83035 284.75671
 285.69925 286.54810 287.28964 288.23468
 366.78100 356.34810 345.79319 334.67229 323.08839 311.29548 299.17858 286.99468
 274.71977 262.62987 250.65197 239.96607 230.10116 221.21826 213.41336 206.42845
 200.27555 195.22665 191.82174 189.87684 188.92694 189.00403 189.85213 191.17323
 192.91132 195.01942 197.29552 199.66761 202.12571 204.61881 206.71990 208.57500
 210.21410 211.37220 211.61429 211.85539 211.80549 211.52358 211.16968 210.81278
 210.44287 210.16597 209.98707 209.86416 209.80526 210.14936 210.54845 210.95055
 211.75665 212.94774 214.21084 216.00694 217.94803 220.00413 222.11223 224.20833
 226.28142 228.37852 230.48862 232.60771 234.74981 236.93491 239.20400 241.58710
 244.22120 246.48529 248.50039 250.27849 251.70858 252.84468 253.67978 254.00887
 254.05897 253.84607 253.21916 252.18026 250.79936 248.97346 246.89555 244.74165
 242.54575 240.36284 238.19594 236.04804 233.92113 231.80123 229.84033 228.01042
 226.30652 224.79162 223.43471 222.21981 221.11491 220.08800 219.20510 218.35920
 217.61429 216.80739 215.91849 215.29559 214.75868 214.81371 214.94154 214.09413
 213.27814 211.15129 210.38477 212.65182 216.21178 220.37981 225.97189 230.64896
 234.50629 238.73135 242.96898 247.08459 251.08609 254.93643 258.57028 261.90704
 264.92697 267.65256 270.08932 272.20294 273.98172 275.49826 276.82620 278.03653
 279.07236 279.86502 280.42816 281.10184 282.11658 283.18729 284.20087 285.12628
 285.97632 286.73737 287.40225 288.24951
 366.78100 356.34846 345.79391 334.67337 323.08982 311.29728 299.18073 286.99719
 274.72264 262.63310 250.65555 239.97001 230.10546 221.22292 213.41837 206.43383
 200.28128 195.23274 191.82819 189.88365 188.93411 189.01156 189.86002 191.18147
 192.91993 195.02838 197.30484 199.67729 202.13575 204.62920 206.73066 208.58611
 210.22557 211.38402 211.62648 211.86793 211.81839 211.53684 211.18330 210.82675
 210.45721 210.18067 210.00212 209.87958 209.82103 210.16549 210.56494 210.96740
 211.77385 212.96531 214.22876 216.02522 217.96667 220.02313 222.13158 224.22804
 226.30149 228.39895 230.50940 232.62886 234.77132 236.95677 239.22623 241.60968
 244.24414 246.50859 248.52405 250.30250 251.73296 252.86941 253.70487 254.03432
 254.08478 253.87223 253.24569 252.20714 250.82660 249.00105 246.92351 244.76996
 242.57442 240.39188 238.22533 236.07779 233.95124 231.83170 229.87115 228.04161
 226.33806 224.82352 223.46697 222.25243 221.14788 220.12134 219.23879 218.39325
 217.64870 216.84216 215.95361 215.33107 214.79453 214.82948 214.91209 214.13489
 213.31766 211.19516 210.37460 212.52249 216.13371 220.36108 225.92046 230.59335
 234.46867 238.70718 242.95944 247.08263 251.08401 254.93828 258.58856 261.94495
 264.96353 267.66516 270.06189 272.12537 273.85211 275.33456 276.66019 277.87033
 278.92426 279.81302 280.54861 281.33600 282.24161 283.26718 284.27020 285.18100
 286.00806 286.75534 287.40817 288.24014
 366.78100 356.34860 345.79420 334.67380 323.09041 311.29801 299.18161 286.99821
 274.72381 262.63441 250.65702 239.97162 230.10722 221.22482 213.42042 206.43602
 200.28363 195.23523 191.83083 189.88643 188.93703 189.01463 189.86323 191.18484
 192.92344 195.03204 197.30864 199.68124 202.13984 204.63345 206.73505 208.59065
 210.23025 211.38885 211.63145 211.87306 211.82366 211.54226 211.18886 210.83246
 210.46306 210.18666 210.00827 209.88587 209.82747 210.17207 210.57167 210.97427
 211.78088 212.97248 214.23608 216.03268 217.97428 220.03088 222.13949 224.23609
 226.30969 228.40729 230.51789 232.63749 234.78009 236.96570 239.23530 241.61890
 244.25350 246.51810 248.53370 250.31231 251.74291 252.87951 253.71511 254.04471
 254.09531 253.88292 253.25652 252.21812 250.83772 249.01232 246.93492 244.78153
 242.58613 240.40373 238.23733 236.08993 233.96353 231.84413 229.88374 228.05434
 226.35094 224.83654 223.48014 222.26574 221.16135 220.13495 219.25255 218.40715
 217.66275 216.85635 215.96796 215.34556 214.80916 214.83543 214.89751 214.14558
 213.38422 211.23373 210.34145 212.40881 216.06091 220.32834 225.87457 230.54344
 234.43892 238.68855 242.95099 247.07947 251.08218 254.94217 258.60538 261.97659
 264.99948 267.68713 270.04739 272.05072 273.71204 275.15421 276.46814 277.67920
 278.78146 279.77826 280.66641 281.55502 282.45584 283.44370 284.43164 285.30777
 286.10449 286.82935 287.46255 288.26950
 366.78100 356.34802 345.79304 334.67206 323.08808 311.29510 299.17812 286.99414
 274.71916 262.62918 250.65121 239.96523 230.10025 221.21727 213.41229 206.42731
 200.27433 195.22535 191.82037 189.87539 188.92541 189.00243 189.85045 191.17147
 192.90949 195.01751 197.29353 199.66555 202.12357 204.61660 206.71762 208.57264
 210.21166 211.36968 211.61170 211.85272 211.80274 211.52076 211.16678 210.80980
 210.43982 210.16284 209.98386 209.86088 209.80190 210.14592 210.54494 210.94696
 211.75299 212.94401 214.20703 216.00305 217.94407 220.00009 222.10811 224.20413
 226.27715 228.37417 230.48419 232.60321 234.74523 236.93025 239.19927 241.58229
 244.21631 246.48033 248.49535 250.27338 251.70340 252.83942 253.67444 254.00346
 254.05348 253.84050 253.21352 252.17454 250.79356 248.96758 246.88960 244.73562
 242.53964 240.35666 238.18968 236.04170 233.91472 231.79474 229.83377 228.00379
 226.29981 224.78483 223.42785 222.21287 221.10789 220.08091 219.19793 218.35195
 217.60697 216.79999 215.91101 215.28803 214.75105 214.80606 214.93602 214.12424
 213.39029 211.29730 210.36028 212.26566 215.99904 220.36411 225.83409 230.49944
 234.39078 238.64293 242.91263 247.04539 251.04727 254.92838 258.63922 262.05920
 265.08112 267.71732 269.99780 271.92694 273.53738 274.94876 276.26990 277.52994
 278.71756 279.81760 280.81970 281.77844 282.74194 283.89395 284.94601 285.30231
 286.00412 286.72736 287.35913 288.16428
 366.78100 356.34716 345.79132 334.66947 323.08463 311.29079 299.17295 286.98811
 274.71226 262.62142 250.64258 239.95574 230.08990 221.20606 213.40021 206.41437
 200.26053 195.21069 191.80485 189.85900 188.90816 188.98432 189.83148 191.15164
 192.88879 194.99595 197.27111 199.64227 202.09943 204.59158 206.69174 208.54590
 210.18406 211.34122 211.58238 211.82253 211.77169 211.48885 211.13401 210.77617
 210.40532 210.12748 209.94764 209.82380 209.76396 210.10711 210.50527 210.90643
 211.71159 212.90175 214.16391 215.95906 217.89922 219.95438 222.06154 224.15670
 226.22885 228.32501 230.43417 232.55233 234.69349 236.87764 239.14580 241.52796
 244.16112 246.42428 248.43843 250.21559 251.64475 252.77991 253.61407 253.94223
 253.99138 253.77754 253.14970 252.10986 250.72802 248.90117 246.82233 244.66749
 242.47065 240.28681 238.11896 235.97012 233.84228 231.72144 229.75960 227.92875
 226.22391 224.70807 223.35023 222.13439 221.02855 220.00070 219.11686 218.27002
 217.52418 216.71634 215.82649 215.20265 214.66481 214.73615 214.90392 214.12766
 213.37164 211.33614 210.43414 212.16544 215.93825 220.42471 225.79710 230.46704
 234.33519 238.59334 242.87833 247.02032 251.01550 254.90790 258.66006 262.12360
 265.13745 267.71527 269.91885 271.78442 273.34875 274.72897 276.06018 277.35703
 278.59384 279.77414 280.90527 281.95554 282.94641 284.05441 285.09683 285.62103
 286.31619 287.02353 287.64145 288.42892
 366.78100 356.34619 345.78938 334.66657 323.08076 311.28595 299.16714 286.98133
 274.70453 262.61272 250.63291 239.94510 230.07829 221.19348 213.38667 206.39986
 200.24505 195.19424 191.78743 189.84062 188.88881 188.96400 189.81020 191.12939
 192.86558 194.97177 197.24596 199.61615 202.07234 204.56353 206.66272 208.51591
 210.15310 211.30929 211.54948 211.78867 211.73687 211.45306 211.09725 210.73844
 210.36663 210.08782 209.90701 209.78220 209.72139 210.06358 210.46077 210.86096
 211.66515 212.85434 214.11553 215.90973 217.84892 219.90311 222.00930 224.10349
 226.17468 228.26987 230.37806 232.49525 234.63544 236.81863 239.08582 241.46701
 244.09920 246.36140 248.37459 250.15078 251.57897 252.71316 253.54635 253.87354
 253.92173 253.70692 253.07811 252.03730 250.65449 248.82668 246.74687 244.59106
 242.39326 240.20845 238.03964 235.88983 233.76102 231.63921 229.67640 227.84459
 226.13878 224.62197 223.26316 222.04635 220.93954 219.91073 219.02593 218.17812
 217.43131 216.62250 215.73169 215.10688 214.56807 214.64546 214.81923 214.12967
 213.34018 211.34909 210.50450 212.12245 215.88519 220.44962 225.76425 230.43297
 234.29312 238.56242 242.86435 247.01282 251.00050 254.89459 258.67477 262.16043
 265.16483 267.69843 269.84711 271.66937 273.18799 274.53769 275.87909 277.20871
 278.48120 279.72287 280.96158 282.13913 283.15359 284.29565 285.36163 285.87421
 286.39539 286.85950 287.26492 287.78159
 354.97500 345.04800 334.58700 324.11500 313.32600 302.53700 291.65000 280.76700
 269.93100 259.19300 248.62200 238.61700 229.08700 220.35500 212.54000 205.53500
 199.46400 194.49300 191.14300 189.19000 188.08900 188.01400 188.72400 189.90600
 191.46900 193.38200 195.40300 197.55600 199.80700 202.06000 204.28800 206.47900
 208.55200 210.37800 212.02500 213.65900 214.99800 216.11800 217.17200 218.25900
 219.49400 220.64500 221.67900 222.61400 223.54500 224.98200 226.57100 228.19000
 229.79700 231.81100 233.86500 235.97200 238.24200 240.55300 242.89900 245.25300
 247.48800 249.53500 251.36600 252.84800 254.09800 255.16700 256.02700 256.25300
 256.09500 255.54300 253.93500 252.56600 251.38400 250.24500 249.05200 247.70100
 246.01600 243.99600 241.78400 239.39300 236.81300 234.22300 231.65800 229.14400
 226.74000 224.47300 222.33500 220.32500 218.44000 216.67700 214.96200 213.47200
 212.20000 211.10800 210.26000 209.63900 209.24400 209.03100 209.05800 209.33300
 209.78400 210.62600 211.33100 212.39100 213.62500 214.84668 217.72949 219.47640
 220.32566 220.86828 220.88710 220.27371 219.43733 218.84250 219.04934 220.86203
 222.60583 225.72206 229.03064 232.61777 236.12270 239.51333 242.70767 245.68587
 248.41061 250.90679 253.19353 254.91714 256.48655 257.94920 259.39966 260.69384
 261.81714 262.77997 263.71679 264.54570 265.26305 265.89772 266.47676 267.00133
 267.47312 267.89325 268.26027 268.72800
