|-------------------------------------------------------------------------|
|   File Name : in_temp.dat
|   Subject   : temperature profiles used for initial guess atmosphere
|   File Type : input of gmtr
|   Data Type : atmospherical data
|   Author/s  : WRF-Chem
|   Date      : Fri Jul 26 15:39:24 2024
|-------------------------------------------------------------------------|

 WRF-Chem temperature
#
 values of T (K)    (8f10.5)
#
 354.97500 345.04800 334.58700 324.11500 313.32600 302.53700 291.65000 280.76700
 269.93100 259.19300 248.62200 238.61700 229.08700 220.35500 212.54000 205.53500
 199.46400 194.49300 191.14300 189.19000 188.08900 188.01400 188.72400 189.90600
 191.46900 193.38200 195.40300 197.55600 199.80700 202.06000 204.28800 206.47900
 208.55200 210.37800 212.02500 213.65900 214.99800 216.11800 217.17200 218.25900
 219.49400 220.64500 221.67900 222.61400 223.54500 224.98200 226.57100 228.19000
 229.79700 231.81100 233.86500 235.97200 238.24200 240.55300 242.89900 245.25300
 247.48800 249.53500 251.36600 252.84800 254.09800 255.16700 256.02700 256.25300
 256.09500 255.54300 253.93500 252.56600 251.38400 250.24500 249.05200 247.70100
 246.01600 243.99600 241.78400 239.39300 236.81300 234.22300 231.65800 229.14400
 226.74000 224.47300 222.33500 220.32500 218.44000 216.67700 214.96200 213.47200
 212.20000 211.10800 210.26000 209.63900 209.24400 209.03100 209.05800 209.33300
 209.78400 210.62600 211.33100 212.39100 213.62500 214.84668 217.72949 219.47640
 220.32566 220.86828 220.88710 220.27371 219.43733 218.84250 219.04934 220.86203
 222.60583 225.72206 229.03064 232.61777 236.12270 239.51333 242.70767 245.68587
 248.41061 250.90679 253.19353 254.91714 256.48655 257.94920 259.39966 260.69384
 261.81714 262.77997 263.71679 264.54570 265.26305 265.89772 266.47676 267.00133
 267.47312 267.89325 268.26027 268.72800
 366.78100 356.33500 345.76700 334.63300 323.03600 311.23000 299.10000 286.90300
 274.61500 262.51200 250.52100 239.82200 229.94400 221.04800 213.23000 206.23200
 200.06600 195.00400 191.58600 189.62800 188.66500 188.72900 189.56400 190.87200
 192.59700 194.69200 196.95500 199.31400 201.75900 204.23900 206.32700 208.16900
 209.79500 210.94000 211.16900 211.39700 211.33400 211.03900 210.67200 210.30200
 209.91900 209.62900 209.43700 209.30100 209.22900 209.56000 209.94600 210.33500
 211.12800 212.30600 213.55600 215.33900 217.26700 219.31000 221.40500 223.48800
 225.54800 227.63200 229.72900 231.83500 233.96400 236.13600 238.39200 240.76200
 243.38300 245.63400 247.63600 249.40100 250.81800 251.94100 252.76300 253.07900
 253.11600 252.89000 252.25000 251.19800 249.80400 247.96500 245.87400 243.70700
 241.49800 239.30200 237.12200 234.96100 232.82100 230.68800 228.71400 226.87100
 225.15400 223.62600 222.25600 221.02800 219.91000 218.87000 217.97400 217.11500
 216.35700 215.53700 214.63500 213.99900 213.44900 212.85855 212.01316 212.61654
 214.26826 216.08686 218.14273 220.53346 223.40855 226.78828 231.49734 235.90155
 239.42278 243.28576 247.23140 251.11907 254.80144 258.23331 261.38913 264.27520
 266.89312 269.26852 271.44504 273.08845 274.58484 275.98591 277.39845 278.65879
 279.75272 280.69038 281.56708 282.34086 283.01050 283.60295 284.14348 284.63317
 285.07358 285.46577 285.80838 286.24500
 381.81900 372.39900 361.20600 349.77600 337.62200 324.85300 311.81000 298.35300
 284.86000 271.32400 258.56100 246.30400 236.08700 226.79600 218.44800 211.29000
 205.52200 200.89400 197.38100 194.84800 193.01500 192.31500 192.25000 192.43100
 192.91200 193.53700 194.13600 194.71200 195.26200 195.83100 196.39300 196.97600
 197.60400 198.14900 198.58400 199.05700 199.69500 200.37800 201.05400 201.70800
 202.31300 202.85700 203.35500 203.86200 204.56900 205.29700 206.02600 206.98700
 208.19300 209.44100 210.96900 212.57600 214.46200 216.51300 218.63000 220.85300
 223.34100 225.96200 228.73900 231.69700 234.70600 237.70600 240.69200 243.65700
 246.73700 249.69900 252.52100 255.06300 257.29000 259.23300 260.63300 261.68000
 262.46100 262.79800 262.69100 262.22400 261.06900 259.52500 257.70700 255.50700
 253.00100 250.30200 247.39800 244.45200 241.65400 239.05400 236.73300 234.59000
 232.59500 230.72500 228.83400 226.82600 224.66600 222.38700 220.10400 217.71500
 215.45900 213.06600 210.54600 208.09300 205.35400 202.08130 196.05959 200.71215
 209.01611 216.90438 223.84126 229.78593 235.00632 240.20838 245.98943 250.68668
 254.32982 257.93487 261.55666 264.96801 268.15192 271.06452 273.76717 276.25691
 278.57680 280.74479 282.77456 284.60533 286.27232 287.81705 289.31715 290.65561
 291.81734 292.81312 293.70701 294.49387 295.17482 295.77730 296.32696 296.82492
 297.27278 297.67160 298.02000 298.46400
 399.33000 389.90700 379.81300 368.66800 357.52200 345.30100 333.07400 320.22700
 307.21600 293.84800 280.37600 267.29600 254.61000 242.98700 232.15100 221.97700
 212.67200 204.28600 197.66900 192.82100 189.48600 187.45200 186.81400 187.08900
 187.78100 189.05400 190.64800 192.54200 194.63000 196.75200 198.67100 200.15800
 201.53500 202.48700 202.97500 203.34000 203.53900 203.49700 203.38500 203.24700
 203.00500 202.78600 202.60300 202.43700 202.42600 202.88800 203.42000 203.95100
 204.89500 205.99200 207.30100 208.95800 210.73800 213.10000 215.56400 218.18000
 220.96600 223.91800 226.96100 230.09200 233.29300 236.55700 239.95500 243.53700
 246.84500 249.39000 251.54200 253.47400 255.19500 256.48400 257.43100 258.05900
 258.21200 258.04000 257.58200 256.64300 255.23900 253.50700 251.40800 249.05600
 246.57600 243.99400 241.38900 238.83000 236.34400 233.98600 231.96900 230.11800
 228.42300 226.89900 225.54800 224.29700 223.10500 221.96500 220.95800 220.11300
 219.49000 218.92000 218.32500 217.88100 217.42300 216.96366 216.35568 216.80261
 217.73415 218.28582 218.64258 219.10077 220.44626 222.53987 226.38451 230.35736
 233.59734 237.39164 241.29814 245.22796 248.98002 252.51130 255.78595 258.80109
 261.54781 264.05210 266.34239 268.04198 269.58951 271.01303 272.35754 273.55718
 274.59842 275.49092 276.28989 276.99307 277.60161 278.14001 278.63122 279.07623
 279.47646 279.83287 280.14422 280.54100
 399.73800 389.78500 379.66200 368.15100 356.64100 344.35000 331.79200 318.88800
 305.72600 292.49300 279.20900 266.73800 254.69600 244.21100 234.45700 225.43300
 217.56900 210.45100 204.30000 199.30600 195.45800 192.57600 191.02700 190.38600
 190.23900 190.53400 191.16600 191.92500 192.79500 193.76600 194.73200 195.31200
 195.80000 196.05200 196.11500 196.11500 196.03900 195.72300 195.34000 194.98900
 194.75100 194.79200 195.13300 195.59800 196.50600 198.13600 199.85800 201.56600
 204.17900 206.82300 209.89300 213.28400 216.82800 220.60500 224.38700 228.20900
 232.03200 235.82500 239.56000 243.25800 246.84500 250.20100 253.70900 257.46800
 261.53000 264.22100 266.60100 268.68100 270.32900 271.74100 272.83600 273.47400
 273.89800 274.00200 273.75700 273.28800 272.37100 271.10000 269.58900 267.77900
 265.81600 263.72100 261.39300 258.91600 256.29800 253.42300 250.33100 247.11400
 243.83700 240.52900 237.24900 233.99900 230.72800 227.51500 224.25400 220.95200
 217.62700 213.65600 210.12100 206.78900 204.01000 201.99491 199.07309 198.76551
 199.40006 200.48994 201.46112 202.31912 203.45100 204.96110 207.47502 210.85391
 213.70530 217.29629 220.99574 224.72316 228.28753 231.64854 234.68024 237.40893
 239.70644 241.60899 243.46854 245.67368 247.68154 249.52395 251.24767 252.78566
 254.12057 255.26479 256.23740 257.09036 257.82852 258.48160 259.07744 259.61723
 260.10271 260.53504 260.91270 261.39400
 399.73800 389.78500 379.66200 368.15100 356.64100 344.35000 331.79200 318.88800
 305.72600 292.49300 279.20900 266.73800 254.69600 244.21100 234.45700 225.43300
 217.56900 210.45100 204.30000 199.30600 195.45800 192.57600 191.02700 190.38600
 190.23900 190.53400 191.16600 191.92500 192.79500 193.76600 194.73200 195.31200
 195.80000 196.05200 196.11500 196.11500 196.03900 195.72300 195.34000 194.98900
 194.75100 194.79200 195.13300 195.59800 196.50600 198.13600 199.85800 201.56600
 204.17900 206.82300 209.89300 213.28400 216.82800 220.60500 224.38700 228.20900
 232.03200 235.82500 239.56000 243.25800 246.84500 250.20100 253.70900 257.46800
 261.53000 264.22100 266.60100 268.68100 270.32900 271.74100 272.83600 273.47400
 273.89800 274.00200 273.75700 273.28800 272.37100 271.10000 269.58900 267.77900
 265.81600 263.72100 261.39300 258.91600 256.29800 253.42300 250.33100 247.11400
 243.83700 240.52900 237.24900 233.99900 230.72800 227.51500 224.25400 220.95200
 217.62700 213.65600 210.12100 206.78900 204.01000 201.99491 199.07309 198.76551
 199.40006 200.48994 201.46112 202.31912 203.45100 204.96110 207.47502 210.85391
 213.70530 217.29629 220.99574 224.72316 228.28753 231.64854 234.68024 237.40893
 239.70644 241.60899 243.46854 245.67368 247.68154 249.52395 251.24767 252.78566
 254.12057 255.26479 256.23740 257.09036 257.82852 258.48160 259.07744 259.61723
 260.10271 260.53504 260.91270 261.39400
 399.33000 389.90700 379.81300 368.66800 357.52200 345.30100 333.07400 320.22700
 307.21600 293.84800 280.37600 267.29600 254.61000 242.98700 232.15100 221.97700
 212.67200 204.28600 197.66900 192.82100 189.48600 187.45200 186.81400 187.08900
 187.78100 189.05400 190.64800 192.54200 194.63000 196.75200 198.67100 200.15800
 201.53500 202.48700 202.97500 203.34000 203.53900 203.49700 203.38500 203.24700
 203.00500 202.78600 202.60300 202.43700 202.42600 202.88800 203.42000 203.95100
 204.89500 205.99200 207.30100 208.95800 210.73800 213.10000 215.56400 218.18000
 220.96600 223.91800 226.96100 230.09200 233.29300 236.55700 239.95500 243.53700
 246.84500 249.39000 251.54200 253.47400 255.19500 256.48400 257.43100 258.05900
 258.21200 258.04000 257.58200 256.64300 255.23900 253.50700 251.40800 249.05600
 246.57600 243.99400 241.38900 238.83000 236.34400 233.98600 231.96900 230.11800
 228.42300 226.89900 225.54800 224.29700 223.10500 221.96500 220.95800 220.11300
 219.49000 218.92000 218.32500 217.88100 217.42300 216.96366 216.35568 216.80261
 217.73415 218.28582 218.64258 219.10077 220.44626 222.53987 226.38451 230.35736
 233.59734 237.39164 241.29814 245.22796 248.98002 252.51130 255.78595 258.80109
 261.54781 264.05210 266.34239 268.04198 269.58951 271.01303 272.35754 273.55718
 274.59842 275.49092 276.28989 276.99307 277.60161 278.14001 278.63122 279.07623
 279.47646 279.83287 280.14422 280.54100
 381.81900 372.39900 361.20600 349.77600 337.62200 324.85300 311.81000 298.35300
 284.86000 271.32400 258.56100 246.30400 236.08700 226.79600 218.44800 211.29000
 205.52200 200.89400 197.38100 194.84800 193.01500 192.31500 192.25000 192.43100
 192.91200 193.53700 194.13600 194.71200 195.26200 195.83100 196.39300 196.97600
 197.60400 198.14900 198.58400 199.05700 199.69500 200.37800 201.05400 201.70800
 202.31300 202.85700 203.35500 203.86200 204.56900 205.29700 206.02600 206.98700
 208.19300 209.44100 210.96900 212.57600 214.46200 216.51300 218.63000 220.85300
 223.34100 225.96200 228.73900 231.69700 234.70600 237.70600 240.69200 243.65700
 246.73700 249.69900 252.52100 255.06300 257.29000 259.23300 260.63300 261.68000
 262.46100 262.79800 262.69100 262.22400 261.06900 259.52500 257.70700 255.50700
 253.00100 250.30200 247.39800 244.45200 241.65400 239.05400 236.73300 234.59000
 232.59500 230.72500 228.83400 226.82600 224.66600 222.38700 220.10400 217.71500
 215.45900 213.06600 210.54600 208.09300 205.35400 202.08130 196.05959 200.71215
 209.01611 216.90438 223.84126 229.78593 235.00632 240.20838 245.98943 250.68668
 254.32982 257.93487 261.55666 264.96801 268.15192 271.06452 273.76717 276.25691
 278.57680 280.74479 282.77456 284.60533 286.27232 287.81705 289.31715 290.65561
 291.81734 292.81312 293.70701 294.49387 295.17482 295.77730 296.32696 296.82492
 297.27278 297.67160 298.02000 298.46400
 366.78100 356.33818 345.77336 334.64255 323.04873 311.24591 299.11909 286.92527
 274.64046 262.54064 250.55282 239.85700 229.98218 221.08937 213.27455 206.27973
 200.11691 195.05809 191.64328 189.68846 188.72864 188.79582 189.63400 190.94519
 192.67337 194.77155 197.03773 199.39991 201.84810 204.33128 206.42246 208.26764
 209.89682 211.04500 211.27719 211.50837 211.44855 211.15673 210.79291 210.42610
 210.04628 209.75946 209.57064 209.43782 209.36901 209.70319 210.09237 210.48455
 211.28073 212.46192 213.71510 215.50128 217.43246 219.47864 221.57683 223.66301
 225.72619 227.81337 229.91355 232.02274 234.15492 236.33010 238.58928 240.96246
 243.58665 245.84083 247.84601 249.61419 251.03437 252.16056 252.98574 253.30492
 253.34510 253.12228 252.48547 251.43665 250.04583 248.21001 246.12219 243.95838
 241.75256 239.55974 237.38292 235.22510 233.08829 230.95847 228.98765 227.14783
 225.43401 223.90920 222.54238 221.31756 220.20274 219.16592 218.27310 217.41729
 216.66247 215.84565 214.94683 214.31401 213.76720 213.18314 211.81567 212.74800
 214.58684 216.42926 217.49893 217.80844 218.77802 222.85973 228.44734 233.23386
 237.00575 240.77400 244.51720 248.16931 251.64638 254.58827 257.15872 259.74542
 262.43573 264.96039 267.29691 269.37613 271.38934 273.34259 274.98169 276.56601
 278.20514 279.87354 281.40768 282.77060 283.95386 285.00455 285.96613 286.84079
 287.63202 288.34299 288.96915 289.80466
 366.78100 356.33817 345.77334 334.64251 323.04868 311.24585 299.11902 286.92519
 274.64036 262.54053 250.55270 239.85687 229.98204 221.08921 213.27438 206.27955
 200.11672 195.05789 191.64306 189.68823 188.72840 188.79556 189.63373 190.94490
 192.67307 194.77124 197.03741 199.39958 201.84775 204.33092 206.42209 208.26726
 209.89643 211.04460 211.27677 211.50794 211.44811 211.15628 210.79245 210.42562
 210.04579 209.75896 209.57013 209.43730 209.36847 209.70264 210.09181 210.48398
 211.28015 212.46132 213.71449 215.50066 217.43183 219.47800 221.57617 223.66234
 225.72551 227.81268 229.91285 232.02202 234.15419 236.32936 238.58853 240.96169
 243.58586 245.84003 247.84520 249.61337 251.03354 252.15971 252.98488 253.30405
 253.34422 253.12139 252.48456 251.43573 250.04490 248.20907 246.12124 243.95741
 241.75158 239.55875 237.38192 235.22409 233.08726 230.95743 228.98660 227.14677
 225.43294 223.90811 222.54128 221.31645 220.20162 219.16479 218.27196 217.41613
 216.66130 215.84447 214.94564 214.31281 213.76598 213.19615 211.86130 212.87532
 214.71996 216.53244 217.55576 217.93016 218.89085 222.87024 228.39049 233.14198
 236.89853 240.66614 244.41299 248.04416 251.44305 254.34363 256.96912 259.64505
 262.28394 264.75354 267.11450 269.24127 271.27353 273.21725 274.85184 276.44464
 278.09207 279.76944 281.30673 282.67044 283.85437 284.90430 285.86804 286.74207
 287.53397 288.24463 288.87222 289.70850
 366.78100 356.33796 345.77292 334.64188 323.04784 311.24480 299.11776 286.92372
 274.63868 262.53864 250.55060 239.85456 229.97952 221.08648 213.27144 206.27640
 200.11336 195.05432 191.63928 189.68424 188.72421 188.79117 189.62913 190.94009
 192.66805 194.76601 197.03197 199.39393 201.84189 204.32485 206.41581 208.26077
 209.88973 211.03769 211.26965 211.50061 211.44057 211.14853 210.78449 210.41745
 210.03741 209.75037 209.56133 209.42829 209.35925 209.69321 210.08217 210.47413
 211.27009 212.45105 213.70401 215.48997 217.42093 219.46689 221.56485 223.65081
 225.71377 227.80073 229.90069 232.00966 234.14162 236.31658 238.57554 240.94850
 243.57246 245.82642 247.83138 249.59934 251.01930 252.14526 252.97022 253.28918
 253.32914 253.10610 252.46906 251.42002 250.02898 248.19294 246.10490 243.94086
 241.73482 239.54178 237.36474 235.20670 233.06966 230.93962 228.96858 227.12854
 225.41450 223.88946 222.52242 221.29738 220.18234 219.14530 218.25226 217.39622
 216.64118 215.82414 214.92511 214.29207 213.74503 213.19991 211.92171 212.99741
 214.84154 216.61337 217.64304 218.04918 219.03333 222.87148 228.34001 233.05348
 236.78893 240.55298 244.30168 247.91385 251.23729 254.10005 256.78455 259.54538
 262.13031 264.54089 266.92050 269.09479 271.14948 273.08469 274.71991 276.32217
 277.98483 279.67133 281.20886 282.57297 283.75729 284.80991 285.77127 286.64636
 287.43860 288.14975 288.77679 289.61481
 366.78100 356.33770 345.77240 334.64110 323.04680 311.24350 299.11620 286.92190
 274.63660 262.53630 250.54800 239.85170 229.97640 221.08310 213.26779 206.27249
 200.10919 195.04989 191.63459 189.67929 188.71899 188.78569 189.62339 190.93409
 192.66179 194.75949 197.02519 199.38689 201.83459 204.31729 206.40799 208.25269
 209.88139 211.02909 211.26079 211.49149 211.43119 211.13889 210.77459 210.40729
 210.02699 209.73969 209.55038 209.41708 209.34778 209.68148 210.07018 210.46188
 211.25758 212.43828 213.69098 215.47668 217.40738 219.45308 221.55078 223.63648
 225.69918 227.78588 229.88558 231.99428 234.12598 236.30068 238.55938 240.93208
 243.55578 245.80948 247.81418 249.58188 251.00158 252.12727 252.95197 253.27067
 253.31037 253.08707 252.44977 251.40047 250.00917 248.17287 246.08457 243.92027
 241.71397 239.52067 237.34337 235.18507 233.04777 230.91747 228.94617 227.10587
 225.39157 223.86627 222.49897 221.27367 220.15837 219.12107 218.22777 217.37147
 216.61617 215.79886 214.89956 214.26626 213.71896 213.20274 211.99112 213.11243
 214.94307 216.69005 217.75230 218.17752 219.18207 222.87735 228.30130 232.96884
 236.68158 240.43962 244.19093 247.78445 251.03345 253.86044 256.60239 259.44434
 261.97623 264.32489 266.71802 268.93628 271.01529 272.94473 274.57977 276.19614
 277.87988 279.57138 281.10846 282.47363 283.65988 284.71063 285.67258 286.54874
 287.34164 288.05286 288.68115 289.51825
 366.78100 356.33751 345.77203 334.64054 323.04605 311.24257 299.11508 286.92059
 274.63511 262.53462 250.54613 239.84965 229.97416 221.08067 213.26519 206.26970
 200.10621 195.04673 191.63124 189.67575 188.71527 188.78178 189.61929 190.92981
 192.65732 194.75483 197.02035 199.38186 201.82937 204.31189 206.40240 208.24691
 209.87543 211.02294 211.25445 211.48497 211.42448 211.13199 210.76751 210.40002
 210.01953 209.73205 209.54256 209.40907 209.33959 209.67310 210.06161 210.45313
 211.24864 212.42915 213.68167 215.46718 217.39769 219.44321 221.54072 223.62623
 225.68875 227.77526 229.87477 231.98329 234.11480 236.28931 238.54783 240.92034
 243.54385 245.79737 247.80188 249.56939 250.98891 252.11442 252.93893 253.25745
 253.29696 253.07347 252.43599 251.38650 249.99501 248.15853 246.07004 243.90555
 241.69907 239.50558 237.32809 235.16961 233.03212 230.90163 228.93015 227.08966
 225.37517 223.84969 222.48220 221.25671 220.14123 219.10374 218.21025 217.35377
 216.59828 215.78079 214.88131 214.24782 213.70033 213.21178 212.06470 213.22154
 215.02335 216.75743 217.86281 218.30418 219.33008 222.89017 228.27351 232.89076
 236.57590 240.32875 244.08205 247.65344 250.83063 253.62473 256.42267 259.34195
 261.82687 264.11276 266.51401 268.77139 270.87518 272.80579 274.44199 276.07272
 277.77777 279.46640 281.00583 282.37030 283.55710 284.61057 285.57138 286.44858
 287.24155 287.95346 288.58325 289.42108
 366.78100 356.33737 345.77174 334.64012 323.04549 311.24186 299.11423 286.91961
 274.63398 262.53335 250.54472 239.84810 229.97247 221.07884 213.26321 206.26759
 200.10396 195.04433 191.62870 189.67308 188.71245 188.77882 189.61619 190.92657
 192.65394 194.75131 197.01668 199.37806 201.82543 204.30780 206.39817 208.24255
 209.87092 211.01829 211.24966 211.48004 211.41941 211.12678 210.76215 210.39453
 210.01390 209.72627 209.53664 209.40302 209.33339 209.66676 210.05513 210.44651
 211.24188 212.42225 213.67462 215.46000 217.39037 219.43574 221.53311 223.61849
 225.68086 227.76723 229.86660 231.97498 234.10635 236.28072 238.53909 240.91147
 243.53484 245.78821 247.79258 249.55996 250.97933 252.10470 252.92907 253.24745
 253.28682 253.06319 252.42556 251.37594 249.98431 248.14768 246.05905 243.89443
 241.68780 239.49417 237.31654 235.15792 233.02029 230.88966 228.91803 227.07741
 225.36278 223.83715 222.46952 221.24390 220.12827 219.09064 218.19701 217.34039
 216.58476 215.76713 214.86750 214.23388 213.68625 213.22548 212.14824 213.32713
 215.08815 216.80844 217.95728 218.41248 219.46175 222.89261 228.24367 232.81580
 236.46844 240.21710 243.96895 247.51247 250.62033 253.38397 256.23444 259.23260
 261.68137 263.91556 266.31381 268.60672 270.73672 272.67542 274.31363 275.94986
 277.66422 279.36697 280.91199 282.27719 283.46509 284.51794 285.48178 286.35919
 287.15378 287.86847 288.50555 289.34195
 366.78100 356.33706 345.77113 334.63919 323.04426 311.24032 299.11238 286.91745
 274.63151 262.53058 250.54164 239.84470 229.96877 221.07483 213.25890 206.26296
 200.09902 195.03909 191.62315 189.66722 188.70628 188.77234 189.60941 190.91947
 192.64653 194.74360 197.00866 199.36973 201.81679 204.29885 206.38892 208.23298
 209.86105 211.00811 211.23917 211.46924 211.40830 211.11537 210.75043 210.38249
 210.00156 209.71362 209.52369 209.38975 209.31981 209.65288 210.04094 210.43201
 211.22707 212.40713 213.65920 215.44426 217.37433 219.41939 221.51645 223.60152
 225.66358 227.74965 229.84871 231.95677 234.08784 236.26190 238.51997 240.89203
 243.51509 245.76816 247.77222 249.53928 250.95835 252.08341 252.90748 253.22554
 253.26460 253.04067 252.40273 251.35280 249.96086 248.12392 246.03499 243.87005
 241.66312 239.46918 237.29124 235.13231 232.99437 230.86344 228.89150 227.05056
 225.33563 223.80969 222.44176 221.21582 220.09988 219.06195 218.16801 217.31108
 216.55514 215.73720 214.83727 214.20333 213.65540 213.22983 212.23143 213.43860
 215.14975 216.85809 218.05006 218.53194 219.63321 222.91733 228.22539 232.74861
 236.37231 240.11748 243.86124 247.36961 250.41257 253.15331 256.05356 259.11374
 261.53143 263.72256 266.11902 268.44250 270.60037 272.54840 274.20264 275.84747
 277.56500 279.27051 280.81320 282.17929 283.36539 284.42023 285.38361 286.26108
 287.05533 287.76956 288.40475 289.24298
 366.78100 356.33663 345.77027 334.63790 323.04254 311.23817 299.10981 286.91444
 274.62807 262.52671 250.53734 239.83998 229.96361 221.06925 213.25288 206.25651
 200.09215 195.03178 191.61542 189.65905 188.69769 188.76332 189.59995 190.90959
 192.63622 194.73286 196.99749 199.35813 201.80476 204.28639 206.37603 208.21966
 209.84730 210.99393 211.22457 211.45420 211.39283 211.09947 210.73410 210.36574
 209.98437 209.69600 209.50564 209.37127 209.30091 209.63354 210.02118 210.41181
 211.20644 212.38608 213.63771 215.42235 217.35198 219.39662 221.49325 223.57788
 225.63952 227.72515 229.82379 231.93142 234.06206 236.23569 238.49332 240.86496
 243.48759 245.74023 247.74386 249.51050 250.92913 252.05376 252.87740 253.19503
 253.23367 253.00930 252.37094 251.32057 249.92820 248.09084 246.00147 243.83611
 241.62874 239.43438 237.25601 235.09664 232.95828 230.82691 228.85455 227.01318
 225.29782 223.77145 222.40308 221.17672 220.06035 219.02199 218.12762 217.27026
 216.51389 215.69552 214.79516 214.16079 213.61243 213.22844 212.32220 213.55264
 215.20712 216.90900 218.14677 218.64990 219.82137 222.94130 228.20865 232.68654
 236.28328 240.02681 243.75784 247.22517 250.20497 252.92476 255.86671 258.97092
 261.37436 263.53299 265.91888 268.26724 270.45401 272.41525 274.08817 275.74454
 277.46393 279.17160 280.71271 282.07825 283.26474 284.31821 285.28271 286.15848
 286.95325 287.66620 288.29462 289.14307
 366.78100 356.33619 345.76937 334.63656 323.04074 311.23593 299.10712 286.91130
 274.62449 262.52267 250.53286 239.83505 229.95823 221.06342 213.24660 206.24979
 200.08498 195.02416 191.60735 189.65053 188.68872 188.75391 189.59009 190.89928
 192.62546 194.72165 196.98584 199.34602 201.79221 204.27339 206.36258 208.20576
 209.83295 210.97914 211.20932 211.43851 211.37669 211.08288 210.71707 210.34825
 209.96644 209.67762 209.48681 209.35200 209.28118 209.61337 210.00055 210.39074
 211.18493 212.36411 213.61530 215.39948 217.32867 219.37286 221.46904 223.55323
 225.61441 227.69960 229.79779 231.90497 234.03516 236.20834 238.46553 240.83672
 243.45890 245.71109 247.71427 249.48046 250.89865 252.02283 252.84602 253.16320
 253.20139 252.97658 252.33776 251.28695 249.89413 248.05632 245.96651 243.80069
 241.59288 239.39806 237.21925 235.05944 232.92062 230.78881 228.81599 226.97418
 225.25836 223.73155 222.36274 221.13592 220.01911 218.98029 218.08548 217.22767
 216.47085 215.65204 214.75122 214.11641 213.56760 213.22737 212.42355 213.66690
 215.24986 216.95380 218.24585 218.75819 219.99889 222.95576 228.18379 232.62486
 236.20004 239.94299 243.65738 247.08046 249.99805 252.69485 255.66850 258.81531
 261.21027 263.34396 265.72202 268.09265 270.31061 272.29294 273.98282 275.64508
 277.35919 279.06738 280.60901 281.97540 283.16245 284.21854 285.18347 286.06317
 286.86768 287.58932 288.22318 289.06683
 366.78100 356.33566 345.76833 334.63499 323.03865 311.23332 299.10398 286.90764
 274.62031 262.51797 250.52764 239.82930 229.95196 221.05663 213.23929 206.24195
 200.07662 195.01528 191.59794 189.64061 188.67827 188.74293 189.57860 190.88726
 192.61292 194.70859 196.97225 199.33191 201.77758 204.25824 206.34691 208.18957
 209.81623 210.96190 211.19156 211.42022 211.35789 211.06355 210.69721 210.32788
 209.94554 209.65620 209.46487 209.32953 209.25819 209.58986 209.97652 210.36618
 211.15985 212.33851 213.58918 215.37284 217.30150 219.34517 221.44083 223.52449
 225.58516 227.66982 229.76748 231.87415 234.00381 236.17647 238.43314 240.80380
 243.42546 245.67713 247.67979 249.44545 250.86312 251.98678 252.80945 253.12611
 253.16377 252.93844 252.29910 251.24776 249.85443 248.01609 245.92575 243.75942
 241.55108 239.35574 237.17641 235.01607 232.87673 230.74440 228.77106 226.92872
 225.21239 223.68505 222.31572 221.08838 219.97104 218.93171 218.03637 217.17803
 216.42070 215.60136 214.70002 214.06469 213.51535 213.22284 212.53178 213.78604
 215.28568 216.98639 218.34569 218.85757 220.19865 222.95905 228.16200 232.56900
 236.11960 239.86449 243.56055 246.93645 249.79465 252.47127 255.46867 258.64584
 261.03812 263.15936 265.53415 267.92734 270.17758 272.18689 273.89322 275.55637
 277.25815 278.96042 280.50143 281.86737 283.05536 284.11041 285.07651 285.95956
 286.76501 287.48807 288.12335 288.96780
 366.78100 356.33514 345.76727 334.63341 323.03655 311.23069 299.10082 286.90396
 274.61610 262.51324 250.52237 239.82351 229.94565 221.04978 213.23192 206.23406
 200.06820 195.00633 191.58847 189.63061 188.66774 188.73188 189.56702 190.87516
 192.60029 194.69543 196.95857 199.31771 201.76284 204.24298 206.33112 208.17325
 209.79939 210.94453 211.17367 211.40180 211.33894 211.04408 210.67721 210.30735
 209.92449 209.63463 209.44276 209.30690 209.23504 209.56618 209.95231 210.34145
 211.13459 212.31272 213.56286 215.34600 217.27414 219.31727 221.41241 223.49555
 225.55568 227.63982 229.73696 231.84310 233.97223 236.14437 238.40051 240.77065
 243.39178 245.64292 247.64506 249.41019 250.82733 251.95047 252.77261 253.08874
 253.12588 252.90002 252.26015 251.20829 249.81443 247.97557 245.88470 243.71784
 241.50898 239.31312 237.13325 234.97239 232.83253 230.69966 228.72580 226.88294
 225.16608 223.63821 222.26835 221.04049 219.92262 218.88276 217.98690 217.12804
 216.37017 215.55031 214.64845 214.01259 213.46272 213.21843 212.64128 213.91222
 215.31433 217.02054 218.44325 218.96857 220.37576 222.99144 228.12915 232.50378
 236.03702 239.79330 243.47253 246.79486 249.58884 252.24451 255.25975 258.45682
 260.85541 262.98151 265.35568 267.76819 270.04980 272.08688 273.81012 275.46945
 277.15274 278.86621 280.40820 281.77524 282.96323 284.01990 284.98758 285.87314
 286.68173 287.40668 288.04300 288.88766
 366.78100 356.33511 345.76722 334.63334 323.03645 311.23056 299.10067 286.90378
 274.61589 262.51301 250.52212 239.82323 229.94534 221.04945 213.23156 206.23368
 200.06779 195.00590 191.58801 189.63012 188.66723 188.73135 189.56646 190.87457
 192.59968 194.69479 196.95791 199.31702 201.76213 204.24224 206.33035 208.17246
 209.79858 210.94369 211.17280 211.40091 211.33802 211.04313 210.67625 210.30636
 209.92347 209.63358 209.44169 209.30581 209.23392 209.56503 209.95114 210.34025
 211.13336 212.31148 213.56159 215.34470 217.27281 219.31592 221.41103 223.49415
 225.55426 227.63837 229.73548 231.84159 233.97070 236.14282 238.39893 240.76904
 243.39015 245.64126 247.64338 249.40849 250.82560 251.94871 252.77082 253.08693
 253.12405 252.89816 252.25827 251.20638 249.81249 247.97360 245.88272 243.71583
 241.50694 239.31105 237.13116 234.97027 232.83039 230.69750 228.72361 226.88072
 225.16383 223.63595 222.26606 221.03817 219.92028 218.88039 217.98450 217.12562
 216.36773 215.54784 214.64595 214.01006 213.46017 213.23964 212.71860 214.06468
 215.35478 217.01700 218.54967 219.06366 220.62569 222.96954 228.11050 232.46835
 235.96786 239.72498 243.37854 246.63644 249.36574 252.00786 255.04230 258.25525
 260.67606 262.82089 265.19354 267.61960 269.92950 271.99622 273.73526 275.38522
 277.05344 278.77670 280.32062 281.68713 282.87497 283.93201 284.90024 285.78754
 286.59589 287.32132 287.96112 288.80606
 366.78100 356.33451 345.76602 334.63153 323.03404 311.22755 299.09706 286.89957
 274.61108 262.50759 250.51610 239.81661 229.93812 221.04163 213.22313 206.22464
 200.05815 194.99566 191.57717 189.61868 188.65519 188.71870 189.55321 190.86072
 192.58523 194.67974 196.94225 199.30076 201.74527 204.22478 206.31229 208.15380
 209.77931 210.92382 211.15233 211.37984 211.31635 211.02086 210.65337 210.28288
 209.89939 209.60889 209.41640 209.27991 209.20742 209.53793 209.92344 210.31195
 211.10446 212.28197 213.53148 215.31399 217.24150 219.28401 221.37852 223.46103
 225.52054 227.60405 229.70056 231.80607 233.93458 236.10609 238.36160 240.73111
 243.35162 245.60213 247.60364 249.36815 250.78466 251.90716 252.72867 253.04418
 253.08069 252.85420 252.21371 251.16122 249.76673 247.92724 245.83575 243.66826
 241.45877 239.26228 237.08179 234.92030 232.77981 230.64632 228.67183 226.82834
 225.11085 223.58236 222.21187 220.98338 219.86489 218.82440 217.92791 217.06842
 216.30992 215.48943 214.58694 213.95045 213.39996 213.23344 212.84004 214.15717
 215.47382 217.00449 218.51294 219.24001 220.79051 223.14360 228.08966 232.38988
 235.87115 239.62912 243.25713 246.45599 249.13333 251.77190 254.82593 258.05280
 260.50897 262.67853 265.04846 267.48322 269.81985 271.91821 273.67288 275.30908
 276.96268 278.68796 280.23233 281.59903 282.78769 283.84451 284.81400 285.70105
 286.51273 287.23868 287.87766 288.72241
 366.78100 356.33358 345.76416 334.62874 323.03032 311.22290 299.09148 286.89307
 274.60365 262.49923 250.50681 239.80639 229.92697 221.02955 213.21013 206.21071
 200.04329 194.97987 191.56045 189.60104 188.63662 188.69920 189.53278 190.83936
 192.56294 194.65652 196.91810 199.27568 201.71926 204.19784 206.28442 208.12501
 209.74959 210.89317 211.12075 211.34733 211.28291 210.98649 210.61807 210.24665
 209.86223 209.57081 209.37739 209.23998 209.16656 209.49614 209.88072 210.26830
 211.05988 212.23646 213.48504 215.26662 217.19320 219.23478 221.32836 223.40995
 225.46853 227.55111 229.64669 231.75127 233.87885 236.04943 238.30401 240.67259
 243.29217 245.54175 247.54233 249.30592 250.72150 251.84308 252.66366 252.97824
 253.01382 252.78640 252.14498 251.09156 249.69614 247.85572 245.76330 243.59489
 241.38447 239.18705 237.00563 234.84321 232.70179 230.56737 228.59195 226.74753
 225.02911 223.49969 222.12827 220.89886 219.77944 218.73802 217.84060 216.98018
 216.22076 215.39934 214.49592 213.85850 213.30708 213.21066 212.98283 214.26791
 215.52615 217.00845 218.53638 219.42159 220.89029 223.34381 228.05086 232.28252
 235.76196 239.52908 243.13490 246.27840 248.90750 251.54263 254.61188 257.84784
 260.34833 262.54843 264.91748 267.35880 269.72012 271.85239 273.62692 275.25824
 276.88089 278.59918 280.14453 281.51105 282.69940 283.75626 284.72659 285.61578
 286.42603 287.15472 287.79416 288.64182
 366.78100 356.33278 345.76256 334.62635 323.02713 311.21891 299.08669 286.88747
 274.59725 262.49204 250.49882 239.79760 229.91738 221.01916 213.19894 206.19873
 200.03051 194.96629 191.54607 189.58585 188.62063 188.68242 189.51520 190.82098
 192.54376 194.63654 196.89732 199.25411 201.69689 204.17467 206.26045 208.10023
 209.72402 210.86680 211.09358 211.31936 211.25414 210.95692 210.58771 210.21549
 209.83027 209.53805 209.34383 209.20561 209.13140 209.46018 209.84396 210.23074
 211.02152 212.19730 213.44509 215.22587 217.15165 219.19243 221.28521 223.36600
 225.42378 227.50556 229.60034 231.70412 233.83090 236.00069 238.25447 240.62225
 243.24103 245.48981 247.48959 249.25238 250.66716 251.78794 252.60772 252.92150
 252.95628 252.72807 252.08585 251.03163 249.63541 247.79419 245.70097 243.53176
 241.32054 239.12232 236.94010 234.77688 232.63467 230.49945 228.52323 226.67801
 224.95879 223.42857 222.05636 220.82614 219.70592 218.66370 217.76548 216.90426
 216.14405 215.32183 214.41761 213.77939 213.22717 213.19308 213.11256 214.40971
 215.55948 217.01518 218.59013 219.58557 221.00110 223.51312 228.00691 232.17145
 235.65665 239.43399 243.01103 246.09187 248.67236 251.30847 254.39528 257.63806
 260.19003 262.43137 264.80283 267.24884 269.63123 271.79733 273.59125 275.21558
 276.80765 278.52081 280.06522 281.43286 282.62070 283.67722 284.64838 285.53836
 286.35034 287.08182 287.71997 288.56769
 366.78100 356.33197 345.76094 334.62391 323.02388 311.21486 299.08183 286.88180
 274.59077 262.48474 250.49071 239.78868 229.90765 221.00862 213.18759 206.18657
 200.01754 194.95251 191.53148 189.57045 188.60442 188.66539 189.49736 190.80233
 192.52430 194.61628 196.87625 199.23222 201.67419 204.15116 206.23613 208.07510
 209.69807 210.84004 211.06601 211.29099 211.22496 210.92693 210.55690 210.18387
 209.79784 209.50481 209.30978 209.17075 209.09573 209.42370 209.80667 210.19264
 210.98261 212.15758 213.40455 215.18452 217.10949 219.14946 221.24144 223.32141
 225.37838 227.45935 229.55332 231.65629 233.78226 235.95123 238.20420 240.57117
 243.18915 245.43712 247.43609 249.19806 250.61203 251.73200 252.55097 252.86394
 252.89791 252.66889 252.02586 250.97083 249.57380 247.73177 245.63774 243.46771
 241.25568 239.05665 236.87362 234.70960 232.56657 230.43054 228.45351 226.60748
 224.88745 223.35642 221.98339 220.75236 219.63133 218.58831 217.68928 216.82725
 216.06622 215.24319 214.33816 213.69913 213.14610 213.17413 213.24040 214.55504
 215.61082 217.02266 218.64211 219.74527 221.14305 223.65276 227.96561 232.07057
 235.55791 239.33434 242.86623 245.87679 248.41852 251.06783 254.17810 257.42767
 260.03711 262.32660 264.70499 267.15436 269.55289 271.74988 273.57053 275.19812
 276.75848 278.44318 279.98648 281.35318 282.54175 283.59909 284.56906 285.45920
 286.27356 287.00464 287.64514 288.49661
 366.78100 356.33118 345.75937 334.62155 323.02074 311.21092 299.07710 286.87629
 274.58447 262.47766 250.48284 239.78002 229.89821 220.99839 213.17658 206.17476
 200.00494 194.93913 191.51731 189.55550 188.58868 188.64886 189.48005 190.78423
 192.50542 194.59660 196.85578 199.21097 201.65215 204.12834 206.21252 208.05070
 209.67289 210.81407 211.03926 211.26344 211.19662 210.89781 210.52699 210.15318
 209.76636 209.47254 209.27673 209.13691 209.06110 209.38828 209.77046 210.15565
 210.94483 212.11902 213.36520 215.14438 217.06857 219.10775 221.19893 223.27812
 225.33430 227.41449 229.50767 231.60985 233.73504 235.90322 238.15541 240.52159
 243.13877 245.38596 247.38414 249.14533 250.55851 251.67769 252.49588 252.80806
 252.84125 252.61143 251.96761 250.91180 249.51398 247.67117 245.57635 243.40553
 241.19272 238.99290 236.80909 234.64427 232.50045 230.36364 228.38582 226.53901
 224.81819 223.28637 221.91256 220.68074 219.55893 218.51511 217.61529 216.75248
 215.99066 215.16685 214.26103 213.62121 213.06740 213.15562 213.36407 214.70128
 215.67801 217.03622 218.69995 219.90675 221.30194 223.77420 227.92793 231.98389
 235.46324 239.22086 242.69365 245.63600 248.15068 250.82288 253.96002 257.21722
 259.88574 262.23389 264.62012 267.07166 269.48392 271.70697 273.55328 275.18958
 276.72678 278.38129 279.91998 281.28784 282.47543 283.53305 284.50400 285.39542
 286.20886 286.94138 287.58142 288.42905
 366.78100 356.33060 345.75820 334.61980 323.01841 311.20801 299.07361 286.87221
 274.57981 262.47241 250.47701 239.77362 229.89122 220.99082 213.16842 206.16602
 199.99562 194.92922 191.50683 189.54443 188.57703 188.63663 189.46723 190.77083
 192.49143 194.58204 196.84064 199.19524 201.63584 204.11144 206.19504 208.03264
 209.65424 210.79485 211.01945 211.24305 211.17565 210.87625 210.50485 210.13045
 209.74306 209.44866 209.25226 209.11186 209.03546 209.36206 209.74366 210.12827
 210.91687 212.09047 213.33607 215.11467 217.03827 219.07687 221.16748 223.24608
 225.30168 227.38128 229.47388 231.57548 233.70008 235.86769 238.11929 240.48489
 243.10149 245.34809 247.34569 249.10629 250.51890 251.63750 252.45510 252.76670
 252.79930 252.56890 251.92450 250.86811 249.46971 247.62631 245.53091 243.35951
 241.14611 238.94571 236.76131 234.59592 232.45152 230.31412 228.33572 226.48832
 224.76692 223.23452 221.86013 220.62773 219.50533 218.46093 217.56053 216.69713
 215.93473 215.11034 214.20394 213.56354 213.00914 213.14697 213.47264 214.85039
 215.76196 217.06483 218.77263 220.06992 221.46834 223.88248 227.89307 231.90163
 235.36206 239.08467 242.48993 245.36821 247.86533 250.56708 253.73647 257.00415
 259.73599 262.14694 264.54800 267.00262 269.42349 271.66943 273.54095 275.19647
 276.74850 278.32565 279.85629 281.22446 282.41379 283.47214 284.44315 285.33536
 286.15042 286.88333 287.52457 288.37262
 366.78100 356.33079 345.75859 334.62038 323.01918 311.20897 299.07477 286.87356
 274.58135 262.47415 250.47894 239.77574 229.89353 220.99333 213.17112 206.16891
 199.99871 194.93250 191.51030 189.54809 188.58089 188.64068 189.47147 190.77527
 192.49606 194.58686 196.84565 199.20045 201.64124 204.11703 206.20083 208.03862
 209.66042 210.80121 211.02601 211.24980 211.18259 210.88339 210.51218 210.13798
 209.75077 209.45657 209.26036 209.12015 209.04395 209.37074 209.75254 210.13733
 210.92613 212.09992 213.34571 215.12451 217.04830 219.08710 221.17789 223.25668
 225.31248 227.39227 229.48507 231.58686 233.71166 235.87945 238.13124 240.49704
 243.11383 245.36063 247.35842 249.11922 250.53201 251.65080 252.46860 252.78039
 252.81319 252.58298 251.93878 250.88257 249.48436 247.64116 245.54595 243.37475
 241.16154 238.96134 236.77713 234.61192 232.46772 230.33051 228.35231 226.50510
 224.78390 223.25169 221.87748 220.64528 219.52307 218.47887 217.57866 216.71546
 215.95325 215.12904 214.22284 213.58263 213.02843 213.18015 213.53860 214.99022
 215.88911 217.13022 218.86865 220.23351 221.63916 223.97797 227.86281 231.81410
 235.24570 238.92332 242.25711 245.07559 247.56410 250.30345 253.51117 256.79437
 259.58688 262.05331 264.48550 266.94742 269.37363 271.63580 273.53778 275.21655
 276.79507 278.28650 279.80405 281.17166 282.36041 283.41760 284.38925 285.27945
 286.09558 286.83099 287.47311 288.31949
 366.78100 356.33148 345.75996 334.62243 323.02191 311.21239 299.07887 286.87835
 274.58682 262.48030 250.48578 239.78326 229.90174 221.00221 213.18069 206.17917
 200.00965 194.94413 191.52260 189.56108 188.59456 188.65504 189.48652 190.79099
 192.51247 194.60395 196.86343 199.21891 201.66038 204.13686 206.22134 208.05982
 209.68230 210.82377 211.04925 211.27373 211.20721 210.90869 210.53816 210.16464
 209.77812 209.48460 209.28908 209.14955 209.07403 209.40151 209.78399 210.16947
 210.95894 212.13342 213.37990 215.15938 217.08386 219.12333 221.21481 223.29429
 225.35077 227.43125 229.52473 231.62720 233.75268 235.92116 238.17364 240.54012
 243.15759 245.40507 247.40355 249.16503 250.57851 251.69798 252.51646 252.82894
 252.86242 252.63290 251.98937 250.93385 249.53633 247.69381 245.59929 243.42876
 241.21624 239.01672 236.83320 234.66868 232.52515 230.38863 228.41111 226.56459
 224.84407 223.31254 221.93902 220.70750 219.58598 218.54246 217.64293 216.78041
 216.01889 215.19537 214.28985 213.65032 213.09680 213.24353 213.59021 215.08855
 216.05951 217.24165 218.98039 220.38153 221.79681 224.06210 227.82991 231.71661
 235.12257 238.74113 241.99158 244.75301 247.24454 250.03641 253.29298 256.60315
 259.46527 261.99460 264.45227 266.91464 269.33249 271.59244 273.49530 275.16681
 276.73874 278.26840 279.80002 281.16763 282.35681 283.41272 284.38376 285.27362
 286.08994 286.82242 287.44385 288.27902
 366.78100 356.33119 345.75939 334.62158 323.02078 311.21097 299.07716 286.87636
 274.58455 262.47775 250.48294 239.78013 229.89833 220.99852 213.17672 206.17491
 200.00510 194.93930 191.51749 189.55569 188.58888 188.64908 189.48027 190.78446
 192.50566 194.59685 196.85605 199.21124 201.65243 204.12863 206.21282 208.05102
 209.67321 210.81440 211.03960 211.26379 211.19699 210.89818 210.52737 210.15357
 209.76676 209.47296 209.27715 209.13734 209.06154 209.38873 209.77093 210.15612
 210.94531 212.11951 213.36570 215.14490 217.06909 219.10828 221.19948 223.27867
 225.33487 227.41506 229.50825 231.61045 233.73564 235.90384 238.15603 240.52223
 243.13942 245.38661 247.38481 249.14600 250.55920 251.67839 252.49658 252.80878
 252.84197 252.61217 251.96836 250.91255 249.51475 247.67194 245.57714 243.40633
 241.19352 238.99372 236.80991 234.64511 232.50130 230.36449 228.38669 226.53988
 224.81908 223.28727 221.91346 220.68166 219.55985 218.51605 217.61624 216.75343
 215.99163 215.16782 214.26202 213.62221 213.06841 213.26154 213.72711 215.14871
 216.13983 217.26372 219.06073 220.53079 221.96632 224.13118 227.77061 231.64322
 235.00842 238.57295 241.73062 244.42818 246.91383 249.75618 253.08051 256.44537
 259.35345 261.94424 264.43967 266.90488 269.30780 271.55081 273.47928 275.16876
 276.72830 278.24814 279.75418 281.12009 282.30688 283.35895 284.32556 285.21494
 286.03021 286.77606 287.45294 288.31552
 366.78100 356.33035 345.75769 334.61904 323.01738 311.20673 299.07208 286.87042
 274.57777 262.47011 250.47446 239.77081 229.88815 220.98750 213.16484 206.16219
 199.99154 194.92488 191.50223 189.53957 188.57192 188.63127 189.46161 190.76496
 192.48530 194.57565 196.83400 199.18834 201.62869 204.10403 206.18738 208.02473
 209.64607 210.78642 211.01076 211.23411 211.16645 210.86680 210.49515 210.12049
 209.73284 209.43818 209.24153 209.10088 209.02422 209.35057 209.73191 210.11626
 210.90461 212.07795 213.32330 215.10164 217.02499 219.06334 221.15368 223.23203
 225.28737 227.36672 229.45907 231.56041 233.68476 235.85210 238.10345 240.46880
 243.08514 245.33149 247.32883 249.08918 250.50153 251.61987 252.43722 252.74856
 252.78091 252.55026 251.90560 250.84895 249.45029 247.60664 245.51099 243.33933
 241.12568 238.92502 236.74037 234.57472 232.43006 230.29241 228.31375 226.46610
 224.74445 223.21179 221.83714 220.60448 219.48183 218.43718 217.53652 216.67287
 215.91021 215.08556 214.17890 213.53825 212.98360 213.25481 213.93179 215.18452
 216.09543 217.24146 219.10909 220.70108 222.22107 224.29372 227.76416 231.63863
 234.88290 238.35266 241.41631 244.07390 246.63066 249.55739 252.89687 256.22269
 259.17456 261.85089 264.44492 266.92703 269.30734 271.50620 273.43982 275.13937
 276.72321 278.26038 279.77585 281.15002 282.35046 283.42630 284.43625 285.40439
 286.29630 287.09058 287.78439 288.66864
 366.78100 356.33016 345.75732 334.61848 323.01664 311.20580 299.07096 286.86912
 274.57628 262.46844 250.47260 239.76876 229.88592 220.98508 213.16224 206.15940
 199.98856 194.92172 191.49888 189.53604 188.56820 188.62736 189.45752 190.76068
 192.48084 194.57100 196.82916 199.18332 201.62348 204.09864 206.18180 208.01896
 209.64012 210.78028 211.00444 211.22760 211.15976 210.85992 210.48808 210.11324
 209.72540 209.43056 209.23372 209.09288 209.01604 209.34220 209.72336 210.10752
 210.89568 212.06884 213.31400 215.09216 217.01532 219.05348 221.14364 223.22180
 225.27696 227.35612 229.44828 231.54944 233.67360 235.84076 238.09192 240.45708
 243.07324 245.31940 247.31656 249.07672 250.48888 251.60704 252.42420 252.73536
 252.76752 252.53668 251.89184 250.83500 249.43616 247.59232 245.49648 243.32464
 241.11080 238.90996 236.72512 234.55928 232.41444 230.27660 228.29776 226.44992
 224.72808 223.19524 221.82040 220.58756 219.46472 218.41988 217.51904 216.65520
 215.89236 215.06752 214.16068 213.51984 212.96500 213.27579 214.05919 215.30400
 216.10890 217.23221 219.16296 220.87375 222.46492 224.49498 227.85048 231.65582
 234.79941 238.12915 241.07660 243.69186 246.30829 249.31017 252.68985 256.02850
 258.98489 261.78928 264.43860 266.91843 269.28748 271.47278 273.38809 275.09308
 276.67017 278.30188 279.85971 281.23935 282.44647 283.53992 284.63516 285.65143
 286.56543 287.37936 288.09039 288.99652
 366.78100 356.32990 345.75680 334.61770 323.01560 311.20450 299.06940 286.86730
 274.57420 262.46610 250.47000 239.76590 229.88280 220.98171 213.15861 206.15551
 199.98441 194.91731 191.49421 189.53111 188.56301 188.62191 189.45181 190.75471
 192.47461 194.56451 196.82241 199.17631 201.61621 204.09111 206.17401 208.01091
 209.63181 210.77171 210.99561 211.21851 211.15041 210.85032 210.47822 210.10312
 209.71502 209.41992 209.22282 209.08172 209.00462 209.33052 209.71142 210.09532
 210.88322 212.05612 213.30102 215.07892 217.00182 219.03972 221.12962 223.20752
 225.26242 227.34132 229.43322 231.53412 233.65802 235.82493 238.07583 240.44073
 243.05663 245.30253 247.29943 249.05933 250.47123 251.58913 252.40603 252.71693
 252.74883 252.51773 251.87263 250.81553 249.41643 247.57233 245.47623 243.30413
 241.09003 238.88893 236.70383 234.53773 232.39263 230.25453 228.27544 226.42734
 224.70524 223.17214 221.79704 220.56394 219.44084 218.39574 217.49464 216.63054
 215.86744 215.04234 214.13524 213.49414 212.93904 213.28387 214.15549 215.49614
 216.21542 217.27832 219.22183 221.00644 222.63676 224.63307 227.91618 231.65341
 234.71358 237.90533 240.72568 243.28864 245.95090 249.03867 252.47720 255.83955
 258.89706 261.74902 264.39227 266.88712 269.25623 271.42581 273.33981 275.06998
 276.72903 278.38440 279.94403 281.32782 282.54544 283.64993 284.74432 285.73578
 286.62750 287.42157 288.11523 288.99927
 366.78100 356.32911 345.75523 334.61534 323.01246 311.20057 299.06469 286.86180
 274.56792 262.45903 250.46215 239.75726 229.87338 220.97149 213.14760 206.14372
 199.97183 194.90395 191.48006 189.51618 188.54729 188.60541 189.43452 190.73664
 192.45575 194.54486 196.80198 199.15509 201.59421 204.06832 206.15044 207.98655
 209.60667 210.74578 210.96890 211.19101 211.12213 210.82124 210.44835 210.07247
 209.68358 209.38770 209.18981 209.04793 208.97004 209.29516 209.67527 210.05839
 210.84550 212.01761 213.26173 215.03884 216.96096 218.99807 221.08719 223.16430
 225.21842 227.29653 229.38765 231.48776 233.61088 235.77699 238.02710 240.39122
 243.00633 245.25145 247.24756 249.00668 250.41779 251.53491 252.35102 252.66114
 252.69225 252.46036 251.81448 250.75659 249.35671 247.51182 245.41494 243.24205
 241.02717 238.82528 236.63940 234.47251 232.32663 230.18774 228.20785 226.35897
 224.63608 223.10220 221.72631 220.49243 219.36854 218.32266 217.42077 216.55589
 215.79200 214.96611 214.05823 213.41634 212.86046 213.26414 214.28406 215.68568
 216.27805 217.33577 219.32224 221.15746 222.82668 224.81497 228.01544 231.67076
 234.64188 237.68019 240.35445 242.85233 245.56769 248.76443 252.28883 255.68240
 258.86395 261.68228 264.37161 266.91415 269.28259 271.43036 273.34372 275.09006
 276.77353 278.48422 280.05029 281.44791 282.68610 283.85245 284.95041 285.94513
 286.83975 287.63641 288.33234 289.21927
 366.78100 356.32662 345.75023 334.60785 323.00246 311.18808 299.04969 286.84431
 274.54792 262.43654 250.43715 239.72977 229.84338 220.93900 213.11261 206.10623
 199.93185 194.86146 191.43508 189.46869 188.49731 188.55292 189.37954 190.67915
 192.39577 194.48238 196.73700 199.08761 201.52423 203.99585 206.07546 207.90908
 209.52669 210.66331 210.88392 211.10354 211.03215 210.72877 210.35338 209.97500
 209.58361 209.28523 209.08484 208.94046 208.86008 209.18269 209.56031 209.94092
 210.72554 211.89515 213.13677 214.91138 216.83100 218.86561 220.95223 223.02684
 225.07846 227.15407 229.24269 231.34031 233.46092 235.62454 237.87215 240.23377
 242.84638 245.08900 247.08261 248.83923 250.24784 251.36246 252.17607 252.48369
 252.51230 252.27792 251.62954 250.56915 249.16677 247.31938 245.22000 243.04461
 240.82723 238.62284 236.43446 234.26507 232.11669 229.97530 227.99292 226.14154
 224.41615 222.87977 221.50138 220.26500 219.13861 218.09023 217.18584 216.31846
 215.55207 214.72369 213.81330 213.16892 212.61053 213.16145 214.49905 215.75262
 216.35257 217.55061 219.41910 221.17220 222.93272 224.96907 228.11600 231.69536
 234.57292 237.44452 239.96155 242.40924 245.18993 248.49466 252.12061 255.56352
 258.78760 261.66165 264.35843 266.93323 269.31445 271.45441 273.36713 275.12317
 276.82852 278.60550 280.17776 281.57941 282.83331 284.03558 285.13901 286.13861
 287.03766 287.83826 288.53766 289.42896
 366.78100 356.32635 345.74971 334.60706 323.00142 311.18677 299.04813 286.84248
 274.54584 262.43419 250.43455 239.72690 229.84025 220.93561 213.10896 206.10232
 199.92767 194.85703 191.43038 189.46374 188.49209 188.54745 189.37380 190.67316
 192.38951 194.47586 196.73022 199.08057 201.51693 203.98828 206.06764 207.90099
 209.51835 210.65470 210.87506 211.09441 211.02276 210.71912 210.34347 209.96483
 209.57318 209.27454 209.07389 208.92925 208.84860 209.17096 209.54831 209.92866
 210.71302 211.88237 213.12373 214.89808 216.81744 218.85179 220.93815 223.01250
 225.06386 227.13921 229.22757 231.32492 233.44527 235.60863 237.85598 240.21734
 242.82969 245.07205 247.06540 248.82176 250.23011 251.34447 252.15782 252.46517
 252.49353 252.25888 251.61024 250.54959 249.14695 247.29930 245.19966 243.02401
 240.80637 238.60172 236.41308 234.24343 232.09478 229.95314 227.97049 226.11885
 224.39320 222.85656 221.47791 220.24127 219.11462 218.06598 217.16133 216.29368
 215.52704 214.69839 213.78775 213.14310 212.58446 213.17085 214.58772 215.85287
 216.50798 217.64101 219.46674 221.28600 223.08705 225.09859 228.17238 231.69711
 234.47577 237.17867 239.55908 241.99083 244.84489 248.24573 251.95499 255.46454
 258.67752 261.62006 264.37680 266.98740 269.36667 271.48593 273.39331 275.17651
 276.89615 278.69125 280.26685 281.67328 282.93039 284.13873 285.24118 286.23993
 287.13818 287.93808 288.63687 289.52737
 366.78100 356.32586 345.74871 334.60557 322.99942 311.18428 299.04513 286.83899
 274.54184 262.42970 250.42955 239.72141 229.83426 220.92912 213.10197 206.09483
 199.91968 194.84854 191.42139 189.45425 188.48210 188.53696 189.36281 190.66167
 192.37752 194.46338 196.71723 199.06709 201.50294 203.97380 206.05265 207.88551
 209.50236 210.63822 210.85807 211.07693 211.00478 210.70064 210.32449 209.94535
 209.55320 209.25406 209.05291 208.90777 208.82662 209.14848 209.52533 209.90519
 210.68904 211.85790 213.09875 214.87261 216.79146 218.82532 220.91117 222.98503
 225.03588 227.11074 229.19859 231.29545 233.41530 235.57816 237.82501 240.18587
 242.79772 245.03958 247.03243 248.78829 250.19614 251.31000 252.12285 252.42971
 252.45756 252.22242 251.57327 250.51213 249.10898 247.26084 245.16069 242.98455
 240.76640 238.56126 236.37211 234.20197 232.05282 229.91068 227.92753 226.07539
 224.34924 222.81210 221.43295 220.19581 219.06866 218.01952 217.11437 216.24623
 215.47908 214.64994 213.73879 213.09365 212.53450 213.16856 214.69888 215.98875
 216.62291 217.74760 219.57713 221.42320 223.22963 225.22491 228.26669 231.72536
 234.39197 236.92926 239.18661 241.58910 244.49449 247.99966 251.79192 255.38681
 258.63199 261.60535 264.41644 267.03824 269.37665 271.43152 273.30994 275.03207
 277.03296 278.82837 280.40631 281.82578 283.14731 284.35495 285.45673 286.45486
 287.35260 288.15201 288.85037 289.74036
 366.78100 356.32589 345.74879 334.60568 322.99958 311.18447 299.04537 286.83926
 274.54216 262.43005 250.42995 239.72184 229.83474 220.92963 213.10253 206.09542
 199.92032 194.84921 191.42211 189.45500 188.48290 188.53779 189.36369 190.66258
 192.37848 194.46437 196.71827 199.06816 201.50406 203.97495 206.05385 207.88674
 209.50364 210.63953 210.85943 211.07832 211.00622 210.70211 210.32601 209.94690
 209.55480 209.25569 209.05459 208.90948 208.82838 209.15027 209.52717 209.90706
 210.69096 211.85985 213.10075 214.87464 216.79354 218.82743 220.91333 222.98722
 225.03812 227.11301 229.20091 231.29780 233.41770 235.58059 237.82749 240.18838
 242.80028 245.04217 247.03507 248.79096 250.19886 251.31275 252.12565 252.43254
 252.46044 252.22533 251.57623 250.51512 249.11202 247.26391 245.16381 242.98770
 240.76960 238.56449 236.37539 234.20528 232.05618 229.91407 227.93097 226.07886
 224.35276 222.81565 221.43655 220.19944 219.07234 218.02323 217.11813 216.25002
 215.48292 214.65381 213.74271 213.09760 212.53850 213.19220 214.78203 216.08617
 216.75018 218.02126 219.82149 221.56876 223.29971 225.26060 228.37872 231.69826
 234.29214 236.66913 238.77510 241.09535 244.06932 247.71149 251.68340 255.33572
 258.60117 261.68451 264.50787 267.11685 269.40939 271.40060 273.23154 275.04001
 277.03641 278.85605 280.47800 282.05301 283.45422 284.69391 285.82495 286.84958
 287.77115 288.59180 289.30869 290.22229
 366.78100 356.32754 345.75209 334.61063 323.00618 311.19272 299.05526 286.85081
 274.55535 262.44489 250.44644 239.73998 229.85453 220.95107 213.12561 206.12016
 199.94670 194.87725 191.45179 189.48633 188.51588 188.57242 189.39996 190.70051
 192.41805 194.50560 196.76114 199.11268 201.55023 204.02277 206.10332 207.93786
 209.55640 210.69395 210.91549 211.13603 211.06558 210.76312 210.38867 210.01121
 209.62075 209.32330 209.12384 208.98039 208.90093 209.22447 209.60302 209.98456
 210.77010 211.94065 213.18319 214.95874 216.87928 218.91482 221.00237 223.07791
 225.13046 227.20700 229.29654 231.39509 233.51663 235.68117 237.92972 240.29226
 242.90581 245.14935 247.14389 248.90144 250.31098 251.42653 252.24107 252.54961
 252.57916 252.34570 251.69824 250.63879 249.23733 247.39088 245.29242 243.11796
 240.90151 238.69805 236.51060 234.34214 232.19468 230.05423 228.07277 226.22231
 224.49786 222.96240 221.58495 220.34949 219.22403 218.17658 217.27312 216.40667
 215.64121 214.81375 213.90430 213.26084 212.70338 213.29292 214.78455 216.19331
 216.86032 218.30318 220.09792 221.78320 223.43425 225.36687 228.46614 231.62291
 234.18279 236.40634 238.32784 240.55190 243.70842 247.46786 251.51724 255.21935
 258.49872 261.64749 264.55051 267.18597 269.49881 271.48950 273.27185 275.15399
 277.25513 279.10773 280.84964 282.50708 283.94144 285.21048 286.36829 287.41718
 288.36053 289.20062 289.93448 290.86972
 366.78100 356.32744 345.75187 334.61031 323.00574 311.19218 299.05461 286.85005
 274.55448 262.44392 250.44535 239.73879 229.85322 220.94966 213.12409 206.11853
 199.94496 194.87540 191.44983 189.48427 188.51370 188.57014 189.39757 190.69801
 192.41544 194.50288 196.75831 199.10975 201.54718 204.01962 206.10005 207.93449
 209.55292 210.69036 210.91179 211.13223 211.06166 210.75910 210.38453 210.00697
 209.61640 209.31884 209.11927 208.97571 208.89614 209.21958 209.59801 209.97945
 210.76488 211.93532 213.17775 214.95319 216.87362 218.90906 220.99649 223.07193
 225.12436 227.20080 229.29023 231.38867 233.51010 235.67454 237.92297 240.28541
 242.89884 245.14228 247.13671 248.89415 250.30358 251.41902 252.23345 252.54189
 252.57132 252.33776 251.69019 250.63063 249.22906 247.38250 245.28393 243.10937
 240.89280 238.68924 236.50167 234.33311 232.18554 230.04498 228.06341 226.21285
 224.48828 222.95272 221.57515 220.33959 219.21402 218.16646 217.26289 216.39633
 215.63076 214.80320 213.89363 213.25007 212.69250 213.29764 214.83682 216.38947
 216.95787 218.33394 220.15247 221.87944 223.52908 225.59755 228.56427 231.67226
 234.11488 236.20212 237.95430 240.08427 243.20772 247.16109 251.22018 254.89621
 258.26038 261.47205 264.48453 267.23376 269.63571 271.69147 273.51193 275.38730
 277.48898 279.33582 280.98624 282.57571 283.96439 285.19302 286.31393 287.32944
 288.24277 289.05606 289.76657 290.67203
 366.78100 356.32559 345.74819 334.60478 322.99838 311.18297 299.04357 286.83716
 274.53976 262.42735 250.42695 239.71854 229.83113 220.92573 213.09832 206.09092
 199.91551 194.84411 191.41670 189.44930 188.47689 188.53149 189.35708 190.65567
 192.37127 194.45686 196.71046 199.06005 201.49565 203.96624 206.04484 207.87743
 209.49403 210.62962 210.84921 211.06781 210.99540 210.69100 210.31459 209.93519
 209.54278 209.24338 209.04197 208.89656 208.81516 209.13675 209.51335 209.89294
 210.67654 211.84513 213.08573 214.85932 216.77792 218.81151 220.89710 222.97070
 225.02129 227.09589 229.18348 231.28008 233.39967 235.56227 237.80886 240.16946
 242.78105 245.02264 247.01524 248.77083 250.17843 251.29202 252.10462 252.41121
 252.43881 252.20340 251.55400 250.49259 249.08918 247.24078 245.14037 242.96397
 240.74556 238.54016 236.35075 234.18035 232.03094 229.88854 227.90513 226.05272
 224.32632 222.78891 221.40951 220.17210 219.04470 217.99529 217.08989 216.22148
 215.45408 214.62467 213.71326 213.06786 212.50845 213.20557 214.91074 216.59653
 216.99046 218.18326 220.14926 221.87117 223.50365 225.59503 228.68129 231.55232
 233.90840 235.88535 237.61111 239.80963 243.01668 246.99445 251.04471 254.76895
 258.16583 261.37256 264.39069 267.12543 269.52747 271.65259 273.61176 275.52811
 277.48639 279.28976 280.86807 282.27448 283.52344 284.70032 285.78406 286.76590
 287.64893 288.43527 289.12222 289.99762
 366.78100 356.32442 345.74585 334.60127 322.99370 311.17712 299.03654 286.82897
 274.53039 262.41682 250.41524 239.70566 229.81709 220.91051 213.08194 206.07336
 199.89678 194.82421 191.39563 189.42706 188.45348 188.50690 189.33133 190.62875
 192.34318 194.42760 196.68002 199.02845 201.46287 203.93230 206.00972 207.84114
 209.45657 210.59099 210.80942 211.02684 210.95327 210.64769 210.27011 209.88954
 209.49596 209.19539 208.99281 208.84623 208.76366 209.08408 209.45951 209.83793
 210.62035 211.78778 213.02720 214.79963 216.71705 218.74947 220.83390 222.90632
 224.95575 227.02917 229.11559 231.21102 233.32944 235.49087 237.73629 240.09571
 242.70614 244.94656 246.93799 248.69241 250.09883 251.21126 252.02268 252.32811
 252.35453 252.11795 251.46738 250.40480 249.00023 247.15065 245.04907 242.87150
 240.65192 238.44535 236.25477 234.08319 231.93262 229.78904 227.80447 225.95089
 224.22331 222.68474 221.30416 220.06559 218.93701 217.88643 216.97986 216.11028
 215.34171 214.51113 213.59856 212.95198 212.39140 213.14688 214.94176 216.74028
 217.24876 218.15778 220.28879 222.11804 223.63751 225.57143 228.73030 231.40720
 233.71730 235.53812 237.18132 239.40912 242.73430 246.86693 251.02544 254.82831
 258.26608 261.44397 264.42941 267.13315 269.50491 271.61044 273.59680 275.50763
 277.30573 279.00192 280.54770 281.91284 283.09714 284.16672 285.14667 286.01566
 286.81683 287.56473 288.21808 289.05072
 366.78100 356.32340 345.74380 334.59820 322.98960 311.17200 299.03040 286.82180
 274.52220 262.40760 250.40500 239.69441 229.80481 220.89721 213.06761 206.05801
 199.88041 194.80681 191.37721 189.40761 188.43301 188.48541 189.30881 190.60521
 192.31861 194.40201 196.65341 199.00081 201.43421 203.90261 205.97901 207.80941
 209.42382 210.55722 210.77462 210.99102 210.91642 210.60982 210.23122 209.84962
 209.45502 209.15342 208.94982 208.80222 208.71862 209.03802 209.41242 209.78982
 210.57122 211.73762 212.97602 214.74742 216.66382 218.69523 220.77863 222.85003
 224.89843 226.97083 229.05623 231.15063 233.26803 235.42843 237.67283 240.03123
 242.64063 244.88003 246.87043 248.62383 250.02923 251.14063 251.95103 252.25543
 252.28083 252.04323 251.39163 250.32804 248.92244 247.07184 244.96924 242.79064
 240.57004 238.36244 236.17084 233.99824 231.84664 229.70204 227.71644 225.86184
 224.13324 222.59364 221.21204 219.97244 218.84284 217.79124 216.88364 216.01304
 215.24345 214.41185 213.49825 212.85065 212.28905 213.10405 215.02960 216.75742
 217.51375 218.51895 220.43076 222.28157 223.81116 225.69418 228.69650 231.35876
 233.47536 235.19939 236.80754 239.15907 242.64156 246.82066 250.98729 254.83794
 258.30078 261.48163 264.46078 267.17487 269.53754 271.58026 273.48712 275.34763
 277.16391 278.82425 280.35678 281.72031 282.90305 283.95905 284.93158 285.70541
 286.44809 287.14136 287.76102 288.60727
 366.78100 356.32319 345.74339 334.59758 322.98878 311.17097 299.02917 286.82036
 274.52055 262.40575 250.40294 239.69214 229.80233 220.89453 213.06472 206.05491
 199.87711 194.80330 191.37350 189.40369 188.42889 188.48108 189.30428 190.60047
 192.31366 194.39686 196.64805 198.99525 201.42844 203.89664 205.97283 207.80302
 209.41722 210.55041 210.76761 210.98380 210.90900 210.60219 210.22338 209.84158
 209.44677 209.14497 208.94116 208.79336 208.70955 209.02874 209.40294 209.78013
 210.56133 211.72752 212.96572 214.73691 216.65310 218.68430 220.76749 222.83869
 224.88688 226.95908 229.04427 231.13847 233.25566 235.41585 237.66005 240.01824
 242.62744 244.86663 246.85683 248.61002 250.01521 251.12641 251.93660 252.24080
 252.26599 252.02819 251.37638 250.31257 248.90677 247.05596 244.95316 242.77435
 240.55355 238.34574 236.15393 233.98113 231.82932 229.68452 227.69871 225.84391
 224.11510 222.57530 221.19349 219.95368 218.82388 217.77207 216.86427 215.99346
 215.22366 214.39185 213.47804 212.83024 212.26843 213.10193 215.07117 216.86951
 217.69296 218.67641 220.52345 222.35051 223.85342 225.73175 228.67923 231.28954
 233.29675 234.86833 236.42311 238.86214 242.50407 246.75351 250.93738 254.82181
 258.30270 261.48993 264.46307 267.17722 269.52527 271.53641 273.38922 275.20349
 277.02219 278.75122 280.30215 281.66846 282.85291 283.90924 284.88074 285.61722
 286.36639 287.05981 287.68503 288.53583
 366.78100 356.32333 345.74365 334.59798 322.98930 311.17163 299.02995 286.82128
 274.52160 262.40693 250.40425 239.69358 229.80390 220.89623 213.06655 206.05688
 199.87920 194.80553 191.37585 189.40618 188.43150 188.48383 189.30716 190.60348
 192.31681 194.40013 196.65146 198.99878 201.43211 203.90043 205.97676 207.80708
 209.42141 210.55473 210.77206 210.98838 210.91371 210.60703 210.22836 209.84668
 209.45201 209.15034 208.94666 208.79899 208.71531 209.03464 209.40896 209.78629
 210.56761 211.73394 212.97226 214.74359 216.65991 218.69124 220.77456 222.84589
 224.89421 226.96654 229.05186 231.14619 233.26351 235.42384 237.66817 240.02649
 242.63582 244.87514 246.86547 248.61879 250.02412 251.13544 251.94577 252.25009
 252.27542 252.03774 251.38607 250.32239 248.91672 247.06604 244.96337 242.78469
 240.56402 238.35634 236.16467 233.99200 231.84032 229.69565 227.70997 225.85530
 224.12662 222.58695 221.20527 219.96560 218.83592 217.78425 216.87657 216.00590
 215.23622 214.40455 213.49087 212.84320 212.28152 213.11401 215.08086 217.03348
 217.90620 218.75128 220.58960 222.42746 223.93185 225.79707 228.69162 231.20103
 233.06976 234.51790 236.06264 238.59625 242.36954 246.66013 250.88501 254.81821
 258.32443 261.51172 264.46716 267.15863 269.48297 271.47647 273.30478 275.11035
 276.94113 278.71060 280.26505 281.63019 282.81281 283.86395 284.82748 285.65918
 286.40417 287.09711 287.71844 288.56519
 366.78100 356.32287 345.74275 334.59662 322.98750 311.16937 299.02725 286.81812
 274.51800 262.40287 250.39975 239.68862 229.79850 220.89037 213.06025 206.05012
 199.87199 194.79787 191.36774 189.39762 188.42249 188.47437 189.29724 190.59312
 192.30599 194.38887 196.63974 198.98662 201.41949 203.88736 205.96324 207.79311
 209.40699 210.53986 210.75674 210.97261 210.89749 210.59036 210.21124 209.82911
 209.43399 209.13186 208.92774 208.77961 208.69548 209.01436 209.38823 209.76511
 210.54598 211.71186 212.94973 214.72061 216.63648 218.66736 220.75023 222.82111
 224.86898 226.94086 229.02573 231.11960 233.23648 235.39635 237.64023 239.99810
 242.60698 244.84585 246.83573 248.58860 249.99348 251.10435 251.91423 252.21810
 252.24298 252.00485 251.35272 250.28860 248.88247 247.03135 244.92822 242.74910
 240.52797 238.31985 236.12772 233.95460 231.80247 229.65735 227.67122 225.81609
 224.08697 222.54684 221.16472 219.92459 218.79447 217.74234 216.83422 215.96309
 215.19297 214.36084 213.44672 212.79859 212.23647 213.09576 215.12598 217.19560
 218.09610 218.81560 220.66705 222.53922 224.02687 225.88332 228.71754 231.09003
 232.78648 234.10883 235.67261 238.35045 242.25316 246.56917 250.83678 254.81850
 258.35300 261.53903 264.46942 267.12772 269.43326 271.42401 273.23151 275.02182
 276.88419 278.66074 280.21808 281.58594 282.77231 283.82791 284.79703 285.67270
 286.44922 287.14182 287.75433 288.57831
 366.78100 356.32250 345.74199 334.59549 322.98599 311.16748 299.02498 286.81548
 274.51498 262.39947 250.39597 239.68447 229.79396 220.88546 213.05496 206.04445
 199.86595 194.79145 191.36095 189.39044 188.41494 188.46644 189.28893 190.58443
 192.29693 194.37942 196.62992 198.97642 201.40892 203.87641 205.95191 207.78141
 209.39490 210.52740 210.74390 210.95939 210.88389 210.57639 210.19689 209.81438
 209.41888 209.11638 208.91187 208.76337 208.67887 208.99736 209.37086 209.74736
 210.52786 211.69335 212.93085 214.70135 216.61684 218.64734 220.72984 222.80033
 224.84783 226.91933 229.00383 231.09732 233.21382 235.37332 237.61681 239.97431
 242.58281 244.82130 246.81080 248.56330 249.96780 251.07829 251.88779 252.19129
 252.21578 251.97728 251.32478 250.26027 248.85377 247.00227 244.89877 242.71926
 240.49776 238.28926 236.09675 233.92325 231.77075 229.62524 227.63874 225.78324
 224.05374 222.51323 221.13073 219.89023 218.75972 217.70722 216.79872 215.92721
 215.15671 214.32421 213.40971 212.76120 212.19870 213.08078 215.16479 217.36780
 218.25060 218.88010 220.74284 222.68849 224.21289 225.97353 228.68802 230.97307
 232.48599 233.67769 235.30823 238.13707 242.14476 246.48164 250.78685 254.80634
 258.37201 261.56497 264.47537 267.10349 269.40295 271.40601 273.19897 274.96494
 276.81235 278.58804 280.14633 281.51645 282.70679 283.76437 284.74051 285.61969
 286.39990 287.09720 287.71100 288.54166
 366.78100 356.32146 345.73991 334.59237 322.98183 311.16229 299.01874 286.80820
 274.50666 262.39011 250.38557 239.67303 229.78149 220.87194 213.04040 206.02886
 199.84931 194.77377 191.34223 189.37069 188.39414 188.44460 189.26606 190.56051
 192.27197 194.35343 196.60288 198.94834 201.37980 203.84626 205.92071 207.74917
 209.36163 210.49308 210.70854 210.92300 210.84646 210.53791 210.15737 209.77383
 209.37728 209.07374 208.86820 208.71866 208.63311 208.95057 209.32303 209.69848
 210.47794 211.64240 212.87886 214.64831 216.56277 218.59223 220.67368 222.74314
 224.78960 226.86006 228.94351 231.03597 233.15143 235.30988 237.55234 239.90880
 242.51626 244.75371 246.74217 248.49363 249.89708 251.00654 251.81500 252.11746
 252.14091 251.90137 251.24783 250.18228 248.77474 246.92220 244.81765 242.63711
 240.41457 238.20503 236.01148 233.83694 231.68340 229.53685 227.54931 225.69277
 223.96223 222.42068 221.03714 219.79560 218.66405 217.61051 216.70097 215.82843
 215.05688 214.22334 213.30780 212.65825 212.09471 213.03622 215.26068 217.42442
 218.47377 219.01901 220.83386 222.79456 224.25398 226.03996 228.71783 230.85907
 232.18369 233.25851 234.91728 237.93372 242.04350 246.42189 250.75360 254.79218
 258.37772 261.57886 264.47684 267.08234 269.38522 271.41669 273.21121 274.94702
 276.73441 278.48709 280.03882 281.40411 282.59134 283.64804 284.62204 285.50586
 286.29959 286.99863 287.61499 288.45306
 366.78100 356.32054 345.73808 334.58962 322.97816 311.15770 299.01324 286.80178
 274.49932 262.38186 250.37640 239.66294 229.77048 220.86002 213.02757 206.01511
 199.83465 194.75819 191.32573 189.35327 188.37581 188.42535 189.24589 190.53943
 192.24997 194.33051 196.57905 198.92359 201.35413 203.81967 205.89321 207.72075
 209.33229 210.46283 210.67737 210.89091 210.81345 210.50399 210.12253 209.73807
 209.34061 209.03615 208.82970 208.67924 208.59278 208.90932 209.28086 209.65540
 210.43394 211.59748 212.83302 214.60156 216.51510 218.54364 220.62418 222.69272
 224.73826 226.80780 228.89034 230.98188 233.09642 235.25396 237.49550 239.85104
 242.45758 244.69412 246.68166 248.43220 249.83474 250.94329 251.75083 252.05237
 252.07491 251.83445 251.17999 250.11353 248.70507 246.85161 244.74615 242.56469
 240.34123 238.13077 235.93631 233.76085 231.60639 229.45893 227.47047 225.61301
 223.88155 222.33909 220.95463 219.71217 218.57971 217.52525 216.61479 215.74133
 214.96888 214.13442 213.21796 212.56750 212.00304 213.00108 215.35905 217.47392
 218.54572 219.36378 221.01778 222.78290 224.26939 226.10840 228.77704 230.79663
 231.77402 232.64055 234.60211 237.83412 241.97044 246.39384 250.73277 254.77707
 258.37723 261.58472 264.47147 267.05609 269.36270 271.42319 273.21283 274.91269
 276.64047 278.38559 279.93576 281.29935 282.48334 283.53281 284.48782 285.36691
 286.18671 286.90594 287.52823 288.37399
 366.78100 356.32082 345.73865 334.59047 322.97930 311.15912 299.01495 286.80377
 274.50159 262.38442 250.37924 239.66607 229.77389 220.86371 213.03154 206.01936
 199.83919 194.76301 191.33084 189.35866 188.38148 188.43131 189.25213 190.54596
 192.25678 194.33760 196.58643 198.93125 201.36208 203.82790 205.90173 207.72955
 209.34137 210.47220 210.68702 210.90085 210.82367 210.51449 210.13332 209.74914
 209.35197 209.04779 208.84162 208.69144 208.60526 208.92209 209.29391 209.66874
 210.44756 211.61138 212.84721 214.61603 216.52986 218.55868 220.63951 222.70833
 224.75415 226.82398 228.90680 230.99863 233.11345 235.27127 237.51310 239.86892
 242.47575 244.71257 246.70040 248.45122 249.85404 250.96287 251.77069 252.07252
 252.09534 251.85517 251.20099 250.13481 248.72664 246.87346 244.76829 242.58711
 240.36393 238.15376 235.95958 233.78441 231.63023 229.48306 227.49488 225.63770
 223.90653 222.36435 220.98018 219.73800 218.60582 217.55165 216.64147 215.76830
 214.99612 214.16195 213.24577 212.59559 212.03142 213.02803 215.38264 217.59412
 218.58134 219.64211 221.20763 222.80826 224.34084 226.15184 228.80005 230.71429
 231.38896 232.07689 234.32622 237.74954 241.90883 246.36067 250.70422 254.75807
 258.37369 261.58591 264.46136 267.02591 269.33499 271.41669 273.18597 274.84424
 276.55139 278.30563 279.86169 281.22858 282.41559 283.46902 284.42667 285.30862
 286.12650 286.86194 287.48355 288.34351
 366.78100 356.32137 345.73973 334.59210 322.98146 311.16183 299.01819 286.80756
 274.50592 262.38929 250.38466 239.67202 229.78039 220.87075 213.03912 206.02748
 199.84785 194.77221 191.34058 189.36895 188.39231 188.44268 189.26404 190.55841
 192.26977 194.35114 196.60050 198.94587 201.37724 203.84360 205.91797 207.74633
 209.35870 210.49006 210.70543 210.91979 210.84316 210.53453 210.15389 209.77026
 209.37362 209.06999 208.86435 208.71472 208.62908 208.94645 209.31882 209.69418
 210.47355 211.63791 212.87428 214.64364 216.55801 218.58737 220.66874 222.73811
 224.78447 226.85484 228.93820 231.03057 233.14593 235.30430 237.54666 239.90303
 242.51040 244.74776 246.73613 248.48749 249.89086 251.00022 251.80859 252.11095
 252.13432 251.89469 251.24105 250.17542 248.76778 246.91515 244.81051 242.62988
 240.40724 238.19761 236.00398 233.82934 231.67571 229.52907 227.54144 225.68480
 223.95417 222.41253 221.02890 219.78727 218.65563 217.60200 216.69236 215.81973
 215.04809 214.21446 213.29882 212.64919 212.08556 213.06932 215.39357 217.70131
 218.64000 219.85107 221.42740 222.93571 224.42560 226.14453 228.76822 230.58775
 231.04112 231.60359 234.05829 237.65105 241.85440 246.31956 250.67065 254.73662
 258.36752 261.58435 264.44830 266.98840 269.29526 271.39560 273.15970 274.77634
 276.47498 278.23041 279.78809 281.15839 282.34848 283.40509 284.36694 285.25098
 286.06711 286.80688 287.43393 288.29913
 366.78100 356.32165 345.74030 334.59296 322.98261 311.16326 299.01991 286.80956
 274.50821 262.39187 250.38752 239.67517 229.78382 220.87447 213.04313 206.03178
 199.85243 194.77708 191.34573 189.37438 188.39804 188.44869 189.27034 190.56499
 192.27664 194.35830 196.60795 198.95360 201.38525 203.85190 205.92655 207.75521
 209.36786 210.49951 210.71516 210.92981 210.85347 210.54512 210.16477 209.78142
 209.38507 209.08172 208.87638 208.72703 208.64168 208.95933 209.33198 209.70764
 210.48729 211.65194 212.88859 214.65824 216.57289 218.60255 220.68420 222.75385
 224.80050 226.87115 228.95481 231.04746 233.16311 235.32176 237.56441 239.92106
 242.52872 244.76637 246.75502 248.50667 249.91032 251.01998 251.82863 252.13128
 252.15493 251.91558 251.26223 250.19689 248.78954 246.93719 244.83284 242.65249
 240.43015 238.22080 236.02745 233.85310 231.69975 229.55340 227.56606 225.70971
 223.97936 222.43801 221.05466 219.81332 218.68197 217.62862 216.71927 215.84692
 215.07557 214.24223 213.32688 212.67753 212.11418 213.09906 215.42595 217.76904
 218.73332 220.02657 221.64929 223.12628 224.51491 226.11624 228.68831 230.40219
 230.71950 231.22052 233.80930 237.54836 241.80867 246.28111 250.63635 254.71037
 258.35278 261.57483 264.42953 266.94443 269.24799 271.36771 273.11105 274.72900
 276.42435 278.17542 279.73035 281.09998 282.28976 283.34729 284.31192 285.19733
 286.01343 286.75189 287.39236 288.25858
 366.78100 356.32197 345.74095 334.59392 322.98389 311.16487 299.02184 286.81181
 274.51078 262.39476 250.39073 239.67870 229.78768 220.87865 213.04762 206.03660
 199.85757 194.78254 191.35151 189.38049 188.40446 188.45543 189.27741 190.57238
 192.28435 194.36633 196.61630 198.96227 201.39424 203.86122 205.93619 207.76516
 209.37814 210.51011 210.72608 210.94106 210.86503 210.55700 210.17697 209.79395
 209.39792 209.09489 208.88987 208.74084 208.65581 208.97379 209.34676 209.72273
 210.50270 211.66768 212.90465 214.67462 216.58960 218.61957 220.70154 222.77152
 224.81849 226.88946 228.97343 231.06641 233.18238 235.34135 237.58433 239.94130
 242.54927 244.78725 246.77622 248.52819 249.93216 251.04214 251.85111 252.15408
 252.17806 251.93903 251.28600 250.22098 248.81395 246.96192 244.85789 242.67787
 240.45584 238.24681 236.05379 233.87976 231.72673 229.58071 227.59368 225.73765
 224.00763 222.46660 221.08357 219.84254 218.71152 217.65849 216.74946 215.87744
 215.10641 214.27338 213.35836 212.70933 212.14630 213.13333 215.46530 217.80832
 218.85254 220.20065 221.84402 223.31740 224.62636 226.10637 228.57993 230.16222
 230.41164 230.90596 233.57481 237.44101 241.76227 246.24606 250.60269 254.68323
 258.33710 261.56555 264.41510 266.90744 269.20529 271.34824 273.11142 274.42294
 276.36746 278.16025 279.71429 281.08289 282.27319 283.33084 284.29886 285.18439
 285.99792 286.73630 287.38647 288.28354
 366.78100 356.32247 345.74194 334.59541 322.98588 311.16735 299.02482 286.81529
 274.51476 262.39924 250.39571 239.68418 229.79365 220.88512 213.05459 206.04406
 199.86553 194.79100 191.36047 189.38994 188.41441 188.46588 189.28835 190.58382
 192.29629 194.37877 196.62924 198.97571 201.40818 203.87565 205.95112 207.78059
 209.39406 210.52653 210.74300 210.95847 210.88294 210.57541 210.19588 209.81335
 209.41782 209.11529 208.91077 208.76224 208.67771 208.99618 209.36965 209.74612
 210.52659 211.69206 212.92953 214.70000 216.61547 218.64594 220.72841 222.79888
 224.84635 226.91782 229.00229 231.09577 233.21224 235.37171 237.61518 239.97265
 242.58112 244.81959 246.80906 248.56153 249.96600 251.07647 251.88594 252.18941
 252.21388 251.97535 251.32282 250.25830 248.85177 247.00024 244.89671 242.71718
 240.49565 238.28712 236.09459 233.92106 231.76853 229.62300 227.63647 225.78094
 224.05141 222.51088 221.12835 219.88782 218.75730 217.70477 216.79624 215.92471
 215.15418 214.32165 213.40712 212.75859 212.19606 213.17627 215.49211 217.83780
 218.97864 220.38072 222.01003 223.47792 224.75107 226.12334 228.47157 229.89853
 230.11304 230.63760 233.35588 237.33466 241.71638 246.20776 250.56088 254.64468
 258.30487 261.53311 264.37091 266.83737 269.13583 271.30396 273.05353 274.55270
 276.33243 278.10617 279.66702 281.03967 282.23312 283.29355 284.26251 285.14984
 285.96045 286.69724 287.34256 288.25339
 366.78100 356.32318 345.74335 334.59753 322.98870 311.17088 299.02906 286.82023
 274.52041 262.40558 250.40276 239.69193 229.80211 220.89429 213.06446 206.05464
 199.87681 194.80299 191.37317 189.40334 188.42852 188.48069 189.30387 190.60004
 192.31322 194.39640 196.64757 198.99475 201.42792 203.89610 205.97228 207.80245
 209.41663 210.54980 210.76698 210.98316 210.90833 210.60151 210.22268 209.84086
 209.44603 209.14421 208.94039 208.79256 208.70874 209.02791 209.40209 209.77927
 210.56044 211.72662 212.96479 214.73597 216.65214 218.68332 220.76650 222.83767
 224.88585 226.95802 229.04320 231.13738 233.25455 235.41473 237.65890 240.01708
 242.62626 244.86543 246.85561 248.60878 250.01396 251.12513 251.93531 252.23949
 252.26466 252.02684 251.37501 250.31119 248.90537 247.05454 244.95172 242.77289
 240.55207 238.34424 236.15242 233.97960 231.82777 229.68295 227.69712 225.84230
 224.11348 222.57365 221.19183 219.95200 218.82218 217.77036 216.86253 215.99171
 215.22188 214.39006 213.47623 212.82841 212.26659 213.23177 215.51208 217.86481
 219.10176 220.56267 222.16469 223.61832 224.87080 226.15779 228.38051 229.63420
 229.81056 230.38795 233.14915 237.23227 241.67140 246.16481 250.51501 254.60081
 258.26761 261.50107 264.33896 266.79453 269.09918 271.28586 272.92224 274.53635
 276.29108 278.06216 279.62585 280.99969 282.19354 283.25677 284.22589 285.11221
 285.92099 286.65402 287.30179 288.20773
 366.78100 356.32397 345.74494 334.59991 322.99188 311.17485 299.03382 286.82579
 274.52676 262.41273 250.41070 239.70067 229.81164 220.90461 213.07557 206.06654
 199.88951 194.81648 191.38745 189.41842 188.44439 188.49736 189.32133 190.61830
 192.33227 194.41624 196.66821 199.01618 201.45015 203.91912 205.99609 207.82706
 209.44203 210.57600 210.79397 211.01094 210.93691 210.63088 210.25285 209.87182
 209.47779 209.17675 208.97372 208.82669 208.74366 209.06363 209.43860 209.81657
 210.59854 211.76551 213.00448 214.77645 216.69342 218.72539 220.80936 222.88133
 224.93030 227.00327 229.08924 231.18421 233.30218 235.46315 237.70812 240.06709
 242.67706 244.91703 246.90800 248.66196 250.06793 251.17990 251.99087 252.29584
 252.32181 252.08478 251.43375 250.37072 248.96569 247.11566 245.01363 242.83560
 240.61557 238.40854 236.21751 234.04548 231.89445 229.75042 227.76539 225.91136
 224.18333 222.64430 221.26327 220.02424 218.89521 217.84418 216.93714 216.06711
 215.29808 214.46705 213.55402 212.90699 212.34596 213.29233 215.52823 217.88643
 219.21962 220.73364 222.31781 223.75351 224.97931 226.20100 228.30476 229.37775
 229.50479 230.15424 232.96318 237.14122 241.62738 246.11801 250.46468 254.54816
 258.21631 261.45541 264.29910 266.75186 269.06595 271.26480 272.87201 274.47305
 276.25946 278.03159 279.59119 280.96246 282.15280 283.21051 284.17783 285.05817
 285.86111 286.58301 287.22260 288.12836
 366.78100 356.32483 345.74666 334.60250 322.99533 311.17916 299.03899 286.83182
 274.53366 262.42049 250.41932 239.71015 229.82198 220.91582 213.08765 206.07948
 199.90331 194.83114 191.40298 189.43481 188.46164 188.51547 189.34031 190.63814
 192.35297 194.43780 196.69063 199.03947 201.47430 203.94413 206.02196 207.85379
 209.46963 210.60446 210.82329 211.04112 210.96795 210.66279 210.28562 209.90545
 209.51228 209.21211 209.00995 208.86378 208.78161 209.10244 209.47827 209.85711
 210.63994 211.80777 213.04760 214.82043 216.73827 218.77110 220.85593 222.92876
 224.97859 227.05243 229.13926 231.23509 233.35392 235.51576 237.76159 240.12142
 242.73225 244.97308 246.96492 248.71975 250.12658 251.23941 252.05124 252.35708
 252.38391 252.14774 251.49757 250.43540 249.03124 247.18207 245.08090 242.90373
 240.68456 238.47840 236.28823 234.11706 231.96689 229.82372 227.83956 225.98639
 224.25922 222.72105 221.34088 220.10272 218.97455 217.92438 217.01821 216.14904
 215.38088 214.55071 213.63854 212.99237 212.43221 213.35870 215.54768 217.90340
 219.33380 220.89001 222.47342 223.88950 225.08058 226.24797 228.23251 229.12326
 229.19981 229.94312 232.80418 237.06216 241.58559 246.07420 250.41705 254.49359
 258.15704 261.39871 264.24628 266.69427 269.01785 271.21667 272.83765 274.46738
 276.24600 278.01440 279.57434 280.94489 282.13675 283.19617 284.16418 285.05057
 285.86014 286.59644 287.24438 288.15344
 366.78100 356.32572 345.74845 334.60517 322.99890 311.18362 299.04435 286.83807
 274.54080 262.42852 250.42825 239.71997 229.83270 220.92742 213.10015 206.09287
 199.91760 194.84632 191.41905 189.45177 188.47950 188.53422 189.35995 190.65867
 192.37440 194.46012 196.71385 199.06357 201.49930 203.97002 206.04875 207.88147
 209.49819 210.63392 210.85364 211.07237 211.00009 210.69582 210.31954 209.94027
 209.54799 209.24872 209.04744 208.90217 208.82089 209.14262 209.51934 209.89907
 210.68279 211.85152 213.09224 214.86597 216.78469 218.81842 220.90414 222.97787
 225.02859 227.10332 229.19104 231.28777 233.40749 235.57022 237.81694 240.17767
 242.78939 245.03111 247.02384 248.77956 250.18729 251.30101 252.11374 252.42046
 252.44819 252.21291 251.56364 250.50236 249.09909 247.25081 245.15054 242.97426
 240.75599 238.55071 236.36144 234.19116 232.04189 229.89961 227.91634 226.06406
 224.33779 222.80051 221.42124 220.18396 219.05669 218.00741 217.10214 216.23386
 215.46658 214.63731 213.72603 213.08076 212.52148 213.42679 215.56567 217.91653
 219.44545 221.03923 222.63507 224.02759 225.17978 226.29256 228.15417 228.86534
 228.89870 229.75737 232.66878 236.98853 241.53995 246.02647 250.36435 254.43149
 258.08810 261.33148 264.18335 266.63760 268.97461 271.17102 272.77295 274.47824
 276.25809 278.02856 279.58932 280.96069 282.15424 283.21500 284.18658 285.07312
 285.88382 286.62167 287.27203 288.18756
 366.78100 356.32668 345.75036 334.60804 323.00272 311.18840 299.05008 286.84477
 274.54845 262.43713 250.43781 239.73049 229.84417 220.93985 213.11353 206.10721
 199.93289 194.86257 191.43625 189.46994 188.49862 188.55430 189.38098 190.68066
 192.39734 194.48402 196.73870 199.08938 201.52606 203.99774 206.07742 207.91111
 209.52879 210.66547 210.88615 211.10583 211.03451 210.73119 210.35587 209.97755
 209.58623 209.28791 209.08759 208.94327 208.86296 209.18564 209.56332 209.94400
 210.72868 211.89836 213.14004 214.91472 216.83440 218.86908 220.95576 223.03044
 225.08213 227.15781 229.24649 231.34417 233.46485 235.62853 237.87621 240.23789
 242.85057 245.09325 247.08693 248.84361 250.25229 251.36698 252.18066 252.48834
 252.51702 252.28270 251.63438 250.57406 249.17174 247.32442 245.22510 243.04978
 240.83246 238.62815 236.43983 234.27051 232.12219 229.98087 227.99855 226.14723
 224.42191 222.88559 221.50727 220.27095 219.14463 218.09632 217.19200 216.32468
 215.55836 214.73004 213.81972 213.17540 212.61708 213.49641 215.57393 217.92490
 219.55424 221.18329 222.79619 224.16455 225.27852 226.33800 228.06906 228.60289
 228.61008 229.59964 232.55701 236.92079 241.49318 245.97784 250.31186 254.36832
 258.01749 261.26608 264.12985 266.60172 268.94928 271.12753 272.63849 274.32446
 276.28101 278.06659 279.62228 280.99167 282.18286 283.24283 284.21216 285.09970
 285.91147 286.64743 287.29733 288.21439
 366.78100 356.32772 345.75243 334.61115 323.00687 311.19358 299.05630 286.85202
 274.55673 262.44645 250.44817 239.74188 229.85660 220.95332 213.12803 206.12275
 199.94947 194.88018 191.45490 189.48961 188.51933 188.57605 189.40376 190.70448
 192.42220 194.50991 196.76563 199.11735 201.55506 204.02778 206.10850 207.94321
 209.56193 210.69965 210.92136 211.14208 211.07180 210.76951 210.39523 210.01795
 209.62766 209.33038 209.13110 208.98781 208.90853 209.23225 209.61096 209.99268
 210.77840 211.94911 213.19183 214.96755 216.88826 218.92398 221.01169 223.08741
 225.14013 227.21684 229.30656 231.40528 233.52699 235.69171 237.94043 240.30314
 242.91686 245.16058 247.15529 248.91301 250.32273 251.43844 252.25316 252.56188
 252.59159 252.35831 251.71103 250.65174 249.25046 247.40418 245.30589 243.13161
 240.91533 238.71204 236.52476 234.35648 232.20919 230.06891 228.08763 226.23734
 224.51306 222.97778 221.60049 220.36521 219.23992 218.19264 217.28936 216.42307
 215.65779 214.83051 213.92122 213.27794 212.72066 213.57343 215.58815 217.92667
 219.64522 221.32585 222.96234 224.30455 225.37726 226.39079 227.99532 228.34033
 228.31854 229.45467 232.45517 236.85023 241.43996 245.92212 250.25060 254.29242
 257.93103 261.18512 264.06186 266.55594 268.91071 271.05692 272.60150 274.40616
 276.30273 278.08173 279.64017 281.01105 282.20401 283.26489 284.23587 285.12460
 285.93719 286.67404 287.32541 288.24265
 366.78100 356.32860 345.75421 334.61381 323.01041 311.19802 299.06162 286.85822
 274.56382 262.45443 250.45703 239.75163 229.86724 220.96484 213.14044 206.13605
 199.96365 194.89525 191.47086 189.50646 188.53706 188.59467 189.42327 190.72487
 192.44347 194.53208 196.78868 199.14128 201.57989 204.05349 206.13509 207.97070
 209.59030 210.72890 210.95151 211.17311 211.10371 210.80232 210.42892 210.05252
 209.66312 209.36673 209.16833 209.02593 208.94754 209.27214 209.65174 210.03435
 210.82095 211.99255 213.23616 215.01276 216.93436 218.97096 221.05957 223.13617
 225.18977 227.26738 229.35798 231.45758 233.58019 235.74579 237.99539 240.35900
 242.97360 245.21820 247.21381 248.97241 250.38301 251.49961 252.31522 252.62482
 252.65542 252.42303 251.77663 250.71823 249.31784 247.47244 245.37504 243.20165
 240.98625 238.78385 236.59745 234.43006 232.28366 230.14426 228.16387 226.31447
 224.59107 223.05668 221.68028 220.44588 219.32149 218.27509 217.37269 216.50730
 215.74290 214.91650 214.00810 213.36571 212.80931 213.64159 215.60794 217.92935
 219.72227 221.45717 223.12440 224.45828 225.48376 226.44756 227.91565 228.09135
 228.05707 229.32268 232.36644 236.78490 241.38405 245.86153 250.18344 254.20900
 257.83759 261.09732 263.98895 266.50626 268.86032 270.96484 272.58807 274.51199
 276.33990 278.11273 279.67352 281.04587 282.23822 283.29916 284.26993 285.15857
 285.96796 286.70621 287.35172 288.26987
 366.78100 356.32913 345.75526 334.61539 323.01252 311.20065 299.06478 286.86192
 274.56805 262.45918 250.46231 239.75744 229.87357 220.97170 213.14783 206.14396
 199.97209 194.90422 191.48035 189.51648 188.54762 188.60575 189.43488 190.73701
 192.45614 194.54527 196.80240 199.15553 201.59466 204.06879 206.15092 207.98705
 209.60718 210.74632 210.96945 211.19158 211.12271 210.82184 210.44897 210.07310
 209.68423 209.38836 209.19049 209.04862 208.97075 209.29588 209.67601 210.05915
 210.84628 212.01841 213.26254 215.03967 216.96180 218.99893 221.08806 223.16519
 225.21932 227.29745 229.38858 231.48871 233.61185 235.77798 238.02811 240.39224
 243.00737 245.25250 247.24863 249.00776 250.41889 251.53602 252.35215 252.66228
 252.69341 252.46155 251.81568 250.75781 249.35794 247.51307 245.41620 243.24333
 241.02846 238.82659 236.64072 234.47385 232.32798 230.18911 228.20925 226.36038
 224.63751 223.10364 221.72777 220.49390 219.37003 218.32416 217.42229 216.55742
 215.79355 214.96768 214.05981 213.41795 212.86208 213.68867 215.64160 217.92656
 219.79218 221.58636 223.27962 224.59962 225.58598 226.52194 227.84428 227.80014
 227.76460 229.22314 232.29961 236.72316 241.33144 245.80515 250.12097 254.13023
 257.74911 261.01733 263.92993 266.47482 268.82535 270.90030 272.56232 274.54846
 276.35434 278.13260 279.69925 281.07465 282.26965 283.33115 284.30225 285.18964
 286.00058 286.73547 287.38324 288.29840
 366.78100 356.32995 345.75690 334.61784 323.01579 311.20474 299.06969 286.86764
 274.57458 262.46653 250.47048 239.76643 229.88338 220.98232 213.15927 206.15622
 199.98517 194.91812 191.49506 189.53201 188.56396 188.62291 189.45286 190.75580
 192.47575 194.56570 196.82365 199.17760 201.61754 204.09249 206.17544 208.01239
 209.63334 210.77328 210.99723 211.22018 211.15213 210.85208 210.48002 210.10497
 209.71692 209.42187 209.22482 209.08376 209.00671 209.33266 209.71361 210.09756
 210.88550 212.05845 213.30340 215.08135 217.00430 219.04224 221.13219 223.21014
 225.26509 227.34404 229.43599 231.53693 233.66088 235.82783 238.07878 240.44373
 243.05967 245.30562 247.30257 249.06252 250.47447 251.59241 252.40936 252.72031
 252.75226 252.52121 251.87615 250.81910 249.42005 247.57600 245.47995 243.30789
 241.09384 238.89279 236.70774 234.54169 232.39663 230.25858 228.27953 226.43148
 224.70943 223.17637 221.80132 220.56827 219.44522 218.40017 217.49911 216.63506
 215.87201 215.04696 214.13991 213.49885 212.94380 213.75317 215.66541 217.92262
 219.84785 221.71135 223.42459 224.75819 225.69882 226.60437 227.80257 227.59901
 227.50117 229.03996 232.21892 236.67554 241.28406 245.75468 250.06326 254.05510
 257.66382 260.93933 263.87286 266.44348 268.78683 270.82068 272.35089 274.48358
 276.40192 278.18121 279.74158 281.11331 282.30518 283.36691 284.33539 285.22296
 286.03244 286.76959 287.41748 288.32684
 366.78100 356.33120 345.75940 334.62160 323.02080 311.21099 299.07719 286.87639
 274.58459 262.47779 250.48299 239.78019 229.89839 220.99858 213.17678 206.17498
 200.00518 194.93938 191.51758 189.55578 188.58898 188.64917 189.48037 190.78457
 192.50577 194.59697 196.85617 199.21137 201.65257 204.12876 206.21296 208.05116
 209.67336 210.81456 211.03976 211.26396 211.19716 210.89835 210.52755 210.15375
 209.76695 209.47315 209.27735 209.13755 209.06175 209.38895 209.77114 210.15634
 210.94554 212.11974 213.36594 215.14514 217.06934 219.10854 221.19973 223.27893
 225.33513 227.41533 229.50853 231.61073 233.73593 235.90413 238.15632 240.52252
 243.13972 245.38692 247.38512 249.14632 250.55952 251.67872 252.49691 252.80911
 252.84231 252.61251 251.96871 250.91291 249.51511 247.67231 245.57750 243.40670
 241.19390 238.99410 236.81030 234.64550 232.50170 230.36490 228.38710 226.54029
 224.81949 223.28769 221.91389 220.68209 219.56029 218.51649 217.61669 216.75388
 215.99208 215.16828 214.26248 213.62268 213.06888 213.84105 215.66542 217.93315
 219.90945 221.83736 223.57687 224.90019 225.77158 226.63966 227.74055 227.44244
 227.29063 228.87209 232.15717 236.64046 241.23975 245.70366 250.00186 253.97742
 257.57806 260.86212 263.81619 266.40723 268.73340 270.73065 272.37314 274.50903
 276.44028 278.22025 279.77795 281.14847 282.33868 283.39609 284.36612 285.25009
 286.06085 286.79559 287.44379 288.35416
 366.78100 356.33234 345.76168 334.62503 323.02537 311.21671 299.08405 286.88439
 274.59374 262.48808 250.49442 239.79276 229.91211 221.01345 213.19279 206.19213
 200.02347 194.95882 191.53816 189.57750 188.61184 188.67318 189.50553 190.81087
 192.53321 194.62555 196.88590 199.24224 201.68458 204.16192 206.24726 208.08661
 209.70995 210.85229 211.07863 211.30397 211.23832 210.94066 210.57100 210.19834
 209.81268 209.52003 209.32537 209.18671 209.11205 209.44040 209.82374 210.21008
 211.00042 212.17576 213.42311 215.20345 217.12879 219.16913 221.26147 223.34182
 225.39916 227.48050 229.57484 231.67819 233.80453 235.97387 238.22721 240.59455
 243.21290 245.46124 247.46058 249.22292 250.63726 251.75761 252.57695 252.89029
 252.92463 252.69597 252.05332 250.99866 249.60200 247.76034 245.66669 243.49703
 241.28537 239.08671 236.90405 234.74040 232.59774 230.46208 228.48542 226.63976
 224.92011 223.38945 222.01679 220.78613 219.66548 218.62282 217.72416 216.86250
 216.10184 215.27919 214.37453 213.73587 213.18321 213.92142 215.66551 217.94225
 219.96585 221.94093 223.72577 225.04811 225.86073 226.68332 227.68091 227.31087
 227.11172 228.71820 232.09874 236.59760 241.18242 245.63882 249.92383 253.87898
 257.46863 260.75961 263.73163 266.33960 268.64191 270.58768 272.55014 274.50223
 276.50540 278.27682 279.82294 281.18719 282.37311 283.42944 284.39636 285.28064
 286.08887 286.82257 287.46945 288.37793
 366.78100 356.33281 345.76263 334.62644 323.02725 311.21907 299.08688 286.88769
 274.59751 262.49232 250.49913 239.79795 229.91776 221.01958 213.19939 206.19920
 200.03102 194.96683 191.54664 189.58646 188.62127 188.68308 189.51590 190.82171
 192.54452 194.63734 196.89815 199.25496 201.69778 204.17559 206.26140 208.10122
 209.72503 210.86784 211.09466 211.32047 211.25528 210.95810 210.58891 210.21673
 209.83154 209.53935 209.34517 209.20698 209.13279 209.46161 209.84542 210.23223
 211.02305 212.19886 213.44667 215.22749 217.15330 219.19411 221.28693 223.36774
 225.42555 227.50737 229.60218 231.70599 233.83281 236.00262 238.25643 240.62425
 243.24306 245.49188 247.49169 249.25450 250.66932 251.79013 252.60994 252.92376
 252.95857 252.73038 252.08820 251.03401 249.63782 247.79664 245.70345 243.53426
 241.32308 239.12489 236.94270 234.77952 232.63733 230.50214 228.52596 226.68077
 224.96159 223.43140 222.05921 220.82903 219.70884 218.66665 217.76847 216.90728
 216.14709 215.32491 214.42072 213.78253 213.23035 213.96472 215.69977 217.94565
 219.99605 222.00529 223.83928 225.18845 225.98581 226.76547 227.64127 227.20584
 226.96609 228.59143 232.05518 236.56390 241.13358 245.58051 249.85144 253.78888
 257.37018 260.66782 263.65765 266.27997 268.55347 270.47064 272.59430 274.50620
 276.52798 278.30643 279.85165 281.21472 282.39951 283.45331 284.41843 285.30020
 286.10834 286.83984 287.48663 288.39282
 366.78100 356.33273 345.76246 334.62620 323.02693 311.21866 299.08639 286.88712
 274.59685 262.49159 250.49832 239.79705 229.91678 221.01851 213.19824 206.19798
 200.02971 194.96544 191.54517 189.58490 188.61963 188.68137 189.51410 190.81983
 192.54256 194.63529 196.89602 199.25276 201.69549 204.17322 206.25895 208.09868
 209.72241 210.86515 211.09188 211.31761 211.25234 210.95507 210.58580 210.21354
 209.82827 209.53600 209.34173 209.20346 209.12919 209.45793 209.84166 210.22839
 211.01912 212.19485 213.44258 215.22332 217.14905 219.18978 221.28251 223.36324
 225.42097 227.50271 229.59744 231.70117 233.82790 235.99763 238.25136 240.61910
 243.23783 245.48656 247.48629 249.24902 250.66375 251.78449 252.60422 252.91795
 252.95268 252.72441 252.08214 251.02788 249.63161 247.79034 245.69707 243.52780
 241.31653 239.11827 236.93600 234.77273 232.63046 230.49519 228.51892 226.67366
 224.95439 223.42412 222.05185 220.82158 219.70131 218.65905 217.76078 216.89951
 216.13924 215.31697 214.41270 213.77444 213.22217 213.97708 215.76068 217.96614
 220.01982 222.04944 223.90318 225.28546 226.10692 226.85808 227.61343 227.13550
 226.86838 228.50471 232.03107 236.53978 241.09102 245.52419 249.77728 253.69286
 257.25934 260.55350 263.54904 266.16919 268.40887 270.34772 272.64688 274.49530
 276.52280 278.31766 279.86942 281.23477 282.42108 283.47278 284.43765 285.31906
 286.12421 286.85382 287.49826 288.39859
 366.78100 356.33276 345.76252 334.62629 323.02705 311.21881 299.08657 286.88733
 274.59710 262.49186 250.49862 239.79738 229.91714 221.01891 213.19867 206.19843
 200.03019 194.96595 191.54572 189.58548 188.62024 188.68200 189.51476 190.82053
 192.54329 194.63605 196.89681 199.25358 201.69634 204.17410 206.25986 208.09962
 209.72339 210.86615 211.09291 211.31867 211.25343 210.95620 210.58696 210.21472
 209.82948 209.53724 209.34301 209.20477 209.13053 209.45929 209.84305 210.22982
 211.02058 212.19634 213.44410 215.22486 217.15063 219.19139 221.28415 223.36491
 225.42267 227.50444 229.59920 231.70296 233.82972 235.99948 238.25325 240.62101
 243.23977 245.48853 247.48829 249.25106 250.66582 251.78658 252.60634 252.92011
 252.95487 252.72663 252.08439 251.03015 249.63392 247.79268 245.69944 243.53020
 241.31896 239.12073 236.93849 234.77525 232.63301 230.49777 228.52154 226.67630
 224.95706 223.42682 222.05458 220.82435 219.70411 218.66187 217.76363 216.90239
 216.14216 215.31992 214.41568 213.77744 213.22520 213.99289 215.80663 218.00777
 220.07265 222.10757 223.93303 225.32912 226.19360 226.93311 227.57657 227.06636
 226.78377 228.43523 232.01509 236.52356 241.05930 245.48274 249.72624 253.63300
 257.19699 260.49857 263.51117 266.14044 268.33511 270.08633 272.32761 274.47287
 276.53250 278.32019 279.87167 281.23602 282.42221 283.47464 284.43832 285.31750
 286.12201 286.85031 287.49399 288.38763
 366.78100 356.33329 345.76358 334.62786 323.02915 311.22144 299.08973 286.89102
 274.60131 262.49659 250.50388 239.80317 229.92346 221.02575 213.20603 206.20632
 200.03861 194.97490 191.55519 189.59548 188.63076 188.69305 189.52634 190.83263
 192.55592 194.64920 196.91049 199.26778 201.71107 204.18936 206.27565 208.11593
 209.74022 210.88351 211.11080 211.33709 211.27237 210.97566 210.60695 210.23524
 209.85053 209.55881 209.36510 209.22739 209.15368 209.48297 209.86726 210.25454
 211.04583 212.22212 213.47041 215.25170 217.17798 219.21927 221.31256 223.39385
 225.45214 227.53443 229.62971 231.73400 233.86129 236.03158 238.28587 240.65415
 243.27344 245.52273 247.52302 249.28631 250.70160 251.82288 252.64317 252.95746
 252.99275 252.76504 252.12332 251.06961 249.67390 247.83319 245.74048 243.57177
 241.36105 239.16334 236.98163 234.81892 232.67721 230.54249 228.56678 226.72207
 225.00336 223.47365 222.10194 220.87222 219.75251 218.71080 217.81309 216.95238
 216.19266 215.37095 214.46724 213.82953 213.27782 214.03468 215.82283 218.04842
 220.15155 222.18527 223.95334 225.33998 226.25298 226.99745 227.53893 227.00154
 226.70724 228.37064 231.99934 236.51094 241.03400 245.44716 249.67969 253.57420
 257.12637 260.42075 263.42993 266.04068 268.19684 270.24622 272.33231 274.47842
 276.51559 278.29770 279.84909 281.21469 282.40121 283.45404 284.41769 285.29825
 286.10114 286.82977 287.47119 288.36966
 366.78100 356.33399 345.76497 334.62996 323.03194 311.22493 299.09391 286.89590
 274.60689 262.50287 250.51086 239.81084 229.93183 221.03482 213.21580 206.21679
 200.04977 194.98676 191.56774 189.60873 188.64472 188.70770 189.54169 190.84867
 192.57266 194.66664 196.92863 199.28662 201.73060 204.20959 206.29657 208.13756
 209.76255 210.90653 211.13452 211.36150 211.29749 211.00147 210.63346 210.26245
 209.87843 209.58742 209.39440 209.25739 209.18438 209.51436 209.89935 210.28733
 211.07932 212.25630 213.50529 215.28728 217.21426 219.25625 221.35023 223.43222
 225.49120 227.57419 229.67018 231.77516 233.90315 236.07413 238.32912 240.69811
 243.31809 245.56808 247.56906 249.33305 250.74903 251.87102 252.69201 253.00699
 253.04298 252.81596 252.17495 251.12193 249.72692 247.88691 245.79489 243.62688
 241.41686 239.21985 237.03884 234.87682 232.73581 230.60179 228.62678 226.78276
 225.06475 223.53574 222.16472 220.93571 219.81669 218.77568 217.87867 217.01865
 216.25964 215.43862 214.53561 213.89859 213.34758 214.08521 215.82791 218.08319
 220.23355 222.26186 223.97432 225.34048 226.30286 227.06639 227.51558 226.94835
 226.63664 228.30441 231.97672 236.49324 241.00665 245.40948 249.62912 253.51071
 257.05099 260.33984 263.35242 265.97107 268.12909 270.24167 272.26968 274.48895
 276.47333 278.25089 279.80426 281.17053 282.35703 283.41113 284.37357 285.25491
 286.05887 286.78735 287.43121 288.32394
 366.78100 356.33452 345.76604 334.63155 323.03407 311.22759 299.09711 286.89962
 274.61114 262.50766 250.51618 239.81669 229.93821 221.04173 213.22325 206.22476
 200.05828 194.99580 191.57732 189.61883 188.65535 188.71887 189.55339 190.86090
 192.58542 194.67994 196.94246 199.30097 201.74549 204.22501 206.31253 208.15404
 209.77956 210.92408 211.15260 211.38011 211.31663 211.02115 210.65367 210.28319
 209.89970 209.60922 209.41674 209.28026 209.20777 209.53829 209.92381 210.31233
 211.10484 212.28236 213.53188 215.31440 217.24191 219.28443 221.37895 223.46147
 225.52098 227.60450 229.70102 231.80654 233.93505 236.10657 238.36209 240.73161
 243.35212 245.60264 247.60416 249.36868 250.78519 251.90771 252.72923 253.04475
 253.08126 252.85478 252.21430 251.16182 249.76734 247.92785 245.83637 243.66889
 241.45941 239.26292 237.08244 234.92096 232.78048 230.64699 228.67251 226.82903
 225.11155 223.58306 222.21258 220.98410 219.86562 218.82513 217.92865 217.06917
 216.31069 215.49020 214.58772 213.95124 213.40076 214.12605 215.83966 218.12233
 220.31642 222.32375 223.98492 225.32523 226.33328 227.13083 227.50937 226.92326
 226.59489 228.25595 231.96243 236.48425 240.98921 245.37823 249.58215 253.44855
 256.97699 260.25757 263.26810 265.87399 268.00189 270.22455 272.20236 274.42178
 276.42175 278.19653 279.74747 281.11304 282.29907 283.35251 284.31561 285.19647
 286.00076 286.73071 287.37604 288.26617
 366.78100 356.33485 345.76669 334.63254 323.03539 311.22924 299.09908 286.90193
 274.61378 262.51063 250.51947 239.82032 229.94217 221.04602 213.22786 206.22971
 200.06356 195.00140 191.58325 189.62510 188.66195 188.72579 189.56064 190.86849
 192.59334 194.68818 196.95103 199.30988 201.75472 204.23457 206.32242 208.16427
 209.79011 210.93496 211.16381 211.39166 211.32850 211.03335 210.66620 210.29605
 209.91289 209.62274 209.43059 209.29443 209.22228 209.55313 209.93898 210.32782
 211.12067 212.29852 213.54837 215.33121 217.25906 219.30191 221.39675 223.47960
 225.53945 227.62330 229.72014 231.82599 233.95484 236.12669 238.38253 240.75238
 243.37323 245.62408 247.62592 249.39077 250.80762 251.93046 252.75231 253.06816
 253.10501 252.87885 252.23870 251.18655 249.79240 247.95324 245.86209 243.69494
 241.48578 239.28963 237.10948 234.94833 232.80817 230.67502 228.70087 226.85772
 225.14056 223.61241 222.24226 221.01411 219.89595 218.85580 217.95965 217.10049
 216.34234 215.52219 214.62004 213.98388 213.43373 214.15436 215.85689 218.16971
 220.39836 222.37357 223.98100 225.28944 226.34296 227.18570 227.51617 226.92067
 226.57703 228.22260 231.95561 236.48473 240.98221 245.35411 249.53891 253.38780
 256.89850 260.16394 263.16809 265.77246 267.89987 270.21368 272.16769 274.37967
 276.35709 278.12277 279.67096 281.03598 282.21979 283.27258 284.23572 285.11710
 285.92108 286.65274 287.29810 288.18655
 366.78100 356.33503 345.76707 334.63310 323.03613 311.23016 299.10020 286.90323
 274.61526 262.51229 250.52133 239.82236 229.94439 221.04843 213.23046 206.23249
 200.06652 195.00456 191.58659 189.62862 188.66565 188.72969 189.56472 190.87275
 192.59778 194.69282 196.95585 199.31488 201.75992 204.23995 206.32798 208.17001
 209.79605 210.94108 211.17011 211.39814 211.33518 211.04021 210.67324 210.30328
 209.92031 209.63034 209.43837 209.30241 209.23044 209.56147 209.94750 210.33654
 211.12957 212.30760 213.55764 215.34067 217.26870 219.31173 221.40677 223.48980
 225.54983 227.63386 229.73090 231.83693 233.96596 236.13800 238.39403 240.76406
 243.38509 245.63613 247.63816 249.40319 250.82022 251.94326 252.76529 253.08132
 253.11835 252.89239 252.25242 251.20045 249.80649 247.96752 245.87655 243.70958
 241.50062 239.30465 237.12468 234.96371 232.82375 230.69078 228.71681 226.87385
 225.15688 223.62891 222.25894 221.03098 219.91301 218.87304 217.97707 217.11811
 216.36014 215.54017 214.63821 214.00224 213.45227 214.17220 215.87311 218.22940
 220.48851 222.41312 223.96060 225.23393 226.32762 227.22295 227.52660 226.92682
 226.57175 228.20290 231.95691 236.49673 240.98955 245.34282 249.50720 253.33887
 256.82916 260.07260 263.06964 265.68213 267.82007 270.17731 272.09119 274.30115
 276.27032 278.02893 279.57510 280.93881 282.12466 283.17557 284.13901 285.01971
 285.82550 286.55957 287.20374 288.09302
 366.78100 356.33518 345.76736 334.63353 323.03671 311.23089 299.10107 286.90424
 274.61642 262.51360 250.52278 239.82395 229.94613 221.05031 213.23249 206.23466
 200.06884 195.00702 191.58920 189.63138 188.66855 188.73273 189.56791 190.87609
 192.60126 194.69644 196.95962 199.31880 201.76397 204.24415 206.33233 208.17451
 209.80069 210.94586 211.17504 211.40322 211.34040 211.04557 210.67875 210.30893
 209.92611 209.63628 209.44446 209.30864 209.23682 209.56799 209.95417 210.34335
 211.13653 212.31471 213.56488 215.34806 217.27624 219.31942 221.41459 223.49777
 225.55795 227.64213 229.73930 231.84548 233.97466 236.14684 238.40302 240.77319
 243.39437 245.64555 247.64773 249.41290 250.83008 251.95326 252.77544 253.09161
 253.12879 252.90297 252.26315 251.21132 249.81750 247.97868 245.88786 243.72104
 241.51221 239.31639 237.13657 234.97575 232.83592 230.70310 228.72928 226.88646
 225.16963 223.64181 222.27199 221.04417 219.92635 218.88652 217.99070 217.13188
 216.37406 215.55423 214.65241 214.01659 213.46677 214.18573 215.88435 218.30188
 220.59793 222.45941 223.91747 225.15338 226.29124 227.23639 227.52750 226.93494
 226.58034 228.20071 231.96725 236.51938 241.00896 245.34251 249.48434 253.29930
 256.76901 259.98795 262.97568 265.59863 267.73651 270.14218 272.01846 274.22684
 276.16327 277.91446 279.45959 280.82230 282.00790 283.05914 284.01959 284.90125
 285.70496 286.43735 287.08337 287.94586
 366.78100 356.33550 345.76799 334.63449 323.03799 311.23249 299.10298 286.90648
 274.61898 262.51647 250.52597 239.82747 229.94997 221.05446 213.23696 206.23946
 200.07395 195.01245 191.59495 189.63745 188.67494 188.73944 189.57494 190.88344
 192.60893 194.70443 196.96793 199.32742 201.77292 204.25342 206.34192 208.18441
 209.81091 210.95641 211.18590 211.41440 211.35190 211.05740 210.69089 210.32139
 209.93889 209.64938 209.45788 209.32238 209.25088 209.58237 209.96887 210.35837
 211.15186 212.33036 213.58086 215.36436 217.29285 219.33635 221.43185 223.51535
 225.57584 227.66034 229.75784 231.86433 233.99383 236.16633 238.42283 240.79332
 243.41482 245.66632 247.66881 249.43431 250.85181 251.97531 252.79780 253.11430
 253.15180 252.92629 252.28679 251.23529 249.84179 248.00328 245.91278 243.74628
 241.53777 239.34227 237.16277 235.00227 232.86276 230.73026 228.75676 226.91425
 225.19775 223.67025 222.30075 221.07324 219.95574 218.91624 218.02074 217.16223
 216.40473 215.58523 214.68372 214.04822 213.49872 214.20676 215.87955 218.38887
 220.72099 222.50323 223.88091 225.06538 226.22322 227.21823 227.51453 226.93555
 226.59019 228.20810 231.98384 236.55080 241.04045 245.35451 249.47452 253.27493
 256.72397 259.91528 262.89102 265.53125 267.68005 270.08737 271.94629 274.11514
 276.04697 277.78766 279.32916 280.69238 281.87643 282.92761 283.88879 284.76883
 285.57376 286.30588 286.95236 287.81406
 366.78100 356.33588 345.76875 334.63563 323.03950 311.23438 299.10525 286.90913
 274.62200 262.51988 250.52975 239.83163 229.95450 221.05938 213.24225 206.24513
 200.08000 195.01888 191.60176 189.64463 188.68251 188.74738 189.58326 190.89213
 192.61801 194.71388 196.97776 199.33763 201.78351 204.26438 206.35326 208.19613
 209.82301 210.96888 211.19876 211.42764 211.36551 211.07139 210.70526 210.33614
 209.95401 209.66489 209.47376 209.33864 209.26751 209.59939 209.98626 210.37614
 211.17001 212.34889 213.59976 215.38364 217.31252 219.35639 221.45227 223.53614
 225.59702 227.68189 229.77977 231.88664 234.01652 236.18939 238.44627 240.81714
 243.43902 245.69089 247.69377 249.45964 250.87752 252.00140 252.82427 253.14115
 253.17902 252.95390 252.31477 251.26365 249.87052 248.03240 245.94227 243.77615
 241.56802 239.37290 237.19377 235.03365 232.89452 230.76240 228.78928 226.94715
 225.23103 223.70390 222.33478 221.10765 219.99053 218.95140 218.05628 217.19815
 216.44103 215.62190 214.72078 214.08565 213.53653 214.23132 215.87282 218.46648
 220.87132 222.56050 223.81830 224.97878 226.16869 227.18866 227.48265 226.91336
 226.58447 228.21793 232.00493 236.58852 241.08209 245.37753 249.47485 253.26170
 256.69031 259.85095 262.81430 265.49149 267.66147 269.97061 271.87830 273.97238
 275.92328 277.65500 279.19348 280.55466 281.73846 282.78970 283.74988 284.62952
 285.43399 286.17041 286.81885 287.67825
 366.78100 356.33594 345.76887 334.63581 323.03974 311.23468 299.10561 286.90955
 274.62249 262.52042 250.53036 239.83229 229.95523 221.06016 213.24310 206.24604
 200.08097 195.01991 191.60284 189.64578 188.68371 188.74865 189.58459 190.89352
 192.61946 194.71539 196.97933 199.33926 201.78520 204.26614 206.35507 208.19801
 209.82494 210.97088 211.20081 211.42975 211.36769 211.07362 210.70756 210.33849
 209.95643 209.66736 209.47630 209.34124 209.27017 209.60211 209.98904 210.37898
 211.17291 212.35185 213.60279 215.38672 217.31566 219.35959 221.45553 223.53946
 225.60040 227.68534 229.78327 231.89021 234.02014 236.19308 238.45001 240.82095
 243.44289 245.69482 247.69776 249.46369 250.88163 252.00556 252.82850 253.14544
 253.18337 252.95831 252.31924 251.26818 249.87511 248.03705 245.94699 243.78092
 241.57286 239.37779 237.19873 235.03866 232.89960 230.76754 228.79447 226.95241
 225.23634 223.70928 222.34021 221.11315 219.99609 218.95702 218.06196 217.20389
 216.44683 215.62776 214.72670 214.09164 213.54257 214.23824 215.88182 218.52345
 221.01949 222.65378 223.79010 224.90527 226.09628 227.11717 227.41570 226.86327
 226.57518 228.24129 232.03418 236.63327 241.13641 245.41368 249.48781 253.26085
 256.66910 259.79459 262.73642 265.43759 267.63031 269.92581 271.82123 273.81567
 275.79526 277.51706 279.04706 280.40662 281.59024 282.63947 283.59839 284.47729
 285.28024 286.01773 286.65985 287.51025
 366.78100 356.33579 345.76858 334.63538 323.03917 311.23396 299.10475 286.90855
 274.62134 262.51913 250.52892 239.83072 229.95351 221.05830 213.24109 206.24388
 200.07868 195.01747 191.60026 189.64305 188.68085 188.74564 189.58143 190.89022
 192.61601 194.71181 196.97560 199.33539 201.78118 204.26198 206.35077 208.19356
 209.82035 210.96615 211.19594 211.42473 211.36252 211.06831 210.70211 210.33290
 209.95069 209.66148 209.47028 209.33507 209.26386 209.59565 209.98245 210.37224
 211.16603 212.34482 213.59561 215.37941 217.30820 219.35199 221.44778 223.53158
 225.59237 227.67716 229.77495 231.88174 234.01154 236.18433 238.44112 240.81191
 243.43371 245.68550 247.68829 249.45408 250.87188 251.99567 252.81846 253.13525
 253.17304 252.94784 252.30863 251.25742 249.86421 248.02601 245.93580 243.76959
 241.56138 239.36618 237.18697 235.02676 232.88755 230.75534 228.78214 226.93993
 225.22372 223.69651 222.32731 221.10010 219.98289 218.94368 218.04848 217.19027
 216.43306 215.61385 214.71264 214.07744 213.52823 214.23331 215.89917 218.58842
 221.14311 222.73904 223.78398 224.84694 226.01888 227.02629 227.33736 226.80484
 226.56142 228.27037 232.06674 236.68002 241.19490 245.45757 249.50844 253.26930
 256.66241 259.75177 262.66577 265.39468 267.63788 269.81213 271.88037 273.70932
 275.67105 277.37735 278.89691 280.25232 281.43311 282.48068 283.43930 284.31543
 285.12064 285.85599 286.49768 287.34229
 366.78100 356.33619 345.76939 334.63658 323.04078 311.23597 299.10717 286.91136
 274.62455 262.52275 250.53294 239.83514 229.95833 221.06353 213.24672 206.24992
 200.08511 195.02430 191.60750 189.65069 188.68889 188.75408 189.59028 190.89947
 192.62566 194.72186 196.98605 199.34625 201.79244 204.27364 206.36283 208.20603
 209.83322 210.97941 211.20961 211.43880 211.37700 211.08319 210.71739 210.34858
 209.96677 209.67797 209.48716 209.35236 209.28155 209.61375 210.00094 210.39113
 211.18533 212.36452 213.61572 215.39991 217.32911 219.37330 221.46950 223.55369
 225.61488 227.70008 229.79827 231.90547 234.03566 236.20886 238.46605 240.83724
 243.45944 245.71163 247.71483 249.48102 250.89922 252.02341 252.84660 253.16380
 253.20199 252.97719 252.33838 251.28758 249.89477 248.05697 245.96716 243.80135
 241.59355 239.39874 237.21994 235.06013 232.92133 230.78952 228.81671 226.97491
 225.25910 223.73230 222.36349 221.13669 220.01988 218.98108 218.08627 217.22846
 216.47166 215.65285 214.75205 214.11724 213.56844 214.25763 215.88594 218.65337
 221.29770 222.84496 223.77931 224.76813 225.90630 226.90033 227.23627 226.76112
 226.57593 228.31300 232.10217 236.72720 241.25998 245.51138 249.53874 253.28879
 256.66702 259.72070 262.60526 265.37479 267.65573 269.69794 271.89728 273.59683
 275.54135 277.22842 278.73599 280.08682 281.26529 282.31146 283.26801 284.14233
 284.94592 285.68170 286.31778 287.15884
 366.78100 356.33735 345.77169 334.64004 323.04538 311.24173 299.11408 286.91942
 274.63377 262.53312 250.54446 239.84781 229.97215 221.07850 213.26285 206.26719
 200.10354 195.04389 191.62823 189.67258 188.71192 188.77827 189.61562 190.92596
 192.65331 194.75066 197.01600 199.37735 201.82469 204.30704 206.39739 208.24173
 209.87008 211.01743 211.24877 211.47912 211.41846 211.12581 210.76116 210.39350
 210.01285 209.72520 209.53554 209.40189 209.33223 209.66558 210.05393 210.44527
 211.24062 212.42097 213.67331 215.45866 217.38900 219.43435 221.53170 223.61704
 225.67939 227.76574 229.86508 231.97343 234.10477 236.27912 238.53747 240.90981
 243.53316 245.78651 247.79085 249.55820 250.97754 252.10289 252.92724 253.24558
 253.28493 253.06128 252.42362 251.37397 249.98231 248.14566 246.05701 243.89235
 241.68570 239.49205 237.31439 235.15574 233.01808 230.88743 228.91578 227.07512
 225.36047 223.83482 222.46716 221.24151 220.12585 219.08820 218.19455 217.33789
 216.58224 215.76459 214.86493 214.23128 213.68362 214.32613 215.84412 218.67978
 221.43465 222.96040 223.80627 224.69695 225.78835 226.74915 227.07011 226.66856
 226.55890 228.36028 232.15222 236.79750 241.34444 245.58699 249.59564 253.34491
 256.72580 259.74332 262.57059 265.37152 267.70822 269.53894 271.93362 273.50452
 275.45105 277.12439 278.64270 280.00470 281.18979 282.24237 283.20663 284.08896
 284.89920 285.63742 286.30618 287.16632
 366.78100 356.33783 345.77265 334.64148 323.04730 311.24413 299.11695 286.92278
 274.63761 262.53743 250.54926 239.85308 229.97791 221.08474 213.26956 206.27439
 200.11121 195.05204 191.63686 189.68169 188.72152 188.78834 189.62617 190.93699
 192.66482 194.76265 197.02847 199.39030 201.83812 204.32095 206.41177 208.25660
 209.88543 211.03325 211.26508 211.49590 211.43573 211.14356 210.77938 210.41221
 210.03203 209.74486 209.55568 209.42251 209.35334 209.68716 210.07599 210.46781
 211.26364 212.44447 213.69729 215.48312 217.41394 219.45977 221.55759 223.64342
 225.70625 227.79307 229.89290 232.00172 234.13355 236.30838 238.56720 240.94003
 243.56385 245.81768 247.82250 249.59033 251.01016 252.13598 252.96081 253.27963
 253.31946 253.09629 252.45911 251.40994 250.01876 248.18259 246.09441 243.93024
 241.72407 239.53089 237.35372 235.19554 233.05837 230.92820 228.95702 227.11685
 225.40267 223.87750 222.51032 221.28515 220.16998 219.13280 218.23963 217.38345
 216.62828 215.81111 214.91193 214.27876 213.73158 214.36038 215.84601 218.68607
 221.50075 223.04263 223.86630 224.69409 225.74171 226.65836 226.93997 226.52174
 226.43271 228.33255 232.15334 236.83688 241.42400 245.69659 249.69783 253.44629
 256.83685 259.83368 262.59308 265.38092 267.75684 269.67657 271.71497 273.48724
 275.32224 276.94211 278.42447 279.75235 280.90701 281.92432 282.84201 283.70758
 284.49451 285.19754 285.79434 286.55490
 366.78100 356.33745 345.77189 334.64034 323.04579 311.24223 299.11468 286.92013
 274.63457 262.53402 250.54546 239.84891 229.97336 221.07980 213.26425 206.26870
 200.10514 195.04559 191.63004 189.67448 188.71393 188.78038 189.61782 190.92827
 192.65572 194.75316 197.01861 199.38006 201.82750 204.30995 206.40039 208.24484
 209.87329 211.02073 211.25218 211.48263 211.42207 211.12952 210.76497 210.39741
 210.01686 209.72931 209.53975 209.40620 209.33665 209.67009 210.05854 210.44999
 211.24543 212.42588 213.67832 215.46377 217.39422 219.43966 221.53711 223.62256
 225.68500 227.77145 229.87090 231.97934 234.11079 236.28524 238.54368 240.91613
 243.53958 245.79302 247.79747 249.56492 250.98436 252.10981 252.93425 253.25270
 253.29215 253.06859 252.43104 251.38149 249.98993 248.15338 246.06483 243.90027
 241.69372 239.50017 237.32261 235.16406 233.02651 230.89595 228.92440 227.08384
 225.36929 223.84374 222.47618 221.25063 220.13508 219.09752 218.20397 217.34742
 216.59186 215.77431 214.87476 214.24120 213.69365 214.34662 215.88934 218.72453
 221.56706 223.13692 223.93350 224.73637 225.73477 226.59322 226.87440 226.36946
 226.32216 228.29372 232.15941 236.85394 241.45110 245.74191 249.74312 253.48749
 256.88013 259.86441 262.59946 265.39252 267.79114 269.63809 271.63721 273.43771
 275.21906 276.79547 278.24850 279.54459 280.66638 281.64828 282.54044 283.37885
 284.16678 284.88287 285.47519 286.21609
 366.78100 356.33732 345.77163 334.63995 323.04526 311.24158 299.11389 286.91921
 274.63352 262.53284 250.54415 239.84747 229.97179 221.07810 213.26242 206.26673
 200.10305 195.04336 191.62768 189.67199 188.71131 188.77762 189.61494 190.92525
 192.65257 194.74989 197.01520 199.37652 201.82383 204.30615 206.39646 208.24078
 209.86909 211.01641 211.24772 211.47804 211.41736 211.12467 210.75999 210.39230
 210.01162 209.72393 209.53425 209.40056 209.33088 209.66419 210.05251 210.44382
 211.23914 212.41946 213.67177 215.45709 217.38740 219.43272 221.53003 223.61535
 225.67766 227.76398 229.86329 231.97161 234.10293 236.27724 238.53556 240.90787
 243.53119 245.78450 247.78882 249.55613 250.97545 252.10076 252.92508 253.24339
 253.28271 253.05903 252.42134 251.37166 249.97997 248.14329 246.05460 243.88992
 241.68323 239.48955 237.31186 235.15318 233.01550 230.88481 228.91313 227.07244
 225.35776 223.83207 222.46439 221.23870 220.12302 219.08533 218.19165 217.33496
 216.57928 215.76160 214.86191 214.22823 213.68054 214.34741 215.92299 218.76546
 221.64906 223.23949 223.98193 224.73900 225.70322 226.52284 226.79149 226.27879
 226.26518 228.27943 232.15906 236.86342 241.47743 245.76871 249.76822 253.51059
 256.89542 259.87772 262.59869 265.39539 267.80765 269.68259 271.52975 273.43112
 275.14676 276.69321 278.11795 279.39203 280.49185 281.42706 282.19717 283.04871
 283.84671 284.57932 285.18430 285.93552
 366.78100 356.33770 345.77239 334.64109 323.04679 311.24348 299.11618 286.92188
 274.63658 262.53627 250.54797 239.85167 229.97636 221.08306 213.26776 206.27245
 200.10915 195.04985 191.63454 189.67924 188.71894 188.78563 189.62333 190.93403
 192.66173 194.75942 197.02512 199.38682 201.83451 204.31721 206.40791 208.25260
 209.88130 211.02900 211.26069 211.49139 211.43109 211.13878 210.77448 210.40718
 210.02688 209.73957 209.55027 209.41697 209.34766 209.68136 210.07006 210.46175
 211.25745 212.43815 213.69084 215.47654 217.40724 219.45294 221.55063 223.63633
 225.69903 227.78572 229.88542 231.99412 234.12581 236.30051 238.55921 240.93190
 243.55560 245.80930 247.81399 249.58169 251.00139 252.12709 252.95178 253.27048
 253.31018 253.08687 252.44957 251.40027 250.00896 248.17266 246.08436 243.92005
 241.71375 239.52045 237.34314 235.18484 233.04754 230.91724 228.94593 227.10563
 225.39133 223.86602 222.49872 221.27342 220.15811 219.12081 218.22751 217.37120
 216.61590 215.79860 214.89930 214.26599 213.71869 214.38071 215.94478 218.74382
 221.71178 223.29599 223.97803 224.70227 225.67072 226.46219 226.67828 226.25444
 226.26942 228.27824 232.16263 236.88916 241.47311 245.80380 249.83931 253.59026
 256.97147 259.92816 262.56537 265.35532 267.80939 269.66470 271.42975 273.31729
 275.03067 276.55652 277.95465 279.19388 280.24225 281.21225 282.16220 283.04254
 283.83713 284.53271 285.15128 285.93954
 366.78100 356.33749 345.77197 334.64046 323.04594 311.24243 299.11491 286.92040
 274.63488 262.53437 250.54585 239.84934 229.97382 221.08031 213.26479 206.26928
 200.10576 195.04625 191.63073 189.67522 188.71470 188.78119 189.61867 190.92916
 192.65664 194.75413 197.01961 199.38110 201.82858 204.31107 206.40155 208.24604
 209.87452 211.02201 211.25349 211.48398 211.42346 211.13095 210.76643 210.39892
 210.01840 209.73089 209.54137 209.40786 209.33834 209.67183 210.06031 210.45180
 211.24728 212.42777 213.68025 215.46574 217.39623 219.44171 221.53920 223.62468
 225.68717 227.77365 229.87314 231.98162 234.11311 236.28759 238.54608 240.91856
 243.54205 245.79553 247.80002 249.56750 250.98699 252.11247 252.93696 253.25544
 253.29493 253.07141 252.43390 251.38438 249.99287 248.15635 246.06784 243.90332
 241.69681 239.50329 237.32578 235.16726 233.02975 230.89923 228.92772 227.08720
 225.37269 223.84717 222.47966 221.25414 220.13863 219.10111 218.20760 217.35108
 216.59557 215.77805 214.87854 214.24502 213.69751 214.38498 216.03865 218.72040
 221.65367 223.21510 223.91122 224.70697 225.77133 226.55447 226.59453 226.23836
 226.06071 228.14694 232.08957 236.88341 241.48720 245.81944 249.88124 253.63959
 257.02695 259.98404 262.67624 265.36844 267.76663 269.60284 271.41544 273.29697
 274.97498 276.48636 277.84009 279.04428 280.16232 281.20807 282.18329 283.09311
 283.95203 284.71692 285.38510 286.23663
 366.78100 356.33718 345.77137 334.63955 323.04473 311.24092 299.11310 286.91828
 274.63247 262.53165 250.54283 239.84601 229.97020 221.07638 213.26056 206.26475
 200.10093 195.04111 191.62530 189.66948 188.70866 188.77485 189.61203 190.92221
 192.64940 194.74658 197.01176 199.37294 201.82013 204.30231 206.39249 208.23668
 209.86486 211.01204 211.24323 211.47341 211.41259 211.11978 210.75496 210.38714
 210.00633 209.71851 209.52869 209.39487 209.32506 209.65824 210.04642 210.43761
 211.23279 212.41297 213.66516 215.45034 217.38052 219.42571 221.52289 223.60807
 225.67026 227.75644 229.85562 231.96380 234.09499 236.26917 238.52735 240.89954
 243.52272 245.77590 247.78009 249.54727 250.96645 252.09164 252.91582 253.23400
 253.27319 253.04937 252.41155 251.36173 249.96992 248.13310 246.04428 243.87947
 241.67265 239.47883 237.30102 235.14220 233.00438 230.87357 228.90175 227.06093
 225.34612 223.82030 222.45248 221.22666 220.11085 219.07303 218.17921 217.32240
 216.56658 215.74876 214.84895 214.21513 213.66731 214.37842 216.08752 218.81383
 221.64598 223.14629 223.89711 224.74448 225.86073 226.66731 226.63353 226.05798
 225.91415 228.08539 232.06862 236.86208 241.48750 245.81033 249.87042 253.64783
 257.04541 259.99582 262.67596 265.36676 267.78864 269.62167 271.47260 273.33829
 274.97916 276.47812 277.82581 279.08798 280.24512 281.30045 282.29303 283.21799
 284.10184 284.88892 285.57648 286.45270
 366.78100 356.33756 345.77213 334.64069 323.04626 311.24282 299.11539 286.92095
 274.63552 262.53508 250.54665 239.85021 229.97478 221.08134 213.26590 206.27047
 200.10703 195.04760 191.63216 189.67673 188.71629 188.78286 189.62042 190.93099
 192.65855 194.75611 197.02168 199.38324 201.83081 204.31337 206.40394 208.24850
 209.87707 211.02463 211.25620 211.48676 211.42633 211.13389 210.76945 210.40202
 210.02158 209.73415 209.54471 209.41128 209.34184 209.67541 210.06397 210.45554
 211.25110 212.43167 213.68423 215.46979 217.40036 219.44592 221.54349 223.62905
 225.69162 227.77818 229.87775 231.98631 234.11788 236.29244 238.55100 240.92357
 243.54713 245.80070 247.80526 249.57283 250.99239 252.11796 252.94252 253.26109
 253.30065 253.07722 252.43978 251.39034 249.99891 248.16247 246.07404 243.90960
 241.70317 239.50973 237.33230 235.17386 233.03643 230.90599 228.93456 227.09412
 225.37968 223.85425 222.48681 221.26138 220.14594 219.10851 218.21507 217.35864
 216.60320 215.78577 214.88633 214.25289 213.70546 214.40611 216.11143 218.90694
 221.68376 223.05937 223.79364 224.65521 225.80191 226.69217 226.71863 226.33533
 225.83049 227.88200 231.95665 236.80150 241.46341 245.79936 249.86894 253.66324
 257.06876 260.00598 262.65732 265.31268 267.75027 269.57785 271.34573 273.19308
 274.82919 276.30237 277.54196 278.78198 279.93942 281.00043 281.99930 282.94516
 283.80182 284.56467 285.23108 286.08035
 366.78100 356.34080 345.77859 334.65039 323.05919 311.25899 299.13478 286.94358
 274.66138 262.56417 250.57897 239.88577 230.01357 221.12336 213.31116 206.31896
 200.15875 195.10255 191.69035 189.73815 188.78094 188.85074 189.69154 191.00533
 192.73613 194.83693 197.10573 199.47052 201.92132 204.40712 206.50092 208.34871
 209.98051 211.13131 211.36610 211.59990 211.54270 211.25350 210.89229 210.52809
 210.15089 209.86668 209.68048 209.55028 209.48408 209.82087 210.21267 210.60747
 211.40626 212.59006 213.84586 215.63466 217.56845 219.61725 221.71805 223.80684
 225.87264 227.96244 230.06524 232.17703 234.31183 236.48963 238.75142 241.12722
 243.75402 246.01082 248.01861 249.78941 251.21221 252.34100 253.16880 253.49060
 253.53340 253.31319 252.67899 251.63279 250.24458 248.41138 246.32618 244.16498
 241.96177 239.77157 237.59737 235.44217 233.30796 231.18076 229.21256 227.37535
 225.66415 224.14195 222.77775 221.55554 220.44334 219.40914 218.51893 217.66573
 216.91353 216.09933 215.20312 214.57292 214.02872 214.59296 216.10484 218.94287
 221.71992 223.10501 223.94469 224.77496 225.79652 226.54144 226.63463 226.46835
 226.29607 228.24910 232.06560 236.71999 241.35992 245.75095 249.87878 253.70769
 257.09872 260.05640 262.75977 265.36209 267.61871 269.52991 271.33179 273.06363
 274.63995 275.99628 277.30499 278.69699 280.07224 281.29376 282.40826 283.41788
 284.32596 285.13458 285.84097 286.74121
 366.78100 356.34176 345.78053 334.65329 323.06306 311.26382 299.14058 286.95035
 274.66911 262.57288 250.58864 239.89641 230.02517 221.13593 213.32470 206.33346
 200.17423 195.11899 191.70775 189.75652 188.80028 188.87105 189.71281 191.02757
 192.75934 194.86110 197.13087 199.49663 201.94840 204.43516 206.52992 208.37869
 210.01145 211.16322 211.39898 211.63374 211.57751 211.28927 210.92904 210.56580
 210.18956 209.90633 209.72109 209.59186 209.52662 209.86439 210.25715 210.65291
 211.45268 212.63744 213.89421 215.68397 217.61873 219.66850 221.77026 223.86003
 225.92679 228.01755 230.12132 232.23408 234.36985 236.54861 238.81138 241.18814
 243.81590 246.07367 248.08243 249.85420 251.27796 252.40772 253.23649 253.55925
 253.60302 253.38378 252.75054 251.70531 250.31807 248.48584 246.40160 244.24137
 242.03913 239.84989 237.67666 235.52242 233.38919 231.26295 229.29571 227.45948
 225.74924 224.22801 222.86477 221.64353 220.53230 219.49906 218.60983 217.75759
 217.00636 216.19312 215.29788 214.66865 214.12541 214.66737 216.14934 218.87212
 221.71454 223.29536 224.20786 224.86162 225.69383 226.37904 226.61020 226.22948
 226.22258 228.27658 232.12009 236.77631 241.42007 245.83015 249.97835 253.82164
 257.24048 260.21866 262.92017 265.50974 267.79102 269.69333 271.43427 273.11041
 274.64194 276.02478 277.60782 279.24039 280.68802 281.96881 283.13733 284.19592
 285.14801 285.99585 286.73651 287.68042
 366.78100 356.34000 345.77701 334.64801 323.05602 311.25502 299.13003 286.93803
 274.65503 262.55704 250.57104 239.87705 230.00405 221.11305 213.30006 206.30706
 200.14607 195.08907 191.67608 189.72308 188.76508 188.83409 189.67409 190.98710
 192.71710 194.81710 197.08511 199.44911 201.89912 204.38412 206.47713 208.32413
 209.95513 211.10514 211.33914 211.57215 211.51415 211.22415 210.86216 210.49716
 210.11917 209.83417 209.64718 209.51618 209.44918 209.78519 210.17619 210.57020
 211.36820 212.55120 213.80621 215.59421 217.52722 219.57522 221.67523 223.76323
 225.82823 227.91724 230.01924 232.13025 234.26425 236.44125 238.70226 241.07726
 243.70327 245.95927 247.96628 249.73628 251.15828 252.28629 253.11329 253.43430
 253.47630 253.25530 252.62031 251.57331 250.18432 248.35032 246.26433 244.10233
 241.89833 239.70734 237.53234 235.37635 233.24135 231.11335 229.14436 227.30636
 225.59437 224.07137 222.70638 221.48338 220.37038 219.33539 218.44439 217.59040
 216.83740 216.02240 215.12541 214.49441 213.94942 214.59164 216.23396 218.83026
 221.57646 223.24103 224.35216 224.99841 225.65218 226.42140 226.41669 225.92761
 226.03461 228.20364 232.13992 236.79610 241.44279 245.84312 250.02109 253.91917
 257.31433 260.37216 263.04123 265.63379 267.98944 269.91202 271.62909 273.30191
 274.85828 276.21402 277.59998 278.99997 280.37082 281.65448 282.82562 283.88657
 284.84082 285.69055 286.43286 287.37888
 366.78100 356.33953 345.77605 334.64658 323.05411 311.25263 299.12716 286.93468
 274.65121 262.55274 250.56626 239.87179 229.99832 221.10684 213.29337 206.29989
 200.13842 195.08095 191.66747 189.71400 188.75553 188.82405 189.66358 190.97610
 192.70563 194.80516 197.07268 199.43621 201.88574 204.37026 206.46279 208.30931
 209.93984 211.08937 211.32289 211.55542 211.49695 211.20647 210.84400 210.47852
 210.10005 209.81458 209.62710 209.49563 209.42816 209.76368 210.15421 210.54773
 211.34526 212.52779 213.78231 215.56984 217.50237 219.54989 221.64942 223.73694
 225.80147 227.89000 229.99152 232.10205 234.23558 236.41210 238.67263 241.04715
 243.67268 245.92821 247.93473 249.70426 251.12579 252.25331 253.07984 253.40036
 253.44189 253.22042 252.58494 251.53747 250.14800 248.31352 246.22705 244.06458
 241.86010 239.66863 237.49315 235.33668 233.20121 231.07273 229.10326 227.26479
 225.55231 224.02884 222.66336 221.43989 220.32642 219.29094 218.39947 217.54500
 216.79152 215.97605 215.07857 214.44710 213.90163 214.58800 216.33273 218.82521
 221.47311 223.30681 224.54938 225.07912 225.65201 226.36801 226.34352 225.82251
 225.95349 228.20679 232.14174 236.80028 241.45213 245.85201 250.01971 253.92488
 257.10349 260.33612 263.13632 265.70496 268.04053 269.94360 271.62241 273.21408
 274.71704 276.00104 277.48477 278.92365 280.34482 281.60217 282.74933 283.78857
 284.72327 285.55560 286.28275 287.20935
 366.78100 356.34042 345.77783 334.64925 323.05766 311.25708 299.13249 286.94091
 274.65832 262.56074 250.57515 239.88157 230.00898 221.11840 213.30582 206.31323
 200.15265 195.09606 191.68348 189.73089 188.77331 188.84272 189.68314 190.99655
 192.72697 194.82738 197.09580 199.46022 201.91063 204.39605 206.48946 208.33688
 209.96829 211.11871 211.35312 211.58654 211.52895 211.23937 210.87779 210.51320
 210.13562 209.85103 209.66445 209.53386 209.46728 209.80369 210.19511 210.58952
 211.38794 212.57135 213.82677 215.61519 217.54860 219.59702 221.69743 223.78585
 225.85126 227.94068 230.04309 232.15451 234.28892 236.46634 238.72775 241.10317
 243.72959 245.98600 247.99342 249.76383 251.18625 252.31466 253.14208 253.46349
 253.50591 253.28532 252.65074 251.60415 250.21557 248.38199 246.29640 244.13482
 241.93123 239.74065 237.56606 235.41048 233.27589 231.14831 229.17972 227.34214
 225.63055 224.10797 222.74339 221.52080 220.40822 219.37363 218.48305 217.62946
 216.87688 216.06229 215.16571 214.53512 213.99054 214.66101 216.40819 218.82669
 221.41431 223.48698 224.73686 225.12895 225.67418 226.20569 226.32776 225.52014
 225.82562 228.22528 232.20428 236.86371 241.52724 245.96227 250.15466 253.95757
 257.37024 260.32837 263.12827 265.70264 268.03281 269.95688 271.62003 273.18295
 274.57660 276.23911 278.06912 279.75897 281.22141 282.51526 283.69571 284.76514
 285.72693 286.58344 287.33167 288.28519
 366.78100 356.34192 345.78085 334.65377 323.06369 311.26462 299.14154 286.95146
 274.67039 262.57431 250.59023 239.89816 230.02708 221.13800 213.32693 206.33585
 200.17677 195.12170 191.71062 189.75955 188.80347 188.87439 189.71632 191.03124
 192.76316 194.86509 197.13501 199.50093 201.95286 204.43978 206.53470 208.38363
 210.01655 211.16847 211.40440 211.63932 211.58324 211.29517 210.93509 210.57201
 210.19594 209.91286 209.72778 209.59871 209.53363 209.87155 210.26448 210.66040
 211.46032 212.64525 213.90217 215.69209 217.62702 219.67694 221.77886 223.86879
 225.93571 228.02664 230.13056 232.24348 234.37941 236.55833 238.82125 241.19818
 243.82610 246.08402 248.09295 249.86487 251.28879 252.41872 253.24764 253.57056
 253.61449 253.39541 252.76233 251.71726 250.33018 248.49810 246.41403 244.25395
 242.05187 239.86280 237.68972 235.53564 233.40257 231.27649 229.30941 227.47334
 225.76326 224.24218 222.87911 221.65803 220.54695 219.51388 218.62480 217.77273
 217.02165 216.20857 215.31350 214.68442 214.14134 214.75845 216.42360 218.85425
 221.39738 223.47928 224.79208 225.18636 225.75482 226.32208 226.39735 225.00194
 225.32611 227.99185 232.20442 236.89403 241.58493 246.07915 250.32246 254.23224
 257.72220 260.59595 263.32623 265.85019 268.14630 269.99823 271.59467 273.12448
 275.07373 277.21442 279.31573 281.16083 282.75760 284.17035 285.45926 286.62692
 287.67709 288.61230 289.42926 290.47040
 366.78100 356.34192 345.78085 334.65377 323.06369 311.26461 299.14154 286.95146
 274.67038 262.57431 250.59023 239.89815 230.02708 221.13800 213.32692 206.33584
 200.17677 195.12169 191.71061 189.75954 188.80346 188.87438 189.71631 191.03123
 192.76315 194.86507 197.13500 199.50092 201.95284 204.43977 206.53469 208.38361
 210.01653 211.16846 211.40438 211.63930 211.58323 211.29515 210.93507 210.57200
 210.19592 209.91284 209.72776 209.59869 209.53361 209.87153 210.26446 210.66038
 211.46030 212.64523 213.90215 215.69207 217.62699 219.67692 221.77884 223.86876
 225.93569 228.02661 230.13053 232.24345 234.37938 236.55830 238.82122 241.19815
 243.82607 246.08399 248.09292 249.86484 251.28876 252.41868 253.24761 253.57053
 253.61445 253.39538 252.76230 251.71722 250.33015 248.49807 246.41399 244.25391
 242.05184 239.86276 237.68968 235.53561 233.40253 231.27645 229.30937 227.47330
 225.76322 224.24214 222.87907 221.65799 220.54691 219.51384 218.62476 217.77268
 217.02160 216.20853 215.31345 214.68437 214.14130 214.78098 216.48169 218.83754
 221.38957 223.43834 224.78175 225.17633 225.77328 226.57236 226.52798 224.82802
 225.05788 227.83817 232.12711 236.83040 241.53407 246.05727 250.34621 254.34537
 257.85040 260.85086 263.57843 266.08521 268.33560 270.16986 271.75592 273.50204
 275.68546 278.14679 280.42584 282.42703 284.15887 285.69113 287.08908 288.35553
 289.49454 290.50885 291.39493 292.52414
 366.78100 356.34057 345.77813 334.64970 323.05827 311.25784 299.13340 286.94197
 274.65954 262.56211 250.57667 239.88324 230.01081 221.12038 213.30794 206.31551
 200.15508 195.09865 191.68621 189.73378 188.77635 188.84591 189.68648 191.00005
 192.73062 194.83118 197.09975 199.46432 201.91489 204.40045 206.49402 208.34159
 209.97316 211.12372 211.35829 211.59186 211.53443 211.24499 210.88356 210.51913
 210.14169 209.85726 209.67083 209.54040 209.47396 209.81053 210.20210 210.59667
 211.39523 212.57880 213.83437 215.62294 217.55650 219.60507 221.70564 223.79421
 225.85977 227.94934 230.05191 232.16348 234.29804 236.47561 238.73718 241.11274
 243.73931 245.99588 248.00345 249.77401 251.19658 252.32515 253.15272 253.47428
 253.51685 253.29642 252.66199 251.61555 250.22712 248.39369 246.30826 244.14682
 241.94339 239.75296 237.57852 235.42309 233.28866 231.16123 229.19279 227.35536
 225.64393 224.12150 222.75706 221.53463 220.42220 219.38777 218.49733 217.64390
 216.89147 216.07704 215.18060 214.55017 214.00574 214.73267 216.58224 218.79247
 221.29631 223.46384 224.79977 225.11169 225.65257 226.71446 226.57339 224.88051
 224.93011 227.63959 232.03128 236.75800 241.46440 245.99327 250.30981 254.31389
 257.85941 260.94397 263.77112 266.36496 268.68292 270.58481 272.14658 273.93591
 276.09485 278.25537 280.33365 282.15854 283.73782 285.13507 286.40985 287.56473
 288.60339 289.52832 290.33633 291.36606
 366.78100 356.34060 345.77819 334.64979 323.05838 311.25798 299.13358 286.94217
 274.65977 262.56236 250.57696 239.88356 230.01115 221.12075 213.30834 206.31594
 200.15554 195.09913 191.68673 189.73433 188.77692 188.84652 189.68711 191.00071
 192.73131 194.83190 197.10050 199.46509 201.91569 204.40129 206.49488 208.34248
 209.97407 211.12467 211.35927 211.59286 211.53546 211.24605 210.88465 210.52025
 210.14284 209.85844 209.67203 209.54163 209.47523 209.81182 210.20342 210.59801
 211.39661 212.58021 213.83580 215.62440 217.55800 219.60659 221.70719 223.79578
 225.86138 227.95098 230.05357 232.16517 234.29976 236.47736 238.73896 241.11455
 243.74115 245.99774 248.00534 249.77594 251.19853 252.32713 253.15472 253.47632
 253.51892 253.29851 252.66411 251.61770 250.22930 248.39590 246.31049 244.14909
 241.94568 239.75528 237.58088 235.42547 233.29107 231.16367 229.19526 227.35786
 225.64645 224.12405 222.75965 221.53724 220.42484 219.39043 218.50003 217.64663
 216.89422 216.07982 215.18341 214.55301 214.00861 214.74271 216.61018 218.82663
 221.15906 223.39746 224.77621 225.12560 225.59061 226.68333 226.64191 225.19974
 225.10693 227.57129 231.88765 236.61052 241.32648 245.90253 250.25563 254.24706
 257.80939 261.00195 263.91666 266.57324 268.92981 270.93896 272.66870 274.36746
 276.39645 278.27798 280.15219 281.83243 283.28656 284.57306 285.74680 286.81015
 287.76651 288.61813 289.36209 290.31021
 366.78100 356.34170 345.78041 334.65311 323.06282 311.26352 299.14023 286.94993
 274.66864 262.57234 250.58805 239.89575 230.02446 221.13516 213.32387 206.33257
 200.17328 195.11798 191.70669 189.75539 188.79910 188.86980 189.71150 191.02621
 192.75791 194.85962 197.12932 199.49503 201.94673 204.43344 206.52814 208.37685
 210.00955 211.16126 211.39696 211.63167 211.57537 211.28708 210.92678 210.56349
 210.18719 209.90390 209.71860 209.58930 209.52401 209.86171 210.25442 210.65012
 211.44983 212.63453 213.89124 215.68094 217.61565 219.66535 221.76706 223.85676
 225.92347 228.01417 230.11788 232.23058 234.36629 236.54499 238.80770 241.18440
 243.81210 246.06981 248.07851 249.85022 251.27392 252.40363 253.23233 253.55504
 253.59874 253.37945 252.74615 251.70086 250.31356 248.48127 246.39697 244.23668
 242.03438 239.84509 237.67179 235.51750 233.38420 231.25790 229.29061 227.45431
 225.74402 224.22272 222.85943 221.63813 220.52684 219.49354 218.60425 217.75195
 217.00066 216.18736 215.29207 214.66277 214.11948 214.81094 216.58484 218.85368
 221.13132 223.27158 224.70906 225.13091 225.54045 226.56039 226.70569 225.52293
 225.41045 227.61621 231.80692 236.48659 241.18439 245.75079 250.07170 254.03069
 257.59891 260.82993 263.77075 266.43738 268.82526 270.96429 272.92380 274.82059
 276.79166 278.59586 280.27377 281.83673 283.18933 284.38605 285.47784 286.46695
 287.35654 288.14874 288.84079 289.72269
 366.78100 356.34021 345.77742 334.64862 323.05683 311.25604 299.13125 286.93945
 274.65666 262.55887 250.57308 239.87928 230.00649 221.11570 213.30291 206.31012
 200.14932 195.09253 191.67974 189.72695 188.76915 188.83836 189.67857 190.99178
 192.72199 194.82219 197.09040 199.45461 201.90482 204.39002 206.48323 208.33044
 209.96165 211.11185 211.34606 211.57927 211.52148 211.23169 210.86989 210.50510
 210.12731 209.84252 209.65572 209.52493 209.45814 209.79435 210.18556 210.57976
 211.37797 212.56118 213.81639 215.60459 217.53780 219.58601 221.68622 223.77442
 225.83963 227.92884 230.03105 232.14226 234.27646 236.45367 238.71488 241.09009
 243.71629 245.97250 247.97971 249.74992 251.17213 252.30033 253.12754 253.44875
 253.49096 253.27016 252.63537 251.58858 250.19979 248.36599 246.28020 244.11841
 241.91462 239.72383 237.54903 235.39324 233.25845 231.13066 229.16186 227.32407
 225.61228 224.08949 222.72470 221.50190 220.38911 219.35432 218.46353 217.60973
 216.85694 216.04215 215.14536 214.51456 213.96977 214.74806 216.66393 218.81177
 220.90758 223.27963 224.83670 225.08733 225.29274 226.18839 226.72992 225.59679
 225.83226 227.80676 231.84462 236.50606 241.16319 245.70618 250.01294 253.97261
 257.52020 260.72665 263.64545 266.27383 268.60535 270.70810 272.72025 274.62057
 276.36349 277.94626 279.41891 280.81250 282.09857 283.24329 284.28769 285.23383
 286.08478 286.84256 287.50455 288.34818
 366.78100 356.33979 345.77657 334.64736 323.05515 311.25393 299.12872 286.93650
 274.65329 262.55508 250.56886 239.87465 230.00144 221.11022 213.29701 206.30380
 200.14258 195.08537 191.67216 189.71894 188.76073 188.82951 189.66930 190.98209
 192.71187 194.81166 197.07945 199.44323 201.89302 204.37781 206.47059 208.31738
 209.94817 211.09795 211.33174 211.56452 211.50631 211.21610 210.85388 210.48867
 210.11046 209.82524 209.63803 209.50682 209.43960 209.77539 210.16618 210.55996
 211.35775 212.54053 213.79532 215.58311 217.51589 219.56368 221.66347 223.75125
 225.81604 227.90483 230.00661 232.11740 234.25119 236.42797 238.68876 241.06354
 243.68933 245.94512 247.95190 249.72169 251.14348 252.27126 253.09805 253.41884
 253.46062 253.23941 252.60420 251.55698 250.16777 248.33355 246.24734 244.08513
 241.88091 239.68970 237.51449 235.35827 233.22306 231.09485 229.12563 227.28742
 225.57521 224.05199 222.68678 221.46356 220.35035 219.31514 218.42392 217.56971
 216.81650 216.00128 215.10407 214.47286 213.92764 214.72009 216.62982 218.97256
 220.63383 222.87830 225.00467 225.27383 225.33598 225.96333 226.68468 225.16286
 225.79688 227.76132 231.85507 236.54019 241.18071 245.71121 250.01147 253.95322
 257.48941 260.68124 263.60400 266.26248 268.62592 270.72632 272.68701 274.53522
 276.16245 277.56293 278.78525 279.87918 280.94876 281.99518 283.00650 283.99066
 284.87582 285.66403 286.35260 287.23013
 366.78100 356.33977 345.77655 334.64732 323.05509 311.25386 299.12864 286.93641
 274.65318 262.55495 250.56873 239.87450 230.00127 221.11005 213.29682 206.30359
 200.14236 195.08514 191.67191 189.71868 188.76045 188.82923 189.66900 190.98177
 192.71154 194.81132 197.07909 199.44286 201.89264 204.37741 206.47018 208.31695
 209.94773 211.09750 211.33127 211.56404 211.50582 211.21559 210.85336 210.48814
 210.10991 209.82468 209.63745 209.50623 209.43900 209.77477 210.16554 210.55932
 211.35709 212.53986 213.79463 215.58241 217.51518 219.56295 221.66273 223.75050
 225.81527 227.90404 230.00582 232.11659 234.25036 236.42713 238.68791 241.06268
 243.68845 245.94423 247.95100 249.72077 251.14254 252.27032 253.09709 253.41786
 253.45963 253.23841 252.60318 251.55595 250.16672 248.33250 246.24627 244.08404
 241.87982 239.68859 237.51336 235.35713 233.22191 231.09368 229.12445 227.28622
 225.57400 224.05077 222.68554 221.46232 220.34909 219.31386 218.42263 217.56841
 216.81518 215.99995 215.10272 214.47150 213.92627 214.72318 216.60773 218.96846
 220.87196 222.84856 224.75047 225.29195 225.59354 226.12231 226.50311 225.21605
 225.64473 227.90387 231.88562 236.53157 241.18410 245.73618 250.06914 254.02354
 257.52264 260.63940 263.52731 266.19232 268.58029 270.68948 272.66605 274.53802
 276.19980 277.61285 278.81427 279.82651 280.75430 281.54974 282.36035 283.23575
 284.07977 284.88208 285.58298 286.47617
 366.78100 356.33967 345.77634 334.64701 323.05468 311.25335 299.12802 286.93569
 274.65236 262.55403 250.56770 239.87337 230.00003 221.10870 213.29537 206.30204
 200.14071 195.08338 191.67005 189.71672 188.75839 188.82706 189.66673 190.97940
 192.70907 194.80874 197.07641 199.44008 201.88975 204.37442 206.46709 208.31376
 209.94443 211.09410 211.32776 211.56043 211.50210 211.21177 210.84944 210.48411
 210.10578 209.82045 209.63312 209.50179 209.43446 209.77013 210.16080 210.55447
 211.35214 212.53481 213.78948 215.57715 217.50982 219.55749 221.65716 223.74483
 225.80949 227.89816 229.99983 232.11050 234.24417 236.42084 238.68151 241.05618
 243.68185 245.93752 247.94419 249.71386 251.13553 252.26320 253.08987 253.41054
 253.45221 253.23088 252.59555 251.54822 250.15889 248.32456 246.23822 244.07589
 241.87156 239.68023 237.50490 235.34857 233.21324 231.08491 229.11558 227.27725
 225.56492 224.04159 222.67626 221.45293 220.33960 219.30427 218.41294 217.55861
 216.80528 215.98995 215.09262 214.46129 213.91595 214.72818 216.64716 218.88997
 221.03366 222.89392 224.52319 225.20749 225.63301 226.17625 226.45833 225.37836
 225.59731 227.94310 231.89595 236.52121 241.18481 245.75554 250.10153 254.05659
 257.51981 260.58887 263.46237 266.15552 268.58405 270.68344 272.64792 274.52719
 276.20895 277.64142 278.85513 279.88614 280.85812 281.69385 282.24380 282.97827
 283.76773 284.50677 285.19446 286.07077
 366.78100 356.34018 345.77736 334.64854 323.05672 311.25590 299.13108 286.93926
 274.65644 262.55862 250.57280 239.87898 230.00616 221.11535 213.30253 206.30971
 200.14889 195.09207 191.67925 189.72643 188.76861 188.83779 189.67797 190.99115
 192.72133 194.82151 197.08969 199.45387 201.90405 204.38923 206.48241 208.32959
 209.96077 211.11095 211.34513 211.57831 211.52049 211.23068 210.86886 210.50404
 210.12622 209.84140 209.65458 209.52376 209.45694 209.79312 210.18430 210.57848
 211.37666 212.55984 213.81502 215.60320 217.53638 219.58456 221.68474 223.77292
 225.83810 227.92728 230.02946 232.14064 234.27482 236.45201 238.71319 241.08837
 243.71455 245.97073 247.97791 249.74809 251.17027 252.29845 253.12563 253.44681
 253.48899 253.26817 252.63335 251.58653 250.19771 248.36389 246.27807 244.11625
 241.91243 239.72161 237.54679 235.39097 233.25615 231.12833 229.15952 227.32170
 225.60988 224.08706 222.72224 221.49942 220.38660 219.35178 218.46096 217.60714
 216.85432 216.03950 215.14268 214.51186 213.96704 214.76407 216.64711 218.88881
 221.07030 222.93242 224.45535 225.18242 225.55852 226.01605 226.35614 225.49684
 225.66032 228.05853 231.93597 236.52380 241.19235 245.77014 250.11104 254.04459
 257.48047 260.54791 263.43478 266.14819 268.58838 270.69531 272.65436 274.51691
 276.18954 277.62729 278.86710 279.91919 280.86865 281.87744 282.60626 283.11771
 283.78397 284.48993 285.14438 286.02478
 366.78100 356.34063 345.77825 334.64988 323.05850 311.25813 299.13375 286.94238
 274.66000 262.56263 250.57725 239.88388 230.01150 221.12113 213.30875 206.31638
 200.15600 195.09963 191.68725 189.73488 188.77750 188.84713 189.68775 191.00138
 192.73200 194.83263 197.10126 199.46588 201.91651 204.40213 206.49576 208.34338
 209.97501 211.12563 211.36026 211.59388 211.53651 211.24713 210.88576 210.52138
 210.14401 209.85963 209.67326 209.54288 209.47651 209.81313 210.20476 210.59938
 211.39801 212.58163 213.83726 215.62589 217.55951 219.60814 221.70876 223.79739
 225.86301 227.95264 230.05526 232.16689 234.30151 236.47914 238.74076 241.11639
 243.74301 245.99964 248.00726 249.77789 251.20051 252.32914 253.15676 253.47839
 253.52101 253.30064 252.66627 251.61989 250.23152 248.39814 246.31277 244.15139
 241.94802 239.75764 237.58327 235.42789 233.29352 231.16614 229.19777 227.36039
 225.64902 224.12664 222.76227 221.53989 220.42752 219.39314 218.50277 217.64939
 216.89702 216.08264 215.18627 214.55590 214.01152 214.79605 216.64961 218.90620
 221.03340 222.96048 224.50496 225.16197 225.41081 225.73735 226.16843 225.77017
 225.95511 228.12010 231.94958 236.53410 241.20264 245.78316 250.11667 254.03561
 257.46014 260.53629 263.43445 266.15518 268.59161 270.70261 272.65448 274.49500
 276.14554 277.57382 278.80637 279.87427 281.00629 282.07825 282.93137 283.31583
 283.88599 284.56998 285.19839 286.05231
 366.78100 356.34093 345.77886 334.65079 323.05972 311.25965 299.13558 286.94451
 274.66244 262.56537 250.58030 239.88723 230.01516 221.12509 213.31302 206.32095
 200.16088 195.10481 191.69274 189.74067 188.78360 188.85353 189.69445 191.00838
 192.73931 194.84024 197.10917 199.47410 201.92503 204.41096 206.50489 208.35282
 209.98475 211.13568 211.37061 211.60454 211.54747 211.25840 210.89733 210.53326
 210.15619 209.87212 209.68605 209.55598 209.48991 209.82684 210.21877 210.61370
 211.41263 212.59656 213.85249 215.64142 217.57535 219.62428 221.72521 223.81414
 225.88007 227.97000 230.07293 232.18486 234.31979 236.49772 238.75965 241.13558
 243.76251 246.01944 248.02736 249.79829 251.22122 252.35015 253.17808 253.50001
 253.54294 253.32287 252.68880 251.64273 250.25466 248.42159 246.33652 244.17545
 241.97238 239.78231 237.60824 235.45317 233.31910 231.19203 229.22396 227.38689
 225.67582 224.15375 222.78968 221.56761 220.45554 219.42147 218.53140 217.67833
 216.92626 216.11219 215.21612 214.58605 214.04198 214.82111 216.66188 218.92203
 220.98116 222.95718 224.56177 225.13911 225.28171 225.50430 225.96059 225.97145
 226.27184 228.19945 231.96341 236.54291 241.21086 245.79277 250.12144 254.03290
 257.45563 260.54025 263.44336 266.16373 268.59805 270.71564 272.66837 274.49475
 276.13480 277.56754 278.82251 279.93225 280.91516 281.90939 282.89572 283.69791
 284.12454 284.78574 285.41080 286.25787
 366.78100 356.34120 345.77939 334.65159 323.06078 311.26098 299.13717 286.94637
 274.66456 262.56776 250.58295 239.89015 230.01834 221.12854 213.31673 206.32493
 200.16512 195.10932 191.69751 189.74571 188.78891 188.85910 189.70030 191.01449
 192.74569 194.84688 197.11608 199.48127 201.93247 204.41866 206.51286 208.36105
 209.99325 211.14444 211.37964 211.61383 211.55703 211.26823 210.90742 210.54362
 210.16681 209.88301 209.69720 209.56740 209.50159 209.83879 210.23098 210.62618
 211.42537 212.60957 213.86576 215.65496 217.58915 219.63835 221.73954 223.82874
 225.89494 227.98513 230.08833 232.20052 234.33572 236.51391 238.77611 241.15230
 243.77950 246.03669 248.04489 249.81608 251.23928 252.36847 253.19667 253.51886
 253.56206 253.34225 252.70845 251.66265 250.27484 248.44204 246.35723 244.19643
 241.99362 239.80382 237.63001 235.47521 233.34140 231.21460 229.24679 227.40999
 225.69918 224.17738 222.81357 221.59177 220.47997 219.44616 218.55636 217.70355
 216.95175 216.13794 215.24214 214.61233 214.06853 214.84479 216.67876 218.91965
 220.96768 222.94188 224.55228 225.08578 225.18338 225.35606 225.79071 226.09073
 226.50699 228.27638 231.97974 236.55196 241.22240 245.80667 250.13309 254.04498
 257.47165 260.55927 263.45743 266.16858 268.59616 270.72089 272.67163 274.48306
 276.11404 277.55505 278.83890 279.99905 280.99707 282.02274 283.03644 283.94666
 284.28607 284.93390 285.54807 286.37598
 366.78100 356.34141 345.77982 334.65223 323.06163 311.26204 299.13845 286.94786
 274.66627 262.56968 250.58509 239.89250 230.02090 221.13131 213.31972 206.32813
 200.16854 195.11295 191.70136 189.74977 188.79317 188.86358 189.70499 191.01940
 192.75081 194.85222 197.12163 199.48704 201.93844 204.42485 206.51926 208.36767
 210.00008 211.15149 211.38690 211.62131 211.56471 211.27612 210.91553 210.55194
 210.17535 209.89176 209.70617 209.57658 209.51098 209.84839 210.24080 210.63621
 211.43562 212.62003 213.87644 215.66585 217.60025 219.64966 221.75107 223.84048
 225.90689 227.99730 230.10071 232.21312 234.34852 236.52693 238.78934 241.16575
 243.79316 246.05057 248.05898 249.83039 251.25379 252.38320 253.21161 253.53402
 253.57743 253.35784 252.72425 251.67866 250.29106 248.45847 246.37388 244.21329
 242.01070 239.82111 237.64752 235.49293 233.35933 231.23274 229.26515 227.42856
 225.71797 224.19638 222.83279 221.61120 220.49960 219.46601 218.57642 217.72383
 216.97224 216.15865 215.26306 214.63347 214.08987 214.86696 216.70293 218.89726
 220.98035 222.93394 224.50513 225.00722 225.07835 225.23260 225.65707 226.16658
 226.66977 228.33801 232.00185 236.57146 241.24905 245.83716 250.16289 254.07779
 257.50842 260.59479 263.48099 266.17786 268.59503 270.72394 272.66815 274.45877
 276.07703 277.52191 278.82947 280.02679 281.10303 282.14529 283.13223 284.03055
 284.81412 285.50351 286.10391 286.88675
 366.78100 356.34149 345.77999 334.65248 323.06197 311.26246 299.13896 286.94845
 274.66694 262.57044 250.58593 239.89342 230.02192 221.13241 213.32090 206.32939
 200.16989 195.11438 191.70287 189.75137 188.79486 188.86535 189.70685 191.02134
 192.75283 194.85432 197.12382 199.48931 201.94080 204.42730 206.52179 208.37028
 210.00278 211.15427 211.38976 211.62425 211.56775 211.27924 210.91873 210.55523
 210.17872 209.89521 209.70970 209.58020 209.51469 209.85218 210.24468 210.64017
 211.43966 212.62416 213.88065 215.67014 217.60463 219.65413 221.75562 223.84511
 225.91161 228.00210 230.10559 232.21809 234.35358 236.53207 238.79456 241.17106
 243.79855 246.05604 248.06454 249.83603 251.25952 252.38902 253.21751 253.54000
 253.58349 253.36399 252.73048 251.68497 250.29747 248.46496 246.38045 244.21994
 242.01744 239.82793 237.65442 235.49992 233.36641 231.23990 229.27240 227.43589
 225.72538 224.20387 222.84037 221.61886 220.50735 219.47385 218.58434 217.73183
 216.98033 216.16682 215.27131 214.64180 214.09830 214.88213 216.73399 218.87279
 220.97557 222.94194 224.47696 224.92317 224.93321 225.07556 225.54140 226.20863
 226.77707 228.40186 232.04227 236.61009 241.29625 245.88771 250.21002 254.12381
 257.55499 260.63589 263.50818 266.18686 268.59579 270.73306 272.67258 274.45090
 276.06610 277.52808 278.86432 280.10031 281.18207 282.21695 283.17462 284.05255
 284.87112 285.62857 286.24918 287.04160
 366.78100 356.34147 345.77993 334.65240 323.06186 311.26233 299.13880 286.94826
 274.66673 262.57019 250.58566 239.89313 230.02159 221.13206 213.32052 206.32899
 200.16946 195.11392 191.70239 189.75085 188.79432 188.86479 189.70625 191.02072
 192.75218 194.85365 197.12312 199.48858 201.94005 204.42651 206.52098 208.36944
 210.00191 211.15338 211.38884 211.62331 211.56677 211.27824 210.91771 210.55417
 210.17764 209.89410 209.70857 209.57904 209.51350 209.85097 210.24343 210.63890
 211.43837 212.62283 213.87930 215.66876 217.60323 219.65270 221.75416 223.84363
 225.91009 228.00056 230.10403 232.21649 234.35196 236.53042 238.79289 241.16936
 243.79682 246.05429 248.06275 249.83422 251.25769 252.38715 253.21562 253.53808
 253.58155 253.36202 252.72848 251.68295 250.29541 248.46288 246.37835 244.21781
 242.01528 239.82574 237.65221 235.49767 233.36414 231.23761 229.27007 227.43354
 225.72300 224.20147 222.83794 221.61640 220.50487 219.47133 218.58180 217.72927
 216.97773 216.16420 215.26866 214.63913 214.09560 214.89098 216.77016 218.86024
 220.93913 222.95651 224.47665 224.84741 224.76227 224.88208 225.43373 226.20287
 226.83138 228.48663 232.10922 236.66670 241.35808 245.95045 250.26611 254.17526
 257.60519 260.67966 263.53745 266.19785 268.59793 270.74164 272.67609 274.43887
 276.04892 277.52588 278.89224 280.13934 281.30225 282.34897 283.30634 284.18158
 284.98410 285.71765 286.35782 287.15152
 366.78100 356.34145 345.77990 334.65236 323.06181 311.26226 299.13871 286.94816
 274.66662 262.57007 250.58552 239.89297 230.02142 221.13188 213.32033 206.32878
 200.16923 195.11369 191.70214 189.75059 188.79404 188.86449 189.70595 191.02040
 192.75185 194.85330 197.12275 199.48821 201.93966 204.42611 206.52056 208.36901
 210.00147 211.15292 211.38837 211.62282 211.56627 211.27773 210.91718 210.55363
 210.17708 209.89354 209.70799 209.57844 209.51289 209.85034 210.24280 210.63825
 211.43770 212.62215 213.87860 215.66806 217.60251 219.65196 221.75341 223.84286
 225.90932 227.99977 230.10322 232.21567 234.35112 236.52958 238.79203 241.16848
 243.79593 246.05339 248.06184 249.83329 251.25674 252.38619 253.21465 253.53710
 253.58055 253.36100 252.72745 251.68191 250.29436 248.46181 246.37726 244.21671
 242.01417 239.82462 237.65107 235.49652 233.36297 231.23643 229.26888 227.43233
 225.72178 224.20023 222.83669 221.61514 220.50359 219.47004 218.58050 217.72795
 216.97640 216.16285 215.26730 214.63776 214.09421 214.90044 216.80524 218.85861
 220.89151 222.95702 224.47580 224.78293 224.59985 224.68011 225.32800 226.15131
 226.84326 228.58893 232.19707 236.73256 241.42522 246.01927 250.32922 254.23241
 257.66135 260.72943 263.57272 266.21408 268.60492 270.75534 272.68207 274.42966
 276.03558 277.52625 278.91647 280.21634 281.39420 282.44519 283.40619 284.28201
 285.07550 285.79501 286.42432 287.23309
 366.78100 356.34154 345.78007 334.65261 323.06215 311.26268 299.13922 286.94876
 274.66729 262.57083 250.58637 239.89390 230.02244 221.13298 213.32151 206.33005
 200.17059 195.11512 191.70366 189.75220 188.79574 188.86627 189.70781 191.02235
 192.75388 194.85542 197.12496 199.49049 201.94203 204.42857 206.52310 208.37164
 210.00418 211.15571 211.39125 211.62579 211.56932 211.28086 210.92040 210.55693
 210.18047 209.89701 209.71154 209.58208 209.51662 209.85415 210.24669 210.64223
 211.44176 212.62630 213.88284 215.67237 217.60691 219.65645 221.75799 223.84752
 225.91406 228.00460 230.10813 232.22067 234.35621 236.53474 238.79728 241.17382
 243.80135 246.05889 248.06743 249.83896 251.26250 252.39204 253.22057 253.54311
 253.58665 253.36718 252.73372 251.68826 250.30079 248.46833 246.38387 244.22340
 242.02094 239.83148 237.65801 235.50355 233.37009 231.24362 229.27616 227.43970
 225.72924 224.20777 222.84431 221.62285 220.51138 219.47792 218.58846 217.73599
 216.98453 216.17107 215.27560 214.64614 214.10268 214.91524 216.83499 218.86041
 220.85168 222.93405 224.45259 224.72583 224.46509 224.48845 225.21458 226.07812
 226.83640 228.69170 232.29158 236.80272 241.49597 246.09380 250.40012 254.29591
 257.72281 260.78326 263.61301 266.23370 268.61530 270.76678 272.68680 274.42267
 276.02982 277.53497 278.94235 280.28870 281.47430 282.52423 283.48660 284.36212
 285.15689 285.87537 286.50632 287.30743
 366.78100 356.34174 345.78048 334.65322 323.06296 311.26369 299.14043 286.95017
 274.66891 262.57265 250.58839 239.89613 230.02487 221.13560 213.32434 206.33308
 200.17382 195.11856 191.70730 189.75604 188.79978 188.87051 189.71225 191.02699
 192.75873 194.86047 197.13021 199.49595 201.94769 204.43442 206.52916 208.37790
 210.01064 211.16238 211.39812 211.63286 211.57660 211.28834 210.92807 210.56481
 210.18855 209.90529 209.72003 209.59077 209.52551 209.86325 210.25598 210.65172
 211.45146 212.63620 213.89294 215.68268 217.61742 219.66716 221.76889 223.85863
 225.92537 228.01611 230.11985 232.23259 234.36833 236.54707 238.80980 241.18654
 243.81428 246.07202 248.08076 249.85250 251.27624 252.40598 253.23472 253.55745
 253.60119 253.38193 252.74867 251.70341 250.31615 248.48389 246.39963 244.23936
 242.03710 239.84784 237.67458 235.52032 233.38706 231.26080 229.29354 227.45727
 225.74701 224.22575 222.86249 221.64123 220.52997 219.49671 218.60745 217.75519
 217.00392 216.19066 215.29540 214.66614 214.12288 214.93663 216.85922 218.86311
 220.82237 222.89621 224.40964 224.66139 224.34692 224.31427 225.08757 226.00082
 226.83051 228.78520 232.38600 236.87944 241.57492 246.17578 250.47774 254.36385
 257.78629 260.83823 263.65607 266.25858 268.63013 270.77634 272.68567 274.41220
 276.02432 277.54556 278.98840 280.34238 281.52890 282.58188 283.54431 284.42087
 285.21680 285.93585 286.56729 287.36212
 366.78100 356.34206 345.78112 334.65418 323.06424 311.26530 299.14236 286.95242
 274.67148 262.57553 250.59159 239.89965 230.02871 221.13977 213.32883 206.33789
 200.17895 195.12401 191.71307 189.76213 188.80619 188.87725 189.71931 191.03437
 192.76643 194.86848 197.13854 199.50460 201.95666 204.44372 206.53878 208.38784
 210.02090 211.17296 211.40902 211.64408 211.58814 211.30020 210.94026 210.57732
 210.20138 209.91843 209.73349 209.60455 209.53961 209.87767 210.27073 210.66679
 211.46685 212.65191 213.90897 215.69903 217.63409 219.68415 221.78621 223.87627
 225.94333 228.03438 230.13844 232.25150 234.38756 236.56662 238.82968 241.20674
 243.83480 246.09286 248.10192 249.87398 251.29804 252.42810 253.25716 253.58022
 253.62428 253.40533 252.77239 251.72745 250.34051 248.50857 246.42463 244.26469
 242.06275 239.87381 237.70087 235.54693 233.41399 231.28805 229.32111 227.48517
 225.77523 224.25428 222.89134 221.67040 220.55946 219.52652 218.63758 217.78564
 217.03470 216.22176 215.32682 214.69788 214.15494 214.96379 216.87477 218.86948
 220.80067 222.85204 224.35573 224.58890 224.23221 224.14999 224.95140 225.92702
 226.82777 228.86636 232.48148 236.96768 241.66557 246.26518 250.55942 254.43358
 257.84793 260.89200 263.69943 266.28812 268.65015 270.78888 272.68579 274.40390
 276.02472 277.55804 279.01462 280.37015 281.55585 282.60806 283.57117 284.44754
 285.24503 285.96414 286.59302 287.38980
 366.78100 356.34240 345.78179 334.65519 323.06558 311.26698 299.14438 286.95477
 274.67417 262.57856 250.59496 239.90336 230.03275 221.14415 213.33354 206.34294
 200.18434 195.12973 191.71913 189.76852 188.81292 188.88432 189.72671 191.04211
 192.77450 194.87690 197.14730 199.51369 201.96609 204.45348 206.54888 208.39828
 210.03167 211.18407 211.42046 211.65586 211.60026 211.31265 210.95305 210.59044
 210.21484 209.93224 209.74763 209.61903 209.55442 209.89282 210.28622 210.68261
 211.48301 212.66840 213.92580 215.71620 217.65159 219.70199 221.80438 223.89478
 225.96218 228.05357 230.15797 232.27136 234.40776 236.58716 238.85055 241.22795
 243.85634 246.11474 248.12414 249.89653 251.32093 252.45132 253.28072 253.60412
 253.64851 253.42991 252.79730 251.75270 250.36609 248.53449 246.45089 244.29128
 242.08968 239.90107 237.72847 235.57487 233.44226 231.31666 229.35005 227.51445
 225.80485 224.28424 222.92164 221.70103 220.59043 219.55783 218.66922 217.81762
 217.06701 216.25441 215.35981 214.73120 214.18860 214.99120 216.88742 218.87320
 220.78400 222.81224 224.29086 224.50183 224.12122 224.00381 224.80205 225.85193
 226.83070 228.93512 232.57774 237.06857 241.76588 246.35913 250.64180 254.50163
 257.90527 260.94281 263.74393 266.32297 268.67462 270.80267 272.68835 274.40491
 276.03510 277.57214 279.01691 280.36725 281.55179 282.60416 283.56506 284.44138
 285.23755 285.95728 286.58826 287.38727
 366.78100 356.34273 345.78246 334.65619 323.06691 311.26864 299.14637 286.95710
 274.67683 262.58156 250.59829 239.90701 230.03674 221.14847 213.33820 206.34793
 200.18966 195.13539 191.72512 189.77484 188.81957 188.89130 189.73403 191.04976
 192.78249 194.88522 197.15594 199.52267 201.97540 204.46313 206.55886 208.40859
 210.04232 211.19504 211.43177 211.66750 211.61223 211.32496 210.96569 210.60342
 210.22815 209.94587 209.76160 209.63333 209.56906 209.90779 210.30152 210.69825
 211.49897 212.68470 213.94243 215.73316 217.66889 219.71962 221.82235 223.91307
 225.98080 228.07253 230.17726 232.29099 234.42772 236.60745 238.87117 241.24890
 243.87763 246.13636 248.14609 249.91882 251.34355 252.47428 253.30400 253.62773
 253.67246 253.45419 252.82192 251.77765 250.39138 248.56010 246.47683 244.31756
 242.11629 239.92802 237.75575 235.60248 233.47020 231.34493 229.37866 227.54339
 225.83412 224.31385 222.95158 221.73131 220.62103 219.58876 218.70049 217.84922
 217.09895 216.28668 215.39241 214.76413 214.22186 215.01865 216.90111 218.87460
 220.76628 222.77713 224.22621 224.40527 223.99391 223.85707 224.66458 225.77866
 226.82062 228.99001 232.67529 237.17877 241.87366 246.45668 250.72447 254.56844
 257.95929 260.99203 263.79034 266.36154 268.70197 270.81653 272.69272 274.41144
 276.05026 277.58298 279.00412 280.34134 281.52277 282.57385 283.53406 284.40933
 285.20551 285.92615 286.55533 287.35739
 366.78100 356.34323 345.78345 334.65768 323.06890 311.27113 299.14935 286.96058
 274.68080 262.58603 250.60325 239.91248 230.04271 221.15493 213.34516 206.35538
 200.19761 195.14383 191.73406 189.78428 188.82951 188.90173 189.74496 191.06119
 192.79441 194.89764 197.16886 199.53609 201.98931 204.47754 206.57376 208.42399
 210.05821 211.21144 211.44867 211.68489 211.63012 211.34334 210.98457 210.62279
 210.24802 209.96624 209.78247 209.65469 209.59092 209.93015 210.32437 210.72160
 211.52282 212.70905 213.96727 215.75850 217.69472 219.74595 221.84917 223.94040
 226.00863 228.10085 230.20608 232.32030 234.45753 236.63775 238.90198 241.28020
 243.90943 246.16865 248.17888 249.95211 251.37733 252.50856 253.33878 253.66301
 253.70823 253.49046 252.85868 251.81491 250.42913 248.59836 246.51559 244.35681
 242.15604 239.96826 237.79649 235.64371 233.51194 231.38716 229.42139 227.58661
 225.87784 224.35807 222.99629 221.77652 220.66674 219.63497 218.74719 217.89642
 217.14664 216.33487 215.44109 214.81332 214.27155 215.05508 216.90628 218.88383
 220.74834 222.72591 224.16325 224.33174 223.88342 223.69102 224.47942 225.73375
 226.85837 229.03622 232.76952 237.30009 241.99054 246.55841 250.80858 254.63402
 258.00928 261.03769 263.83728 266.40231 268.73065 270.83142 272.70050 274.42316
 276.06805 277.59219 278.98730 280.29782 281.47501 282.52405 283.48404 284.35907
 285.15445 285.87473 286.50357 287.30450
 366.78100 356.34384 345.78469 334.65953 323.07137 311.27421 299.15306 286.96490
 274.68574 262.59159 250.60943 239.91927 230.05012 221.16296 213.35380 206.36464
 200.20749 195.15433 191.74517 189.79602 188.84186 188.91470 189.75855 191.07539
 192.80923 194.91307 197.18492 199.55276 202.00660 204.49545 206.59229 208.44313
 210.07798 211.23182 211.46966 211.70650 211.65235 211.36619 211.00803 210.64688
 210.27272 209.99156 209.80841 209.68125 209.61809 209.95793 210.35278 210.75062
 211.55246 212.73931 213.99815 215.78999 217.72683 219.77868 221.88252 223.97436
 226.04321 228.13605 230.24189 232.35674 234.49458 236.67542 238.94026 241.31911
 243.94895 246.20879 248.21964 249.99348 251.41932 252.55117 253.38201 253.70685
 253.75269 253.53554 252.90438 251.86122 250.47607 248.64591 246.56375 244.40560
 242.20544 240.01828 237.84712 235.69497 233.56381 231.43965 229.47450 227.64034
 225.93218 224.41302 223.05187 221.83271 220.72355 219.69240 218.80524 217.95508
 217.20593 216.39477 215.50161 214.87445 214.33330 215.09760 216.90334 218.89772
 220.73705 222.65944 224.08232 224.27087 223.81081 223.56160 224.29758 225.56563
 226.81679 229.12996 232.89160 237.42882 242.11200 246.66066 250.89113 254.69734
 258.05618 261.08154 263.88626 266.44666 268.76425 270.84875 272.71149 274.43863
 276.08643 277.60007 278.97073 280.24683 281.41599 282.46463 283.42273 284.29669
 285.09119 285.80945 286.43860 287.23807
 366.78100 356.34437 345.78574 334.66111 323.07348 311.27685 299.15622 286.96859
 274.68996 262.59633 250.61470 239.92507 230.05644 221.16981 213.36118 206.37255
 200.21592 195.16329 191.75466 189.80603 188.85240 188.92577 189.77014 191.08751
 192.82188 194.92625 197.19862 199.56699 202.02136 204.51073 206.60811 208.45948
 210.09485 211.24922 211.48759 211.72496 211.67133 211.38570 211.02807 210.66744
 210.29381 210.01318 209.83055 209.70392 209.64129 209.98166 210.37703 210.77540
 211.57777 212.76514 214.02451 215.81688 217.75425 219.80662 221.91099 224.00336
 226.07273 228.16610 230.27247 232.38784 234.52621 236.70758 238.97295 241.35232
 243.98269 246.24306 248.25443 250.02880 251.45517 252.58754 253.41891 253.74428
 253.79065 253.57402 252.94339 251.90076 250.51613 248.68650 246.60487 244.44724
 242.24761 240.06098 237.89035 235.73872 233.60809 231.48446 229.51983 227.68620
 225.97857 224.45994 223.09932 221.88069 220.77206 219.74143 218.85480 218.00517
 217.25654 216.44591 215.55328 214.92665 214.38602 215.13495 216.90439 218.90062
 220.73088 222.59935 223.98395 224.19481 223.74719 223.45833 224.13773 225.38010
 226.74789 229.21446 233.01486 237.56155 242.23479 246.76160 250.97179 254.75972
 258.10184 261.12524 263.93710 266.49326 268.79794 270.86588 272.72150 274.45184
 276.10248 277.60727 278.95325 280.19586 281.35239 282.39700 283.35519 284.22839
 285.02148 285.73724 286.36664 287.17203
 366.78100 356.34480 345.78661 334.66241 323.07522 311.27902 299.15883 286.97163
 274.69344 262.60024 250.61905 239.92985 230.06166 221.17546 213.36726 206.37907
 200.22287 195.17068 191.76248 189.81429 188.86109 188.93490 189.77970 191.09751
 192.83231 194.93711 197.20992 199.57872 202.03353 204.52333 206.62114 208.47294
 210.10875 211.26355 211.50236 211.74016 211.68697 211.40177 211.04457 210.68438
 210.31118 210.03099 209.84879 209.72260 209.66040 210.00121 210.39701 210.79582
 211.59862 212.78642 214.04623 215.83903 217.77684 219.82964 221.93445 224.02725
 226.09706 228.19086 230.29767 232.41347 234.55228 236.73408 238.99988 241.37969
 244.01049 246.27130 248.28310 250.05791 251.48471 252.61752 253.44932 253.77513
 253.82193 253.60573 252.97554 251.93334 250.54915 248.71995 246.63876 244.48156
 242.28237 240.09617 237.92598 235.77478 233.64459 231.52139 229.55719 227.72400
 226.01680 224.49861 223.13841 221.92022 220.81202 219.78183 218.89563 218.04644
 217.29824 216.48804 215.59585 214.96965 214.42946 215.16765 216.91171 218.88979
 220.72554 222.55200 223.87875 224.09668 223.67381 223.36415 223.98099 225.20386
 226.68422 229.29021 233.13869 237.70135 242.36087 246.86256 251.05339 254.82445
 258.14908 261.17035 263.98941 266.54047 268.82959 270.88150 272.73013 274.46439
 276.11966 277.61676 278.94366 280.15216 281.28741 282.32849 283.28616 284.15750
 284.94916 285.66464 286.29260 287.09454
 366.78100 356.34527 345.78753 334.66380 323.07707 311.28133 299.16160 286.97487
 274.69713 262.60440 250.62366 239.93493 230.06720 221.18146 213.37373 206.38600
 200.23026 195.17853 191.77080 189.82306 188.87033 188.94460 189.78986 191.10813
 192.84340 194.94866 197.22193 199.59119 202.04646 204.53673 206.63499 208.48726
 210.12353 211.27879 211.51806 211.75633 211.70359 211.41886 211.06213 210.70239
 210.32966 210.04993 209.86819 209.74246 209.68072 210.02199 210.41826 210.81752
 211.62079 212.80906 214.06932 215.86259 217.80086 219.85412 221.95939 224.05266
 226.12292 228.21719 230.32446 232.44072 234.57999 236.76225 239.02852 241.40879
 244.04005 246.30132 248.31359 250.08885 251.51612 252.64939 253.48165 253.80792
 253.85519 253.63945 253.00972 251.96799 250.58425 248.75552 246.67478 244.51805
 242.31932 240.13358 237.96385 235.81312 233.68338 231.56065 229.59692 227.76418
 226.05745 224.53972 223.17998 221.96225 220.85452 219.82478 218.93905 218.09031
 217.34258 216.53285 215.64111 215.01538 214.47565 215.20236 216.91928 218.87523
 220.72145 222.51102 223.77194 223.98097 223.58502 223.26923 223.82513 225.03539
 226.61771 229.36319 233.27475 237.85237 242.49254 246.96637 251.13794 254.89227
 258.19928 261.21808 264.04166 266.58725 268.86124 270.89548 272.73526 274.47491
 276.13547 277.63144 278.94305 280.12247 281.22897 282.26407 283.21930 284.08951
 284.87924 285.59210 286.22104 287.02103
 366.78100 356.34576 345.78852 334.66528 323.07904 311.28380 299.16456 286.97832
 274.70108 262.60884 250.62860 239.94036 230.07312 221.18788 213.38064 206.39340
 200.23816 195.18692 191.77968 189.83244 188.88020 188.95496 189.80072 191.11948
 192.85524 194.96100 197.23476 199.60452 202.06028 204.55104 206.64980 208.50256
 210.13932 211.29508 211.53484 211.77360 211.72136 211.43712 211.08088 210.72164
 210.34940 210.07016 209.88892 209.76368 209.70244 210.04420 210.44096 210.84072
 211.64448 212.83324 214.09400 215.88776 217.82652 219.88028 221.98604 224.07981
 226.15057 228.24533 230.35309 232.46985 234.60961 236.79237 239.05913 241.43989
 244.07165 246.33341 248.34617 250.12193 251.54969 252.68345 253.51621 253.84297
 253.89073 253.67549 253.04625 252.00501 250.62177 248.79353 246.71329 244.55705
 242.35881 240.17357 238.00433 235.85409 233.72485 231.60261 229.63937 227.80713
 226.10089 224.58365 223.22441 222.00717 220.89993 219.87069 218.98545 218.13721
 217.38997 216.58073 215.68949 215.06425 214.52501 215.23816 216.92307 218.86127
 220.71721 222.47337 223.66904 223.85573 223.48056 223.16490 223.67641 224.87346
 226.53859 229.43234 233.42502 238.01379 242.62900 247.07521 251.22905 254.96620
 258.25488 261.26590 264.09140 266.62885 268.88748 270.90579 272.74142 274.48114
 276.15604 277.64868 278.95142 280.11002 281.18915 282.21381 283.16687 284.03723
 284.82312 285.53540 286.16031 286.96393
 366.78100 356.34627 345.78954 334.66681 323.08108 311.28635 299.16763 286.98190
 274.70517 262.61344 250.63371 239.94598 230.07925 221.19452 213.38779 206.40106
 200.24634 195.19561 191.78888 189.84215 188.89042 188.96569 189.81196 191.13123
 192.86750 194.97377 197.24804 199.61832 202.07459 204.56586 206.66513 208.51840
 210.15567 211.31194 211.55221 211.79148 211.73975 211.45603 211.10030 210.74157
 210.36984 210.09111 209.91038 209.78565 209.72492 210.06719 210.46446 210.86473
 211.66901 212.85828 214.11955 215.91382 217.85309 219.90736 222.01363 224.10790
 226.17917 228.27444 230.38272 232.49999 234.64026 236.82353 239.09080 241.47207
 244.10434 246.36661 248.37988 250.15615 251.58442 252.71870 253.55197 253.87924
 253.92751 253.71278 253.08405 252.04332 250.66059 248.83286 246.75313 244.59741
 242.39968 240.21495 238.04622 235.89649 233.76776 231.64603 229.68330 227.85157
 226.14584 224.62912 223.27039 222.05366 220.94693 219.91820 219.03347 218.18574
 217.43901 216.63028 215.73955 215.11482 214.57610 215.27411 216.92320 218.84410
 220.71005 222.44008 223.57805 223.73021 223.36143 223.04079 223.52786 224.71956
 226.46011 229.50162 233.58299 238.17989 242.76833 247.18719 251.32144 255.03940
 258.31049 261.31613 264.14185 266.66827 268.91089 270.91135 272.73761 274.49100
 276.15808 277.65503 278.95551 280.10800 281.17621 282.19037 283.13803 284.00552
 284.79114 285.49942 286.12128 286.92212
 366.78100 356.34668 345.79036 334.66804 323.08272 311.28840 299.17008 286.98476
 274.70845 262.61713 250.63781 239.95049 230.08417 221.19985 213.39353 206.40721
 200.25289 195.20257 191.79625 189.84993 188.89861 188.97429 189.82097 191.14066
 192.87734 194.98402 197.25870 199.62938 202.08606 204.57774 206.67742 208.53110
 210.16878 211.32546 211.56614 211.80582 211.75450 211.47118 211.11586 210.75755
 210.38623 210.10791 209.92759 209.80327 209.74295 210.08563 210.48331 210.88399
 211.68867 212.87835 214.14003 215.93471 217.87439 219.92907 222.03576 224.13044
 226.20212 228.29780 230.40648 232.52416 234.66484 236.84852 239.11620 241.49788
 244.13056 246.39324 248.40692 250.18360 251.61228 252.74697 253.58065 253.90833
 253.95701 253.74269 253.11437 252.07405 250.69173 248.86441 246.78509 244.62977
 242.43245 240.24813 238.07981 235.93049 233.80217 231.68086 229.71854 227.88722
 226.18190 224.66558 223.30726 222.09094 220.98462 219.95630 219.07198 218.22466
 217.47834 216.67002 215.77970 215.15538 214.61707 215.30170 216.91920 218.82710
 220.70580 222.41235 223.49529 223.60468 223.23045 222.89511 223.36551 224.56389
 226.38800 229.57616 233.74646 238.35271 242.91679 247.31065 251.42581 255.12114
 258.37057 261.36703 264.18991 266.70566 268.92990 270.90775 272.72714 274.49310
 276.16513 277.66586 278.96671 280.12198 281.18887 282.19421 283.14087 284.00742
 284.79141 285.49631 286.11404 286.91403
 366.78100 356.34699 345.79098 334.66897 323.08396 311.28995 299.17194 286.98693
 274.71092 262.61991 250.64090 239.95389 230.08788 221.20388 213.39787 206.41186
 200.25785 195.20784 191.80183 189.85582 188.90481 188.98080 189.82779 191.14778
 192.88477 194.99176 197.26675 199.63774 202.09473 204.58672 206.68671 208.54070
 210.17869 211.33568 211.57667 211.81666 211.76565 211.48265 211.12764 210.76963
 210.39862 210.12061 209.94060 209.81659 209.75658 210.09957 210.49756 210.89855
 211.70354 212.89353 214.15552 215.95051 217.89050 219.94549 222.05248 224.14747
 226.21946 228.31545 230.42444 232.54243 234.68342 236.86741 239.13541 241.51740
 244.15039 246.41338 248.42737 250.20436 251.63335 252.76834 253.60233 253.93032
 253.97931 253.76530 253.13729 252.09728 250.71527 248.88826 246.80925 244.65424
 242.45723 240.27322 238.10521 235.95620 233.82819 231.70718 229.74518 227.91417
 226.20916 224.69315 223.33514 222.11913 221.01312 219.98511 219.10110 218.25409
 217.50808 216.70007 215.81006 215.18605 214.64804 215.32265 216.91649 218.81020
 220.70029 222.38727 223.40828 223.46535 223.08282 222.73827 223.19753 224.41884
 226.33223 229.65594 233.90901 238.52592 243.07066 247.44408 251.54211 255.21565
 258.44458 261.42953 264.24310 266.73911 268.93796 270.90701 272.73111 274.40033
 276.20285 277.70688 279.00223 280.15573 281.22327 282.23041 283.17773 284.04575
 284.82904 285.53424 286.15387 286.95239
 366.78100 356.34741 345.79181 334.67022 323.08563 311.29203 299.17444 286.98985
 274.71425 262.62366 250.64507 239.95847 230.09288 221.20928 213.40369 206.41810
 200.26450 195.21491 191.80932 189.86372 188.91313 188.98954 189.83694 191.15735
 192.89476 195.00216 197.27757 199.64898 202.10638 204.59879 206.69920 208.55360
 210.19201 211.34941 211.59082 211.83123 211.78063 211.49804 211.14345 210.78585
 210.41526 210.13767 209.95807 209.83448 209.77489 210.11829 210.51670 210.91811
 211.72351 212.91392 214.17633 215.97173 217.91214 219.96755 222.07495 224.17036
 226.24276 228.33917 230.44858 232.56698 234.70839 236.89280 239.16120 241.54361
 244.17702 246.44042 248.45483 250.23224 251.66164 252.79705 253.63146 253.95986
 254.00927 253.79568 253.16808 252.12849 250.74690 248.92030 246.84171 244.68711
 242.49052 240.30693 238.13933 235.99074 233.86315 231.74255 229.78096 227.95037
 226.24577 224.73018 223.37259 222.15699 221.05140 220.02381 219.14021 218.29362
 217.54803 216.74043 215.85084 215.22724 214.68965 215.35287 216.91980 218.78442
 220.68333 222.36757 223.34023 223.32852 222.91675 222.55832 223.01201 224.27811
 226.29324 229.74504 234.07216 238.70338 243.23459 247.59207 251.67331 255.32059
 258.52386 261.49152 264.29099 266.77728 268.97433 270.91296 272.58130 274.43341
 276.22852 277.72574 279.02203 280.18881 281.27371 282.29022 283.24112 284.10764
 284.89459 285.60364 286.22662 287.03174
 366.78100 356.34768 345.79235 334.67103 323.08670 311.29338 299.17606 286.99173
 274.71641 262.62608 250.64776 239.96144 230.09611 221.21279 213.40746 206.42214
 200.26882 195.21949 191.81417 189.86884 188.91852 188.99520 189.84287 191.16355
 192.90122 195.00890 197.28458 199.65625 202.11393 204.60660 206.70728 208.56196
 210.20063 211.35831 211.59998 211.84066 211.79034 211.50801 211.15369 210.79636
 210.42604 210.14872 209.96939 209.84607 209.78674 210.13042 210.52910 210.93077
 211.73645 212.92712 214.18980 215.98548 217.92615 219.98183 222.08950 224.18518
 226.25786 228.35453 230.46421 232.58288 234.72456 236.90924 239.17791 241.56059
 244.19426 246.45794 248.47262 250.25029 251.67997 252.81564 253.65032 253.97899
 254.02867 253.81535 253.18802 252.14870 250.76737 248.94105 246.86273 244.70840
 242.51208 240.32875 238.16143 236.01311 233.88578 231.76546 229.80413 227.97381
 226.26949 224.75416 223.39684 222.18151 221.07619 220.04887 219.16554 218.31922
 217.57389 216.76657 215.87725 215.25392 214.71660 215.37296 216.92371 218.76469
 220.66135 222.33961 223.28015 223.20659 222.74881 222.36407 222.80205 224.13815
 226.26961 229.83746 234.23187 238.87849 243.40236 247.75067 251.81976 255.44250
 258.62131 261.56714 264.33429 266.77368 268.92657 270.79526 272.66400 274.52402
 276.21490 277.72241 279.03894 280.21536 281.30698 282.32983 283.27911 284.14917
 284.93646 285.65021 286.27728 287.08377
 366.78100 356.34795 345.79289 334.67184 323.08779 311.29474 299.17768 286.99363
 274.71858 262.62852 250.65047 239.96442 230.09937 221.21631 213.41126 206.42621
 200.27315 195.22410 191.81905 189.87400 188.92394 189.00089 189.84884 191.16978
 192.90773 195.01568 197.29163 199.66357 202.12152 204.61447 206.71541 208.57036
 210.20931 211.36726 211.60920 211.85015 211.80010 211.51804 211.16399 210.80694
 210.43689 210.15983 209.98078 209.85773 209.79867 210.14262 210.54157 210.94352
 211.74946 212.94041 214.20336 215.99930 217.94025 219.99620 222.10415 224.20009
 226.27304 228.36999 230.47993 232.59888 234.74083 236.92578 239.19472 241.57767
 244.21162 246.47556 248.49051 250.26846 251.69841 252.83435 253.66930 253.99825
 254.04819 253.83514 253.20809 252.16904 250.78798 248.96193 246.88388 244.72982
 242.53377 240.35072 238.18366 236.03561 233.90856 231.78851 229.82745 227.99740
 226.29335 224.77829 223.42124 222.20619 221.10114 220.07408 219.19103 218.34498
 217.59992 216.79287 215.90382 215.28077 214.74371 215.39268 216.92598 218.74338
 220.64705 222.30803 223.21225 223.06848 222.55373 222.14293 222.57597 224.00064
 226.26761 229.95317 234.40659 239.06808 243.58791 247.93118 251.98672 255.57855
 258.72171 261.63748 264.37579 266.79129 268.88373 270.57993 272.76553 274.56860
 276.28766 277.79825 279.10388 280.25861 281.33264 282.34979 283.29926 284.16916
 284.95898 285.67615 286.30884 287.11481
 366.78100 356.34829 345.79359 334.67288 323.08917 311.29646 299.17976 286.99605
 274.72134 262.63164 250.65393 239.96822 230.10351 221.22081 213.41610 206.43139
 200.27869 195.22998 191.82527 189.88057 188.93086 189.00815 189.85644 191.17774
 192.91603 195.02432 197.30062 199.67291 202.13120 204.62449 206.72579 208.58108
 210.22037 211.37867 211.62096 211.86225 211.81254 211.53084 211.17713 210.82042
 210.45072 210.17401 209.99530 209.87259 209.81389 210.15818 210.55747 210.95977
 211.76606 212.95735 214.22064 216.01694 217.95823 220.01452 222.12282 224.21911
 226.29240 228.38970 230.49999 232.61928 234.76157 236.94687 239.21616 241.59945
 244.23375 246.49804 248.51333 250.29162 251.72192 252.85821 253.69350 254.02280
 254.07309 253.86038 253.23367 252.19497 250.81426 248.98855 246.91085 244.75714
 242.56143 240.37872 238.21202 236.06431 233.93760 231.81790 229.85719 228.02748
 226.32378 224.80907 223.45236 222.23765 221.13295 220.10624 219.22353 218.37783
 217.63312 216.82641 215.93770 215.31500 214.77829 215.41426 216.91681 218.71858
 220.64244 222.28951 223.15585 222.97113 222.37123 221.88336 222.28575 223.82091
 226.25598 230.07962 234.58820 239.26503 243.79503 248.14218 252.19189 255.76468
 258.87637 261.73444 264.40408 266.74957 268.80060 270.68973 272.63776 274.51450
 276.24512 277.73868 279.04752 280.24777 281.36002 282.38663 283.33911 284.20847
 284.99973 285.71893 286.35245 287.16147
 366.78100 356.34851 345.79402 334.67354 323.09005 311.29756 299.18107 286.99758
 274.72310 262.63361 250.65612 239.97063 230.10614 221.22366 213.41917 206.43468
 200.28219 195.23370 191.82922 189.88473 188.93524 189.01275 189.86126 191.18278
 192.92129 195.02980 197.30631 199.67882 202.13734 204.63085 206.73236 208.58787
 210.22738 211.38590 211.62841 211.86992 211.82043 211.53894 211.18546 210.82897
 210.45948 210.18299 210.00450 209.88202 209.82353 210.16804 210.56755 210.97006
 211.77658 212.96809 214.23160 216.02811 217.96962 220.02614 222.13465 224.23116
 226.30467 228.40218 230.51270 232.63221 234.77472 236.96023 239.22974 241.61326
 244.24777 246.51228 248.52779 250.30630 251.73682 252.87333 253.70884 254.03835
 254.08887 253.87638 253.24989 252.21140 250.83091 249.00543 246.92794 244.77445
 242.57896 240.39647 238.22999 236.08250 233.95601 231.83652 229.87603 228.04655
 226.34306 224.82857 223.47208 222.25759 221.15311 220.12662 219.24413 218.39864
 217.65415 216.84767 215.95918 215.33669 214.80020 215.42474 216.90031 218.69228
 220.62808 222.28365 223.09048 222.87120 222.25288 221.67838 222.00714 223.61246
 226.20163 230.17934 234.74988 239.44456 243.98375 248.33791 252.38187 255.94110
 259.04456 261.86682 264.46716 266.73517 268.64417 270.84909 272.70480 274.61777
 276.15744 277.58237 278.91019 280.10400 281.20129 282.21896 283.16696 284.03412
 284.82874 285.54980 286.18384 286.99875
 366.78100 356.34861 345.79422 334.67382 323.09043 311.29804 299.18165 286.99825
 274.72386 262.63447 250.65708 239.97169 230.10729 221.22490 213.42051 206.43612
 200.28373 195.23533 191.83094 189.88655 188.93716 189.01476 189.86337 191.18498
 192.92359 195.03220 197.30880 199.68141 202.14002 204.63363 206.73524 208.59084
 210.23045 211.38906 211.63167 211.87327 211.82388 211.54249 211.18910 210.83271
 210.46331 210.18692 210.00853 209.88614 209.82774 210.17235 210.57196 210.97457
 211.78118 212.97278 214.23639 216.03300 217.97461 220.03122 222.13982 224.23643
 226.31004 228.40765 230.51825 232.63786 234.78047 236.96608 239.23569 241.61929
 244.25390 246.51851 248.53412 250.31273 251.74333 252.87994 253.71555 254.04516
 254.09576 253.88337 253.25698 252.21859 250.83820 249.01280 246.93541 244.78202
 242.58663 240.40423 238.23784 236.09045 233.96406 231.84467 229.88427 228.05488
 226.35149 224.83710 223.48071 222.26631 221.16192 220.13553 219.25314 218.40774
 217.66335 216.85696 215.96857 215.34618 214.80978 215.43068 216.89763 218.66429
 220.58749 222.26361 223.03156 222.73036 222.05576 221.49223 221.78896 223.44635
 226.17920 230.28305 234.91547 239.61374 244.15834 248.51118 252.53595 256.08102
 259.19907 262.04208 264.62500 266.86508 268.44107 270.83881 272.78857 274.59415
 276.15295 277.53387 278.82907 279.94070 280.92429 281.86954 282.79816 283.66565
 284.46033 285.18768 285.82108 286.64871
 366.78100 356.34853 345.79406 334.67358 323.09011 311.29764 299.18117 286.99770
 274.72323 262.63375 250.65628 239.97081 230.10634 221.22387 213.41939 206.43492
 200.28245 195.23398 191.82951 189.88504 188.93556 189.01309 189.86162 191.18315
 192.92168 195.03020 197.30673 199.67926 202.13779 204.63132 206.73285 208.58837
 210.22790 211.38643 211.62896 211.87049 211.82101 211.53954 211.18607 210.82960
 210.46013 210.18366 210.00518 209.88271 209.82424 210.16877 210.56830 210.97082
 211.77735 212.96888 214.23241 216.02894 217.97047 220.02699 222.13552 224.23205
 226.30558 228.40311 230.51363 232.63316 234.77569 236.96122 239.23075 241.61428
 244.24880 246.51333 248.52886 250.30739 251.73792 252.87445 253.70997 254.03950
 254.09003 253.87756 253.25109 252.21261 250.83214 249.00667 246.92920 244.77573
 242.58026 240.39778 238.23131 236.08384 233.95737 231.83790 229.87742 228.04795
 226.34448 224.83001 223.47354 222.25907 221.15459 220.12812 219.24565 218.40018
 217.65571 216.84923 215.96076 215.33829 214.80182 215.42639 216.90204 218.64268
 220.54773 222.23036 222.97682 222.63062 221.87663 221.13879 221.51576 223.41835
 226.26904 230.43526 235.10458 239.79727 244.33180 248.66100 252.62871 256.15378
 259.27063 262.12717 264.71149 266.81296 268.62857 270.93665 272.81772 274.61136
 276.18777 277.52927 278.72812 279.75815 280.67352 281.57040 282.49127 283.35730
 284.15594 284.89444 285.52887 286.36679
 366.78100 356.34841 345.79381 334.67322 323.08962 311.29703 299.18043 286.99684
 274.72224 262.63265 250.65505 239.96946 230.10486 221.22227 213.41767 206.43308
 200.28049 195.23189 191.82730 189.88270 188.93311 189.01051 189.85892 191.18032
 192.91873 195.02713 197.30354 199.67594 202.13435 204.62776 206.72916 208.58457
 210.22397 211.38238 211.62478 211.86619 211.81659 211.53500 211.18140 210.82481
 210.45521 210.17862 210.00002 209.87743 209.81884 210.16324 210.56265 210.96505
 211.77146 212.96286 214.22627 216.02267 217.96408 220.02048 222.12889 224.22529
 226.29870 228.39611 230.50651 232.62592 234.76832 236.95373 239.22313 241.60654
 244.24094 246.50535 248.52075 250.29916 251.72956 252.86597 253.70137 254.03078
 254.08119 253.86859 253.24200 252.20340 250.82281 248.99721 246.91962 244.76602
 242.57043 240.38783 238.22124 236.07364 233.94705 231.82746 229.86686 228.03727
 226.33367 224.81908 223.46248 222.24789 221.14329 220.11670 219.23410 218.38851
 217.64391 216.83732 215.94872 215.32613 214.78954 215.41528 216.89366 218.63301
 220.52005 222.18831 222.91481 222.53612 221.70152 220.76962 221.19699 223.33221
 226.33148 230.60495 235.33305 240.03043 244.54184 248.85756 252.78493 256.25092
 259.34125 262.18365 264.79617 266.93387 268.62262 270.90472 272.84998 274.68231
 276.24283 277.55081 278.66296 279.65323 280.60107 281.59473 282.54190 283.41339
 284.21179 284.94778 285.57550 286.41714
 366.78100 356.34845 345.79389 334.67334 323.08979 311.29723 299.18068 286.99713
 274.72257 262.63302 250.65547 239.96991 230.10536 221.22281 213.41825 206.43370
 200.28114 195.23259 191.82804 189.88348 188.93393 189.01138 189.85982 191.18127
 192.91972 195.02816 197.30461 199.67706 202.13550 204.62895 206.73040 208.58584
 210.22529 211.38374 211.62618 211.86763 211.81808 211.53652 211.18297 210.82642
 210.45686 210.18031 210.00176 209.87920 209.82065 210.16509 210.56454 210.96699
 211.77343 212.96488 214.22833 216.02477 217.96622 220.02267 222.13111 224.22756
 226.30101 228.39845 230.50890 232.62835 234.77079 236.95624 239.22569 241.60913
 244.24358 246.50803 248.52347 250.30192 251.73237 252.86881 253.70426 254.03371
 254.08415 253.87160 253.24504 252.20649 250.82594 249.00038 246.92283 244.76928
 242.57372 240.39117 238.22462 236.07706 233.95051 231.83096 229.87040 228.04085
 226.33730 224.82274 223.46619 222.25164 221.14708 220.12053 219.23798 218.39242
 217.64787 216.84132 215.95276 215.33021 214.79366 215.41373 216.87869 218.62633
 220.50005 222.13327 222.83617 222.43356 221.55263 220.46884 220.88889 223.18520
 226.34644 230.74913 235.53935 240.24196 244.74484 249.05348 252.97141 256.38766
 259.44232 262.23737 264.82114 267.06384 268.83835 270.79056 272.85092 274.75961
 276.28983 277.56149 278.65933 279.64502 280.51224 281.40228 282.31323 283.17505
 283.97134 284.70056 285.32465 286.16971
 366.78100 356.34830 345.79360 334.67290 323.08920 311.29650 299.17980 286.99610
 274.72140 262.63170 250.65400 239.96830 230.10360 221.22090 213.41620 206.43150
 200.27880 195.23010 191.82540 189.88070 188.93100 189.00830 189.85659 191.17789
 192.91619 195.02449 197.30079 199.67309 202.13139 204.62469 206.72599 208.58129
 210.22059 211.37889 211.62119 211.86249 211.81279 211.53109 211.17739 210.82069
 210.45099 210.17429 209.99559 209.87289 209.81419 210.15849 210.55779 210.96009
 211.76639 212.95769 214.22099 216.01729 217.95859 220.01489 222.12319 224.21949
 226.29279 228.39009 230.50039 232.61969 234.76199 236.94729 239.21659 241.59989
 244.23418 246.49848 248.51378 250.29208 251.72238 252.85868 253.69398 254.02328
 254.07358 253.86088 253.23418 252.19548 250.81478 248.98908 246.91138 244.75768
 242.56198 240.37928 238.21258 236.06488 233.93818 231.81848 229.85778 228.02808
 226.32438 224.80968 223.45298 222.23828 221.13358 220.10688 219.22418 218.37848
 217.63378 216.82708 215.93838 215.31568 214.77898 215.40390 216.88036 218.60750
 220.48560 222.07939 222.72279 222.29919 221.41411 220.23146 220.62733 223.04366
 226.36052 230.87639 235.70892 240.41716 244.92415 249.22609 253.12225 256.50955
 259.54681 262.30484 264.81781 267.08041 269.06839 270.92957 272.96759 274.80914
 276.31723 277.57275 278.64923 279.59924 280.39542 281.18207 282.03571 282.88889
 283.68289 284.41061 285.03717 285.90036
 366.78100 356.34788 345.79276 334.67164 323.08751 311.29439 299.17727 286.99315
 274.71803 262.62791 250.64979 239.96366 230.09854 221.21542 213.41030 206.42518
 200.27206 195.22294 191.81782 189.87269 188.92257 188.99945 189.84733 191.16821
 192.90609 195.01397 197.28984 199.66172 202.11960 204.61248 206.71336 208.56824
 210.20712 211.36499 211.60687 211.84775 211.79763 211.51551 211.16139 210.80427
 210.43414 210.15702 209.97790 209.85478 209.79566 210.13954 210.53842 210.94030
 211.74617 212.93705 214.19993 215.99581 217.93669 219.99257 222.10045 224.19632
 226.26920 228.36608 230.47596 232.59484 234.73672 236.92160 239.19047 241.57335
 244.20723 246.47111 248.48599 250.26387 251.69375 252.82962 253.66450 253.99338
 254.04326 253.83014 253.20302 252.16390 250.78278 248.95665 246.87853 244.72441
 242.52829 240.34517 238.17805 236.02993 233.90280 231.78268 229.82156 227.99144
 226.28732 224.77220 223.41508 222.19995 221.09483 220.06771 219.18459 218.33847
 217.59335 216.78623 215.89710 215.27398 214.73686 215.37505 216.88280 218.58704
 220.47459 222.03737 222.60197 222.11255 221.25189 220.01833 220.42366 222.91418
 226.37761 230.99716 235.89006 240.61041 245.09418 249.35754 253.22379 256.59335
 259.62692 262.36893 264.83286 267.06961 269.16403 271.11423 273.08557 274.86536
 276.37848 277.62857 278.67984 279.60623 280.40472 281.09842 281.84412 282.69980
 283.48877 284.19943 284.83383 285.70828
 366.78100 356.34739 345.79178 334.67017 323.08556 311.29195 299.17434 286.98973
 274.71412 262.62351 250.64490 239.95829 230.09268 221.20907 213.40346 206.41785
 200.26424 195.21463 191.80902 189.86340 188.91279 188.98918 189.83657 191.15696
 192.89435 195.00174 197.27713 199.64852 202.10591 204.59830 206.69869 208.55308
 210.19147 211.34886 211.59025 211.83064 211.78003 211.49742 211.14281 210.78520
 210.41459 210.13698 209.95737 209.83376 209.77415 210.11754 210.51593 210.91732
 211.72271 212.91310 214.17549 215.97088 217.91127 219.96666 222.07405 224.16944
 226.24182 228.33821 230.44760 232.56599 234.70738 236.89177 239.16016 241.54255
 244.17594 246.43933 248.45372 250.23111 251.66050 252.79589 253.63028 253.95867
 254.00806 253.79445 253.16684 252.12723 250.74562 248.91901 246.84040 244.68579
 242.48918 240.30557 238.13796 235.98935 233.86174 231.74113 229.77952 227.94891
 226.24430 224.72869 223.37108 222.15547 221.04986 220.02224 219.13863 218.29202
 217.54641 216.73880 215.84919 215.22558 214.68797 215.34245 216.88876 218.55305
 220.46960 222.01915 222.48595 221.90648 221.01559 219.82571 220.25650 222.80385
 226.41019 231.10631 236.06024 240.82446 245.30061 249.51190 253.33453 256.66455
 259.67844 262.41138 264.85040 267.06897 269.18317 271.20319 273.14069 274.90009
 276.39160 277.61270 278.64148 279.54227 280.29837 280.91296 281.65918 282.52505
 283.31454 284.02609 284.66364 285.53372
 354.97500 345.04800 334.58700 324.11500 313.32600 302.53700 291.65000 280.76700
 269.93100 259.19300 248.62200 238.61700 229.08700 220.35500 212.54000 205.53500
 199.46400 194.49300 191.14300 189.19000 188.08900 188.01400 188.72400 189.90600
 191.46900 193.38200 195.40300 197.55600 199.80700 202.06000 204.28800 206.47900
 208.55200 210.37800 212.02500 213.65900 214.99800 216.11800 217.17200 218.25900
 219.49400 220.64500 221.67900 222.61400 223.54500 224.98200 226.57100 228.19000
 229.79700 231.81100 233.86500 235.97200 238.24200 240.55300 242.89900 245.25300
 247.48800 249.53500 251.36600 252.84800 254.09800 255.16700 256.02700 256.25300
 256.09500 255.54300 253.93500 252.56600 251.38400 250.24500 249.05200 247.70100
 246.01600 243.99600 241.78400 239.39300 236.81300 234.22300 231.65800 229.14400
 226.74000 224.47300 222.33500 220.32500 218.44000 216.67700 214.96200 213.47200
 212.20000 211.10800 210.26000 209.63900 209.24400 209.03100 209.05800 209.33300
 209.78400 210.62600 211.33100 212.39100 213.62500 214.84668 217.72949 219.47640
 220.32566 220.86828 220.88710 220.27371 219.43733 218.84250 219.04934 220.86203
 222.60583 225.72206 229.03064 232.61777 236.12270 239.51333 242.70767 245.68587
 248.41061 250.90679 253.19353 254.91714 256.48655 257.94920 259.39966 260.69384
 261.81714 262.77997 263.71679 264.54570 265.26305 265.89772 266.47676 267.00133
 267.47312 267.89325 268.26027 268.72800
