|-------------------------------------------------------------------------|
|   File Name : in_temp.dat
|   Subject   : temperature profiles used for initial guess atmosphere
|   File Type : input of gmtr
|   Data Type : atmospherical data
|   Author/s  : WRF-Chem
|   Date      : Fri Jul 26 15:39:24 2024
|-------------------------------------------------------------------------|

 WRF-Chem temperature
#
 values of T (K)    (8f10.5)
#
 354.97500 345.04800 334.58700 324.11500 313.32600 302.53700 291.65000 280.76700
 269.93100 259.19300 248.62200 238.61700 229.08700 220.35500 212.54000 205.53500
 199.46400 194.49300 191.14300 189.19000 188.08900 188.01400 188.72400 189.90600
 191.46900 193.38200 195.40300 197.55600 199.80700 202.06000 204.28800 206.47900
 208.55200 210.37800 212.02500 213.65900 214.99800 216.11800 217.17200 218.25900
 219.49400 220.64500 221.67900 222.61400 223.54500 224.98200 226.57100 228.19000
 229.79700 231.81100 233.86500 235.97200 238.24200 240.55300 242.89900 245.25300
 247.48800 249.53500 251.36600 252.84800 254.09800 255.16700 256.02700 256.25300
 256.09500 255.54300 253.93500 252.56600 251.38400 250.24500 249.05200 247.70100
 246.01600 243.99600 241.78400 239.39300 236.81300 234.22300 231.65800 229.14400
 226.74000 224.47300 222.33500 220.32500 218.44000 216.67700 214.96200 213.47200
 212.20000 211.10800 210.26000 209.63900 209.24400 209.03100 209.05800 209.33300
 209.78400 210.62600 211.33100 212.39100 213.62500 214.84668 217.72949 219.47640
 220.32566 220.86828 220.88710 220.27371 219.43733 218.84250 219.04934 220.86203
 222.60583 225.72206 229.03064 232.61777 236.12270 239.51333 242.70767 245.68587
 248.41061 250.90679 253.19353 254.91714 256.48655 257.94920 259.39966 260.69384
 261.81714 262.77997 263.71679 264.54570 265.26305 265.89772 266.47676 267.00133
 267.47312 267.89325 268.26027 268.72800
 366.78100 356.33500 345.76700 334.63300 323.03600 311.23000 299.10000 286.90300
 274.61500 262.51200 250.52100 239.82200 229.94400 221.04800 213.23000 206.23200
 200.06600 195.00400 191.58600 189.62800 188.66500 188.72900 189.56400 190.87200
 192.59700 194.69200 196.95500 199.31400 201.75900 204.23900 206.32700 208.16900
 209.79500 210.94000 211.16900 211.39700 211.33400 211.03900 210.67200 210.30200
 209.91900 209.62900 209.43700 209.30100 209.22900 209.56000 209.94600 210.33500
 211.12800 212.30600 213.55600 215.33900 217.26700 219.31000 221.40500 223.48800
 225.54800 227.63200 229.72900 231.83500 233.96400 236.13600 238.39200 240.76200
 243.38300 245.63400 247.63600 249.40100 250.81800 251.94100 252.76300 253.07900
 253.11600 252.89000 252.25000 251.19800 249.80400 247.96500 245.87400 243.70700
 241.49800 239.30200 237.12200 234.96100 232.82100 230.68800 228.71400 226.87100
 225.15400 223.62600 222.25600 221.02800 219.91000 218.87000 217.97400 217.11500
 216.35700 215.53700 214.63500 213.99900 213.44900 212.85855 212.01316 212.61654
 214.26826 216.08686 218.14273 220.53346 223.40855 226.78828 231.49734 235.90155
 239.42278 243.28576 247.23140 251.11907 254.80144 258.23331 261.38913 264.27520
 266.89312 269.26852 271.44504 273.08845 274.58484 275.98591 277.39845 278.65879
 279.75272 280.69038 281.56708 282.34086 283.01050 283.60295 284.14348 284.63317
 285.07358 285.46577 285.80838 286.24500
 381.81900 372.39900 361.20600 349.77600 337.62200 324.85300 311.81000 298.35300
 284.86000 271.32400 258.56100 246.30400 236.08700 226.79600 218.44800 211.29000
 205.52200 200.89400 197.38100 194.84800 193.01500 192.31500 192.25000 192.43100
 192.91200 193.53700 194.13600 194.71200 195.26200 195.83100 196.39300 196.97600
 197.60400 198.14900 198.58400 199.05700 199.69500 200.37800 201.05400 201.70800
 202.31300 202.85700 203.35500 203.86200 204.56900 205.29700 206.02600 206.98700
 208.19300 209.44100 210.96900 212.57600 214.46200 216.51300 218.63000 220.85300
 223.34100 225.96200 228.73900 231.69700 234.70600 237.70600 240.69200 243.65700
 246.73700 249.69900 252.52100 255.06300 257.29000 259.23300 260.63300 261.68000
 262.46100 262.79800 262.69100 262.22400 261.06900 259.52500 257.70700 255.50700
 253.00100 250.30200 247.39800 244.45200 241.65400 239.05400 236.73300 234.59000
 232.59500 230.72500 228.83400 226.82600 224.66600 222.38700 220.10400 217.71500
 215.45900 213.06600 210.54600 208.09300 205.35400 202.08130 196.05959 200.71215
 209.01611 216.90438 223.84126 229.78593 235.00632 240.20838 245.98943 250.68668
 254.32982 257.93487 261.55666 264.96801 268.15192 271.06452 273.76717 276.25691
 278.57680 280.74479 282.77456 284.60533 286.27232 287.81705 289.31715 290.65561
 291.81734 292.81312 293.70701 294.49387 295.17482 295.77730 296.32696 296.82492
 297.27278 297.67160 298.02000 298.46400
 399.33000 389.90700 379.81300 368.66800 357.52200 345.30100 333.07400 320.22700
 307.21600 293.84800 280.37600 267.29600 254.61000 242.98700 232.15100 221.97700
 212.67200 204.28600 197.66900 192.82100 189.48600 187.45200 186.81400 187.08900
 187.78100 189.05400 190.64800 192.54200 194.63000 196.75200 198.67100 200.15800
 201.53500 202.48700 202.97500 203.34000 203.53900 203.49700 203.38500 203.24700
 203.00500 202.78600 202.60300 202.43700 202.42600 202.88800 203.42000 203.95100
 204.89500 205.99200 207.30100 208.95800 210.73800 213.10000 215.56400 218.18000
 220.96600 223.91800 226.96100 230.09200 233.29300 236.55700 239.95500 243.53700
 246.84500 249.39000 251.54200 253.47400 255.19500 256.48400 257.43100 258.05900
 258.21200 258.04000 257.58200 256.64300 255.23900 253.50700 251.40800 249.05600
 246.57600 243.99400 241.38900 238.83000 236.34400 233.98600 231.96900 230.11800
 228.42300 226.89900 225.54800 224.29700 223.10500 221.96500 220.95800 220.11300
 219.49000 218.92000 218.32500 217.88100 217.42300 216.96366 216.35568 216.80261
 217.73415 218.28582 218.64258 219.10077 220.44626 222.53987 226.38451 230.35736
 233.59734 237.39164 241.29814 245.22796 248.98002 252.51130 255.78595 258.80109
 261.54781 264.05210 266.34239 268.04198 269.58951 271.01303 272.35754 273.55718
 274.59842 275.49092 276.28989 276.99307 277.60161 278.14001 278.63122 279.07623
 279.47646 279.83287 280.14422 280.54100
 399.73800 389.78500 379.66200 368.15100 356.64100 344.35000 331.79200 318.88800
 305.72600 292.49300 279.20900 266.73800 254.69600 244.21100 234.45700 225.43300
 217.56900 210.45100 204.30000 199.30600 195.45800 192.57600 191.02700 190.38600
 190.23900 190.53400 191.16600 191.92500 192.79500 193.76600 194.73200 195.31200
 195.80000 196.05200 196.11500 196.11500 196.03900 195.72300 195.34000 194.98900
 194.75100 194.79200 195.13300 195.59800 196.50600 198.13600 199.85800 201.56600
 204.17900 206.82300 209.89300 213.28400 216.82800 220.60500 224.38700 228.20900
 232.03200 235.82500 239.56000 243.25800 246.84500 250.20100 253.70900 257.46800
 261.53000 264.22100 266.60100 268.68100 270.32900 271.74100 272.83600 273.47400
 273.89800 274.00200 273.75700 273.28800 272.37100 271.10000 269.58900 267.77900
 265.81600 263.72100 261.39300 258.91600 256.29800 253.42300 250.33100 247.11400
 243.83700 240.52900 237.24900 233.99900 230.72800 227.51500 224.25400 220.95200
 217.62700 213.65600 210.12100 206.78900 204.01000 201.99491 199.07309 198.76551
 199.40006 200.48994 201.46112 202.31912 203.45100 204.96110 207.47502 210.85391
 213.70530 217.29629 220.99574 224.72316 228.28753 231.64854 234.68024 237.40893
 239.70644 241.60899 243.46854 245.67368 247.68154 249.52395 251.24767 252.78566
 254.12057 255.26479 256.23740 257.09036 257.82852 258.48160 259.07744 259.61723
 260.10271 260.53504 260.91270 261.39400
 399.73800 389.78500 379.66200 368.15100 356.64100 344.35000 331.79200 318.88800
 305.72600 292.49300 279.20900 266.73800 254.69600 244.21100 234.45700 225.43300
 217.56900 210.45100 204.30000 199.30600 195.45800 192.57600 191.02700 190.38600
 190.23900 190.53400 191.16600 191.92500 192.79500 193.76600 194.73200 195.31200
 195.80000 196.05200 196.11500 196.11500 196.03900 195.72300 195.34000 194.98900
 194.75100 194.79200 195.13300 195.59800 196.50600 198.13600 199.85800 201.56600
 204.17900 206.82300 209.89300 213.28400 216.82800 220.60500 224.38700 228.20900
 232.03200 235.82500 239.56000 243.25800 246.84500 250.20100 253.70900 257.46800
 261.53000 264.22100 266.60100 268.68100 270.32900 271.74100 272.83600 273.47400
 273.89800 274.00200 273.75700 273.28800 272.37100 271.10000 269.58900 267.77900
 265.81600 263.72100 261.39300 258.91600 256.29800 253.42300 250.33100 247.11400
 243.83700 240.52900 237.24900 233.99900 230.72800 227.51500 224.25400 220.95200
 217.62700 213.65600 210.12100 206.78900 204.01000 201.99491 199.07309 198.76551
 199.40006 200.48994 201.46112 202.31912 203.45100 204.96110 207.47502 210.85391
 213.70530 217.29629 220.99574 224.72316 228.28753 231.64854 234.68024 237.40893
 239.70644 241.60899 243.46854 245.67368 247.68154 249.52395 251.24767 252.78566
 254.12057 255.26479 256.23740 257.09036 257.82852 258.48160 259.07744 259.61723
 260.10271 260.53504 260.91270 261.39400
 399.33000 389.90700 379.81300 368.66800 357.52200 345.30100 333.07400 320.22700
 307.21600 293.84800 280.37600 267.29600 254.61000 242.98700 232.15100 221.97700
 212.67200 204.28600 197.66900 192.82100 189.48600 187.45200 186.81400 187.08900
 187.78100 189.05400 190.64800 192.54200 194.63000 196.75200 198.67100 200.15800
 201.53500 202.48700 202.97500 203.34000 203.53900 203.49700 203.38500 203.24700
 203.00500 202.78600 202.60300 202.43700 202.42600 202.88800 203.42000 203.95100
 204.89500 205.99200 207.30100 208.95800 210.73800 213.10000 215.56400 218.18000
 220.96600 223.91800 226.96100 230.09200 233.29300 236.55700 239.95500 243.53700
 246.84500 249.39000 251.54200 253.47400 255.19500 256.48400 257.43100 258.05900
 258.21200 258.04000 257.58200 256.64300 255.23900 253.50700 251.40800 249.05600
 246.57600 243.99400 241.38900 238.83000 236.34400 233.98600 231.96900 230.11800
 228.42300 226.89900 225.54800 224.29700 223.10500 221.96500 220.95800 220.11300
 219.49000 218.92000 218.32500 217.88100 217.42300 216.96366 216.35568 216.80261
 217.73415 218.28582 218.64258 219.10077 220.44626 222.53987 226.38451 230.35736
 233.59734 237.39164 241.29814 245.22796 248.98002 252.51130 255.78595 258.80109
 261.54781 264.05210 266.34239 268.04198 269.58951 271.01303 272.35754 273.55718
 274.59842 275.49092 276.28989 276.99307 277.60161 278.14001 278.63122 279.07623
 279.47646 279.83287 280.14422 280.54100
 381.81900 372.39900 361.20600 349.77600 337.62200 324.85300 311.81000 298.35300
 284.86000 271.32400 258.56100 246.30400 236.08700 226.79600 218.44800 211.29000
 205.52200 200.89400 197.38100 194.84800 193.01500 192.31500 192.25000 192.43100
 192.91200 193.53700 194.13600 194.71200 195.26200 195.83100 196.39300 196.97600
 197.60400 198.14900 198.58400 199.05700 199.69500 200.37800 201.05400 201.70800
 202.31300 202.85700 203.35500 203.86200 204.56900 205.29700 206.02600 206.98700
 208.19300 209.44100 210.96900 212.57600 214.46200 216.51300 218.63000 220.85300
 223.34100 225.96200 228.73900 231.69700 234.70600 237.70600 240.69200 243.65700
 246.73700 249.69900 252.52100 255.06300 257.29000 259.23300 260.63300 261.68000
 262.46100 262.79800 262.69100 262.22400 261.06900 259.52500 257.70700 255.50700
 253.00100 250.30200 247.39800 244.45200 241.65400 239.05400 236.73300 234.59000
 232.59500 230.72500 228.83400 226.82600 224.66600 222.38700 220.10400 217.71500
 215.45900 213.06600 210.54600 208.09300 205.35400 202.08130 196.05959 200.71215
 209.01611 216.90438 223.84126 229.78593 235.00632 240.20838 245.98943 250.68668
 254.32982 257.93487 261.55666 264.96801 268.15192 271.06452 273.76717 276.25691
 278.57680 280.74479 282.77456 284.60533 286.27232 287.81705 289.31715 290.65561
 291.81734 292.81312 293.70701 294.49387 295.17482 295.77730 296.32696 296.82492
 297.27278 297.67160 298.02000 298.46400
 366.78100 356.35642 345.80983 334.69725 323.12166 311.33708 299.22849 287.05291
 274.78632 262.70474 250.73516 240.05757 230.20099 221.32640 213.52982 206.55323
 200.40865 195.36807 191.97148 190.03490 189.09331 189.17873 190.03514 191.36456
 193.11097 195.22739 197.51181 199.89222 202.35864 204.86005 206.96947 208.83288
 210.48030 211.64672 211.89713 212.14655 212.10496 211.83138 211.48579 211.13721
 210.77562 210.50704 210.33646 210.22187 210.17129 210.52370 210.93112 211.34153
 212.15595 213.35536 214.62678 216.43120 218.38061 220.44503 222.56144 224.66586
 226.74727 228.85269 230.97111 233.09852 235.24894 237.44235 239.71977 242.11118
 244.75360 247.02601 249.04943 250.83585 252.27426 253.41868 254.26209 254.59951
 254.65792 254.45334 253.83476 252.80417 251.43159 249.61400 247.54442 245.39883
 243.21125 241.03666 238.87808 236.73850 234.61991 232.50833 230.55574 228.73416
 227.03857 225.53199 224.18340 222.97682 221.88024 220.86165 219.98707 219.14948
 218.41290 217.61431 216.73373 216.11915 215.59056 213.80692 209.62202 208.82422
 210.08263 210.60114 211.94217 215.54376 219.92422 224.71513 230.47771 235.50526
 239.36740 243.42908 247.78908 252.07349 255.64680 258.54898 261.16080 263.83383
 266.65353 269.30930 271.89932 274.50259 276.51956 278.05426 279.41220 281.02209
 283.03537 284.81985 286.36563 287.72351 288.89804 289.93637 290.88251 291.73889
 292.50723 293.19080 293.78412 294.52286
 366.78100 356.35648 345.80997 334.69745 323.12194 311.33742 299.22891 287.05339
 274.78687 262.70536 250.73584 240.05833 230.20181 221.32730 213.53078 206.55426
 200.40975 195.36923 191.97272 190.03620 189.09469 189.18017 190.03665 191.36614
 193.11262 195.22911 197.51359 199.89408 202.36056 204.86204 206.97153 208.83501
 210.48250 211.64898 211.89947 212.14895 212.10743 211.83392 211.48840 211.13989
 210.77837 210.50986 210.33934 210.22482 210.17431 210.52679 210.93428 211.34476
 212.15925 213.35873 214.63021 216.43470 218.38418 220.44867 222.56515 224.66964
 226.75112 228.85660 230.97509 233.10257 235.25306 237.44654 239.72402 242.11551
 244.75799 247.03048 249.05396 250.84045 252.27893 253.42341 254.26690 254.60438
 254.66287 254.45835 253.83984 252.80932 251.43680 249.61929 247.54977 245.40426
 243.21674 241.04223 238.88371 236.74419 234.62568 232.51416 230.56165 228.74013
 227.04462 225.53810 224.18958 222.98307 221.88655 220.86804 219.99352 219.15601
 218.41949 217.62097 216.74046 216.12594 215.59743 213.83047 209.68307 208.86940
 210.09238 210.64778 211.97845 215.48552 219.84685 224.65257 230.41660 235.42969
 239.28555 243.34686 247.71327 252.01288 255.61568 258.55222 261.17035 263.81750
 266.62250 269.27347 271.85974 274.44513 276.43167 277.94955 279.33310 280.97723
 283.03189 284.81522 286.35999 287.71732 288.89035 289.92886 290.87402 291.72989
 292.49771 293.18069 293.77341 294.51056
 366.78100 356.35681 345.81062 334.69843 323.12324 311.33905 299.23086 287.05567
 274.78948 262.70829 250.73910 240.06191 230.20572 221.33153 213.53534 206.55915
 200.41496 195.37477 191.97858 190.04239 189.10120 189.18701 190.04382 191.37363
 193.12044 195.23726 197.52207 199.90288 202.36969 204.87150 206.98131 208.84512
 210.49293 211.65974 211.91055 212.16036 212.11917 211.84598 211.50079 211.15260
 210.79141 210.52322 210.35303 210.23884 210.18865 210.54146 210.94927 211.36008
 212.17489 213.37470 214.64651 216.45132 218.40113 220.46594 222.58275 224.68756
 226.76937 228.87518 230.99399 233.12180 235.27261 237.46642 239.74423 242.13604
 244.77885 247.05166 249.07547 250.86228 252.30109 253.44590 254.28971 254.62752
 254.68633 254.48214 253.86395 252.83377 251.46158 249.64439 247.57520 245.43001
 243.24282 241.06863 238.91044 236.77125 234.65306 232.54187 230.58968 228.76849
 227.07330 225.56711 224.21892 223.01273 221.91654 220.89835 220.02416 219.18697
 218.45078 217.65259 216.77240 216.15821 215.63002 213.86551 209.72266 208.92795
 210.11411 210.69785 211.98351 215.42722 219.79239 224.58893 230.34061 235.35172
 239.20999 243.27498 247.64371 251.95493 255.58495 258.55432 261.17978 263.80115
 266.59082 269.23563 271.81689 274.38263 276.33948 277.84213 279.25360 280.94049
 283.01825 284.80203 286.34900 287.70520 288.87750 289.91571 290.86163 291.71594
 292.48294 293.16528 293.75705 294.49179
 366.78100 356.35708 345.81116 334.69923 323.12431 311.34039 299.23247 287.05755
 274.79163 262.71070 250.74178 240.06486 230.20894 221.33502 213.53909 206.56317
 200.41925 195.37933 191.98341 190.04748 189.10656 189.19264 190.04972 191.37980
 193.12688 195.24395 197.52903 199.91011 202.37719 204.87927 206.98934 208.85342
 210.50150 211.66858 211.91966 212.16974 212.12881 211.85589 211.51097 211.16305
 210.80213 210.53420 210.36428 210.25036 210.20044 210.55352 210.96159 211.37267
 212.18775 213.38783 214.65991 216.46499 218.41506 220.48014 222.59722 224.70230
 226.78438 228.89045 231.00953 233.13761 235.28869 237.48277 239.76085 242.15292
 244.79600 247.06908 249.09316 250.88024 252.31931 253.46439 254.30847 254.64655
 254.70563 254.50170 253.88378 252.85386 251.48194 249.66502 247.59610 245.45117
 243.26425 241.09033 238.93241 236.79349 234.67556 232.56464 230.61272 228.79180
 227.09688 225.59095 224.24303 223.03711 221.94119 220.92327 220.04935 219.21242
 218.47650 217.67858 216.79866 216.18474 215.65681 213.89664 209.76289 208.99197
 210.13480 210.73830 211.98718 215.38051 219.74124 224.52702 230.26143 235.27609
 239.13884 243.20807 247.57680 251.89693 255.55229 258.55484 261.18994 263.78741
 266.55887 269.19547 271.77008 274.31531 276.24347 277.73309 279.17300 280.90872
 282.99524 284.78244 286.32956 287.68658 288.85913 289.89771 290.84061 291.69537
 292.46115 293.14313 293.73367 294.46542
 366.78100 356.35716 345.81133 334.69949 323.12465 311.34082 299.23298 287.05815
 274.79231 262.71147 250.74264 240.06580 230.20996 221.33613 213.54029 206.56445
 200.42062 195.38078 191.98494 190.04911 189.10827 189.19444 190.05160 191.38176
 193.12893 195.24609 197.53125 199.91242 202.37958 204.88174 206.99191 208.85607
 210.50424 211.67140 211.92256 212.17273 212.13189 211.85905 211.51422 211.16638
 210.80554 210.53771 210.36787 210.25403 210.20420 210.55736 210.96553 211.37669
 212.19185 213.39202 214.66418 216.46934 218.41951 220.48467 222.60183 224.70700
 226.78916 228.89532 231.01449 233.14265 235.29382 237.48798 239.76614 242.15831
 244.80147 247.07463 249.09880 250.88596 252.32512 253.47029 254.31445 254.65262
 254.71178 254.50794 253.89011 252.86027 251.48843 249.67160 247.60276 245.45792
 243.27109 241.09725 238.93941 236.80058 234.68274 232.57191 230.62007 228.79923
 227.10440 225.59856 224.25072 223.04489 221.94905 220.93121 220.05738 219.22054
 218.48471 217.68687 216.80703 216.19320 215.66536 213.91742 209.81125 209.05997
 210.15508 210.76695 211.99240 215.34221 219.68544 224.46477 230.18622 235.20358
 239.06964 243.14220 247.51022 251.83932 255.51917 258.55585 261.20172 263.77533
 266.52612 269.15256 271.71820 274.24265 276.14514 277.62607 279.09689 280.87686
 282.96671 284.75488 286.30310 287.66107 288.83270 289.87100 290.81409 291.66803
 292.43237 293.11252 293.70160 294.42981
 366.78100 356.35706 345.81113 334.69919 323.12425 311.34032 299.23238 287.05744
 274.79151 262.71057 250.74163 240.06470 230.20876 221.33482 213.53889 206.56295
 200.41901 195.37908 191.98314 190.04720 189.10627 189.19233 190.04939 191.37946
 193.12652 195.24358 197.52865 199.90971 202.37677 204.87884 206.98890 208.85296
 210.50103 211.66809 211.91915 212.16922 212.12828 211.85534 211.51041 211.16247
 210.80153 210.53360 210.36366 210.24972 210.19979 210.55285 210.96091 211.37198
 212.18704 213.38710 214.65917 216.46423 218.41429 220.47936 222.59642 224.70148
 226.78355 228.88961 231.00867 233.13674 235.28780 237.48186 239.75993 242.15199
 244.79505 247.06812 249.09218 250.87924 252.31831 253.46337 254.30743 254.64550
 254.70456 254.50062 253.88269 252.85275 251.48081 249.66388 247.59494 245.45000
 243.26307 241.08913 238.93119 236.79226 234.67432 232.56338 230.61145 228.79051
 227.09557 225.58964 224.24170 223.03576 221.93983 220.92189 220.04795 219.21102
 218.47508 217.67714 216.79721 216.18327 215.65533 213.92749 209.86726 209.12872
 210.17992 210.78775 211.99501 215.31099 219.62576 224.39935 230.11548 235.13281
 239.00044 243.07570 247.44499 251.78265 255.48708 258.55780 261.21616 263.76645
 266.49481 269.10809 271.66226 274.16489 276.04437 277.51993 279.02008 280.84039
 282.93118 284.72070 286.26794 287.62625 288.79877 289.83337 290.77866 291.62939
 292.39240 293.06860 293.65720 294.37994
 366.78100 356.35686 345.81072 334.69858 323.12343 311.33929 299.23115 287.05601
 274.78987 262.70873 250.73959 240.06244 230.20630 221.33216 213.53602 206.55988
 200.41574 195.37560 191.97945 190.04331 189.10217 189.18803 190.04489 191.37475
 193.12161 195.23846 197.52332 199.90418 202.37104 204.87290 206.98276 208.84662
 210.49447 211.66133 211.91219 212.16205 212.12091 211.84777 211.50263 211.15448
 210.79334 210.52520 210.35506 210.24092 210.19078 210.54364 210.95149 211.36235
 212.17721 213.37707 214.64893 216.45379 218.40365 220.46850 222.58536 224.69022
 226.77208 228.87794 230.99680 233.12466 235.27551 237.46937 239.74723 242.13909
 244.78195 247.05481 249.07867 250.86552 252.30438 253.44924 254.29310 254.63096
 254.68982 254.48568 253.86753 252.83739 251.46525 249.64811 247.57897 245.43383
 243.24669 241.07254 238.91440 236.77526 234.65712 232.54598 230.59384 228.77270
 227.07755 225.57141 224.22327 223.01713 221.92099 220.90285 220.02871 219.19156
 218.45542 217.65728 216.77714 216.16300 215.63486 213.93097 209.92584 209.20099
 210.20940 210.80070 211.99681 215.28577 219.56348 224.32938 230.04576 235.06223
 238.93141 243.01022 247.38127 251.72679 255.45522 258.56039 261.23349 263.76202
 266.46753 269.06488 271.60300 274.08331 275.94189 277.41406 278.94510 280.79816
 282.88898 284.67825 286.22552 287.58191 288.75360 289.78998 290.73001 291.57883
 292.34155 293.01862 293.60568 294.32727
 366.78100 356.35667 345.81033 334.69800 323.12267 311.33833 299.23000 287.05466
 274.78833 262.70700 250.73766 240.06033 230.20400 221.32966 213.53333 206.55699
 200.41266 195.37233 191.97599 190.03966 189.09833 189.18399 190.04066 191.37033
 193.11699 195.23366 197.51832 199.89899 202.36566 204.86732 206.97699 208.84066
 210.48832 211.65499 211.90565 212.15532 212.11399 211.84065 211.49532 211.14699
 210.78565 210.51732 210.34699 210.23265 210.18232 210.53498 210.94265 211.35332
 212.16798 213.36765 214.63932 216.44398 218.39365 220.45831 222.57498 224.67965
 226.76131 228.86698 230.98565 233.11331 235.26398 237.45764 239.73531 242.12698
 244.76964 247.04231 249.06598 250.85264 252.29131 253.43598 254.27964 254.61731
 254.67597 254.47164 253.85331 252.82297 251.45064 249.63331 247.56397 245.41864
 243.23130 241.05697 238.89864 236.75930 234.64097 232.52964 230.57730 228.75597
 227.06064 225.55430 224.20597 222.99963 221.90330 220.88497 220.01063 219.17330
 218.43697 217.63863 216.75830 216.14396 215.61563 213.93410 209.98042 209.27620
 210.25221 210.80681 211.99385 215.26210 219.49348 224.25276 229.97699 234.99466
 238.86615 242.94965 247.32214 251.67415 255.42551 258.56488 261.25427 263.76297
 266.44339 269.02039 271.53894 273.99487 275.83698 277.30984 278.86670 280.74744
 282.83749 284.62482 286.17081 287.52637 288.69788 289.73074 290.66873 291.51758
 292.27536 292.95007 293.53604 294.25882
 366.78100 356.35659 345.81017 334.69776 323.12234 311.33793 299.22951 287.05410
 274.78768 262.70627 250.73685 240.05944 230.20302 221.32861 213.53219 206.55578
 200.41136 195.37095 191.97453 190.03812 189.09670 189.18229 190.03887 191.36846
 193.11504 195.23163 197.51621 199.89680 202.36338 204.86497 206.97455 208.83814
 210.48572 211.65231 211.90289 212.15248 212.11106 211.83765 211.49224 211.14382
 210.78241 210.51399 210.34358 210.22916 210.17875 210.53133 210.93892 211.34950
 212.16409 213.36367 214.63526 216.43984 218.38943 220.45401 222.57060 224.67518
 226.75677 228.86235 230.98094 233.10852 235.25911 237.45269 239.73028 242.12186
 244.76445 247.03703 249.06062 250.84720 252.28579 253.43037 254.27396 254.61154
 254.67013 254.46571 253.84730 252.81689 251.44447 249.62706 247.55764 245.41223
 243.22481 241.05040 238.89198 236.75257 234.63415 232.52274 230.57032 228.74891
 227.05349 225.54708 224.19866 222.99225 221.89583 220.87742 220.00300 219.16559
 218.42917 217.63076 216.75034 216.13593 215.60751 213.94179 210.02452 209.36566
 210.29596 210.80298 211.99196 215.23343 219.42101 224.17772 229.91090 234.93112
 238.80475 242.89392 247.26614 251.62225 255.39359 258.56735 261.27728 263.76904
 266.42361 268.97644 271.46988 273.90378 275.73563 277.21396 278.79086 280.68582
 282.77390 284.55917 286.10239 287.45663 288.62622 289.65970 290.59729 291.44226
 292.19818 292.87204 293.45724 294.16449
 366.78100 356.35620 345.80941 334.69661 323.12082 311.33602 299.22723 287.05143
 274.78464 262.70284 250.73305 240.05525 230.19846 221.32366 213.52687 206.55007
 200.40528 195.36448 191.96769 190.03089 189.08910 189.17430 190.03051 191.35971
 193.10592 195.22212 197.50633 199.88653 202.35274 204.85394 206.96315 208.82635
 210.47356 211.63976 211.88997 212.13917 212.09738 211.82358 211.47779 211.12899
 210.76720 210.49840 210.32761 210.21281 210.16201 210.51422 210.92142 211.33163
 212.14583 213.34504 214.61624 216.42045 218.36965 220.43386 222.55006 224.65427
 226.73547 228.84068 230.95888 233.08609 235.23629 237.42950 239.70670 242.09791
 244.74011 247.01232 249.03552 250.82173 252.25993 253.40414 254.24734 254.58455
 254.64275 254.43796 253.81916 252.78837 251.41557 249.59778 247.52798 245.38219
 243.19439 241.01960 238.86080 236.72101 234.60221 232.49042 230.53762 228.71583
 227.02003 225.51323 224.16444 222.95764 221.86085 220.84205 219.96726 219.12946
 218.39267 217.59387 216.71308 216.09828 215.56949 213.93408 210.08694 209.43237
 210.35867 210.80821 211.96538 215.21480 219.34898 224.09514 229.84387 234.86627
 238.74516 242.84186 247.21512 251.57399 255.36382 258.57343 261.30557 263.78131
 266.40619 268.93079 271.39526 273.80402 275.63309 277.12457 278.71985 280.62463
 282.69965 284.48325 286.02487 287.37717 288.54523 289.57623 290.51108 291.35519
 292.10513 292.77625 293.34964 294.02872
 366.78100 356.35712 345.81124 334.69937 323.12449 311.34061 299.23273 287.05786
 274.79198 262.71110 250.74222 240.06534 230.20947 221.33559 213.53971 206.56383
 200.41996 195.38008 191.98420 190.04832 189.10744 189.19357 190.05069 191.38081
 193.12793 195.24506 197.53018 199.91130 202.37842 204.88055 206.99067 208.85479
 210.50291 211.67003 211.92116 212.17128 212.13040 211.85752 211.51265 211.16477
 210.80389 210.53601 210.36613 210.25226 210.20238 210.55550 210.96362 211.37475
 212.18987 213.38999 214.66211 216.46723 218.41736 220.48248 222.59960 224.70472
 226.78685 228.89297 231.01209 233.14021 235.29133 237.48546 239.76358 242.15570
 244.79882 247.07195 249.09607 250.88319 252.32231 253.46743 254.31156 254.64968
 254.70880 254.50492 253.88705 252.85717 251.48529 249.66841 247.59954 245.45466
 243.26778 241.09390 238.93602 236.79715 234.67927 232.56839 230.61651 228.79564
 227.10076 225.59488 224.24700 223.04112 221.94525 220.92737 220.05349 219.21661
 218.48074 217.68286 216.80298 216.18910 215.66122 213.99271 210.06758 209.54349
 210.45129 210.78351 211.95387 215.15938 219.23871 224.01210 229.78462 234.81685
 238.70427 242.81218 247.18294 251.54301 255.35065 258.59323 261.34528 263.80032
 266.38757 268.87549 271.30273 273.68326 275.50626 277.01733 278.64502 280.56744
 282.61664 284.40176 285.94138 287.29349 288.46051 289.47797 290.40543 291.24768
 292.00037 292.66849 293.22455 293.84137
 366.78100 356.35796 345.81292 334.70188 323.12784 311.34480 299.23776 287.06372
 274.79868 262.71864 250.75060 240.07456 230.21952 221.34648 213.55144 206.57640
 200.43336 195.39432 191.99928 190.06424 189.12420 189.21116 190.06912 191.40008
 193.14804 195.26599 197.55195 199.93391 202.40187 204.90483 207.01579 208.88075
 210.52971 211.69767 211.94963 212.20059 212.16055 211.88851 211.54447 211.19743
 210.83739 210.57035 210.40131 210.28827 210.23923 210.59319 211.00215 211.41411
 212.23007 213.43103 214.70399 216.50995 218.46091 220.52687 222.64483 224.75079
 226.83375 228.94071 231.06067 233.18963 235.34159 237.53655 239.81551 242.20847
 244.85243 247.12639 249.15135 250.93931 252.37927 253.52523 254.37019 254.70915
 254.76911 254.56607 253.94903 252.91998 251.54894 249.73290 247.66486 245.52082
 243.33478 241.16174 239.00470 236.86666 234.74962 232.63958 230.68854 228.86850
 227.17446 225.66942 224.32238 223.11734 222.02230 221.00526 220.13222 219.29618
 218.56114 217.76410 216.88506 216.27202 215.74498 214.05444 210.09792 209.59103
 210.60985 210.75259 211.79501 215.11023 219.18520 223.94896 229.74207 234.78630
 238.66895 242.80128 247.16161 251.50319 255.33736 258.62119 261.40384 263.86377
 266.38815 268.83575 271.22174 273.53543 275.36621 276.90604 278.55844 280.50140
 282.52469 284.30002 285.83704 287.18512 288.34625 289.36502 290.29242 291.12888
 291.87576 292.49948 292.89383 293.34558
 366.78100 356.35689 345.81078 334.69867 323.12356 311.33945 299.23134 287.05623
 274.79012 262.70901 250.73990 240.06279 230.20668 221.33257 213.53646 206.56035
 200.41624 195.37612 191.98001 190.04390 189.10279 189.18868 190.04557 191.37546
 193.12235 195.23924 197.52413 199.90502 202.37191 204.87380 206.98369 208.84758
 210.49547 211.66236 211.91325 212.16314 212.12203 211.84892 211.50381 211.15570
 210.79459 210.52648 210.35637 210.24226 210.19215 210.54504 210.95293 211.36382
 212.17871 213.37860 214.65048 216.45537 218.40526 220.47015 222.58704 224.69193
 226.77382 228.87971 230.99860 233.12649 235.27738 237.47127 239.74916 242.14105
 244.78394 247.05683 249.08072 250.86761 252.30650 253.45139 254.29528 254.63317
 254.69206 254.48795 253.86984 252.83973 251.46762 249.65051 247.58140 245.43629
 243.24918 241.07507 238.91696 236.77785 234.65973 232.54862 230.59651 228.77540
 227.08029 225.57418 224.22607 223.01996 221.92385 220.90574 220.03163 219.19452
 218.45841 217.66030 216.78019 216.16608 215.63797 214.02304 210.28278 209.58568
 210.69334 210.74994 211.68156 215.00493 219.10567 223.87950 229.68326 234.73415
 238.60677 242.77005 247.13245 251.44453 255.30882 258.64655 261.47412 263.98538
 266.45764 268.85269 271.20059 273.42633 275.24554 276.79294 278.46136 280.43079
 282.42322 284.19336 285.71964 287.05142 288.20135 289.21408 290.13232 290.94629
 291.64346 292.24933 292.77859 293.45309
 366.78100 356.35473 345.80646 334.69219 323.11491 311.32864 299.21837 287.04110
 274.77283 262.68956 250.71829 240.03901 230.18074 221.30447 213.50620 206.52793
 200.38166 195.33939 191.94111 190.00284 189.05957 189.14330 189.99803 191.32576
 193.07049 195.18521 197.46794 199.84667 202.31140 204.81113 206.91886 208.78059
 210.42632 211.59104 211.83977 212.08750 212.04423 211.76896 211.42169 211.07142
 210.70814 210.43787 210.26560 210.14933 210.09706 210.44779 210.85352 211.26224
 212.07497 213.27270 214.54243 216.34516 218.29289 220.35562 222.47034 224.57307
 226.65280 228.75653 230.87326 232.99899 235.14772 237.33944 239.61517 242.00490
 244.64563 246.91636 248.93809 250.72282 252.15954 253.30227 254.14400 254.47973
 254.53646 254.33019 253.70992 252.67764 251.30337 249.48410 247.41283 245.26556
 243.07629 240.90002 238.73974 236.59847 234.47820 232.36493 230.41066 228.58739
 226.89012 225.38185 224.03157 222.82330 221.72503 220.70476 219.82849 218.98922
 218.25095 217.45067 216.56840 215.95213 215.42186 213.92691 210.47644 209.62747
 210.63104 210.77795 211.73686 214.88956 219.00310 223.82616 229.61980 234.66519
 238.53596 242.71335 247.08829 251.39514 255.28072 258.66193 261.52322 264.06100
 266.52222 268.90305 271.23309 273.43176 275.26309 276.79269 278.39670 280.33832
 282.32303 284.08661 285.61740 286.95203 288.09885 289.09970 289.99741 290.79446
 291.52905 292.18317 292.75461 293.48285
 366.78100 356.35269 345.80238 334.68607 323.10676 311.31845 299.20613 287.02682
 274.75651 262.67120 250.69789 240.01658 230.15627 221.27796 213.47765 206.49734
 200.34903 195.30471 191.90440 189.96409 189.01878 189.10047 189.95316 191.27885
 193.02154 195.13423 197.41492 199.79161 202.25430 204.75198 206.85767 208.71736
 210.36105 211.52374 211.77043 212.01612 211.97081 211.69350 211.34419 210.99188
 210.62656 210.35425 210.17994 210.06163 210.00732 210.35601 210.75970 211.16639
 211.97708 213.17277 214.44046 216.24114 218.18683 220.24752 222.36021 224.46090
 226.53859 228.64028 230.75497 232.87866 235.02535 237.21504 239.48872 241.87641
 244.51510 246.78379 248.80348 250.58617 252.02086 253.16155 254.00124 254.33493
 254.38962 254.18130 253.55899 252.52468 251.14837 249.32706 247.25375 245.10444
 242.91313 240.73482 238.57251 236.42920 234.30689 232.19157 230.23526 228.40995
 226.71064 225.20033 223.84802 222.63771 221.53740 220.51509 219.63678 218.79547
 218.05515 217.25284 216.36853 215.75022 215.21791 213.82622 210.60970 209.74655
 210.59381 210.79684 211.79521 214.83710 218.90872 223.75058 229.54817 234.58757
 238.46808 242.65808 247.03328 251.33434 255.23259 258.64948 261.55750 264.12375
 266.57773 268.88699 271.22028 273.46271 275.30856 276.84225 278.41562 280.28406
 282.23312 283.97989 285.47754 286.78549 287.93283 288.94824 289.87238 290.74173
 291.55908 292.28693 292.92276 293.73306
 366.78100 356.35145 345.79990 334.68235 323.10180 311.31225 299.19870 287.01815
 274.74660 262.66005 250.68549 240.00294 230.14139 221.26184 213.46029 206.47874
 200.32919 195.28364 191.88209 189.94054 188.99399 189.07444 189.92589 191.25034
 192.99179 195.10324 197.38269 199.75814 202.21959 204.71604 206.82048 208.67893
 210.32138 211.48283 211.72828 211.97273 211.92618 211.64763 211.29708 210.94353
 210.57698 210.30343 210.12788 210.00833 209.95278 210.30023 210.70268 211.10813
 211.91758 213.11202 214.37847 216.17792 218.12237 220.18182 222.29327 224.39272
 226.46917 228.56962 230.68307 232.80552 234.95097 237.13942 239.41187 241.79832
 244.43577 246.70322 248.72167 250.50312 251.93656 253.07601 253.91446 254.24691
 254.30036 254.09081 253.46726 252.43171 251.05416 249.23161 247.15706 245.00651
 242.81396 240.63441 238.47086 236.32631 234.20276 232.08621 230.12866 228.30211
 226.60155 225.09000 223.73645 222.52490 221.42335 220.39980 219.52025 218.67770
 217.93615 217.13260 216.24705 215.62750 215.09395 213.76541 210.68715 209.85713
 210.58719 210.80992 211.86293 214.84621 218.84486 223.69165 229.50429 234.53979
 238.43346 242.62901 246.98724 251.26825 255.15994 258.59399 261.54803 264.14297
 266.60083 268.91046 271.18079 273.41919 275.31955 276.90598 278.48242 280.26440
 282.16354 283.89301 285.37793 286.67508 287.80640 288.80945 289.73343 290.58780
 291.39755 292.11932 292.74985 293.55338
 366.78100 356.35279 345.80257 334.68636 323.10715 311.31893 299.20672 287.02750
 274.75729 262.67208 250.69886 240.01765 230.15744 221.27922 213.47901 206.49879
 200.35058 195.30637 191.90615 189.96594 189.02073 189.10251 189.95530 191.28109
 193.02387 195.13666 197.41744 199.79423 202.25702 204.75480 206.86059 208.72038
 210.36416 211.52695 211.77373 212.01952 211.97431 211.69709 211.34788 210.99567
 210.63045 210.35824 210.18402 210.06581 210.01160 210.36038 210.76417 211.17096
 211.98174 213.17753 214.44532 216.24610 218.19189 220.25267 222.36546 224.46625
 226.54403 228.64582 230.76061 232.88439 235.03118 237.22096 239.49475 241.88254
 244.52132 246.79011 248.80990 250.59268 252.02747 253.16826 254.00804 254.34183
 254.39661 254.18840 253.56619 252.53197 251.15576 249.33455 247.26133 245.11212
 242.92090 240.74269 238.58048 236.43726 234.31505 232.19984 230.24362 228.41841
 226.71919 225.20898 223.85677 222.64655 221.54634 220.52413 219.64591 218.80470
 218.06449 217.26227 216.37806 215.75984 215.22763 213.86649 210.71652 209.78551
 210.52361 210.88295 212.08630 214.97760 218.86203 223.65469 229.47708 234.50748
 238.40474 242.60368 246.93948 251.17889 255.04800 258.48224 261.45563 264.07080
 266.52753 268.88766 271.23068 273.47122 275.37872 277.00229 278.55536 280.27493
 282.08688 283.77689 285.25354 286.53314 287.67026 288.69513 289.64798 290.53500
 291.34521 292.06671 292.69699 293.50021
 366.78100 356.35517 345.80734 334.69351 323.11668 311.33085 299.22102 287.04419
 274.77636 262.69353 250.72270 240.04388 230.18605 221.31022 213.51239 206.53456
 200.38873 195.34690 191.94907 190.01124 189.06841 189.15258 190.00775 191.33592
 193.08109 195.19626 197.47943 199.85860 202.32377 204.82394 206.93211 208.79429
 210.44046 211.60563 211.85480 212.10297 212.06014 211.78531 211.43848 211.08865
 210.72582 210.45599 210.28416 210.16833 210.11650 210.46767 210.87384 211.28301
 212.09618 213.29435 214.56452 216.36770 218.31587 220.37904 222.49421 224.59738
 226.67755 228.78172 230.89889 233.02506 235.17423 237.36640 239.64257 242.03274
 244.67391 246.94508 248.96725 250.75242 252.18959 253.33276 254.17493 254.51110
 254.56828 254.36245 253.74262 252.71079 251.33696 249.51813 247.44730 245.30047
 243.11164 240.93581 238.77598 236.63515 234.51532 232.40249 230.44866 228.62583
 226.92900 225.42117 224.07134 222.86351 221.76569 220.74586 219.87003 219.03120
 218.29337 217.49354 216.61171 215.99588 215.46605 214.04344 210.75508 209.67271
 210.44717 211.00322 212.32307 215.07141 218.82796 223.56912 229.38600 234.38457
 238.27948 242.47350 246.78874 250.98499 254.82909 258.26498 261.26770 263.93488
 266.44440 268.88068 271.27765 273.53983 275.51340 277.17645 278.72571 280.35818
 282.05777 283.68610 285.10947 286.39291 287.56247 288.61960 289.60251 290.54999
 291.40213 292.16098 292.82388 293.66867
 366.78100 356.35803 345.81305 334.70208 323.12810 311.34513 299.23816 287.06418
 274.79921 262.71923 250.75126 240.07528 230.22031 221.34734 213.55236 206.57739
 200.43441 195.39544 192.00047 190.06549 189.12552 189.21254 190.07057 191.40159
 193.14962 195.26765 197.55367 199.93570 202.40372 204.90675 207.01778 208.88280
 210.53183 211.69985 211.95188 212.20291 212.16293 211.89096 211.54698 211.20001
 210.84003 210.57306 210.40409 210.29111 210.24214 210.59616 211.00519 211.41722
 212.23324 213.43427 214.70729 216.51332 218.46435 220.53037 222.64840 224.75442
 226.83745 228.94447 231.06450 233.19353 235.34555 237.54058 239.81960 242.21263
 244.85666 247.13068 249.15571 250.94373 252.38376 253.52978 254.37481 254.71384
 254.77386 254.57089 253.95391 252.92494 251.55397 249.73799 247.67002 245.52604
 243.34007 241.16710 239.01012 236.87215 234.75517 232.64520 230.69422 228.87425
 227.18028 225.67530 224.32833 223.12335 222.02838 221.01141 220.13843 219.30246
 218.56748 217.77051 216.89154 216.27856 215.75159 214.22316 210.68332 209.62393
 210.62703 211.30081 212.49872 215.07527 218.74593 223.45064 229.24747 234.20613
 238.12334 242.30962 246.58829 250.72742 254.52414 257.92706 260.94055 263.65240
 266.22601 268.76151 271.23825 273.54205 275.58298 277.36328 278.98569 280.60324
 282.21393 283.72501 285.08881 286.37415 287.54553 288.60144 289.58160 290.50403
 291.35880 292.11996 292.78491 293.63229
 366.78100 356.35855 345.81410 334.70366 323.13021 311.34776 299.24131 287.06787
 274.80342 262.72397 250.75652 240.08108 230.22663 221.35418 213.55973 206.58529
 200.44284 195.40439 192.00994 190.07550 189.13605 189.22360 190.08215 191.41371
 193.16226 195.28081 197.56736 199.94992 202.41847 204.92202 207.03357 208.89913
 210.54868 211.71723 211.96978 212.22134 212.18189 211.91044 211.56699 211.22055
 210.86110 210.59465 210.42620 210.31376 210.26531 210.61986 211.02941 211.44197
 212.25852 213.46007 214.73362 216.54017 218.49173 220.55828 222.67683 224.78338
 226.86694 228.97449 231.09504 233.22459 235.37715 237.57270 239.85225 242.24580
 244.89036 247.16491 249.19046 250.97901 252.41957 253.56612 254.41167 254.75122
 254.81178 254.60933 253.99288 252.96443 251.59399 249.77854 247.71109 245.56764
 243.38220 241.20975 239.05330 236.91585 234.79941 232.68996 230.73951 228.92006
 227.22662 225.72217 224.37572 223.17127 222.07683 221.06038 220.18793 219.35248
 218.61804 217.82159 216.94314 216.33069 215.80424 214.27740 210.72849 209.61072
 210.65967 211.42863 212.59682 215.08266 218.71379 223.40749 229.19435 234.13826
 238.09738 242.27687 246.55397 250.69641 254.50217 257.89804 260.87192 263.51083
 266.06619 268.59488 270.98300 273.23822 275.29935 277.16031 278.89676 280.58307
 282.21725 283.72324 285.11627 286.43018 287.60553 288.65536 289.62378 290.51193
 291.32556 292.05011 292.68307 293.48969
 366.78100 356.35307 345.80314 334.68720 323.10827 311.32034 299.20841 287.02947
 274.75954 262.67461 250.70168 240.02075 230.16081 221.28288 213.48295 206.50302
 200.35509 195.31115 191.91122 189.97129 189.02636 189.10842 189.96149 191.28756
 193.03063 195.14370 197.42476 199.80183 202.26490 204.76297 206.86903 208.72910
 210.37317 211.53624 211.78331 212.02937 211.98444 211.70751 211.35858 211.00665
 210.64171 210.36978 210.19585 210.07792 210.02398 210.37305 210.77712 211.18419
 211.99526 213.19132 214.45939 216.26046 218.20653 220.26760 222.38066 224.48173
 226.55980 228.66187 230.77693 232.90100 235.04807 237.23814 239.51221 241.90027
 244.53934 246.80841 248.82848 250.61154 252.04661 253.18768 254.02775 254.36182
 254.41688 254.20895 253.58702 252.55309 251.17716 249.35622 247.28329 245.13436
 242.94343 240.76549 238.60356 236.46063 234.33870 232.22377 230.26783 228.44290
 226.74397 225.23404 223.88210 222.67217 221.57224 220.55031 219.67238 218.83144
 218.09151 217.28958 216.40565 215.78772 215.25578 214.02003 211.15117 209.87064
 210.40123 211.10989 212.46783 215.04295 218.70183 223.40056 229.16678 234.17973
 238.11285 242.34059 246.65135 250.84276 254.72090 258.18689 261.16461 263.74631
 266.04037 268.56485 270.91101 273.11310 275.05551 276.80716 278.48242 280.18484
 281.83633 283.41534 284.95642 286.33704 287.53271 288.62802 289.64032 290.55740
 291.38220 292.11670 292.75833 293.57605
 366.78100 356.34706 345.79112 334.66918 323.08424 311.29029 299.17235 286.98741
 274.71147 262.62053 250.64159 239.95465 230.08871 221.20476 213.39882 206.41288
 200.25894 195.20900 191.80306 189.85712 188.90618 188.98223 189.82929 191.14935
 192.88641 194.99347 197.26853 199.63959 202.09665 204.58870 206.68876 208.54282
 210.18088 211.33794 211.57900 211.81906 211.76812 211.48517 211.13023 210.77229
 210.40135 210.12341 209.94347 209.81953 209.75959 210.10264 210.50070 210.90176
 211.70682 212.89688 214.15894 215.95400 217.89406 219.94911 222.05617 224.15123
 226.22329 228.31935 230.42841 232.54647 234.68753 236.87158 239.13964 241.52170
 244.15476 246.41782 248.43188 250.20894 251.63800 252.77305 253.60711 253.93517
 253.98423 253.77029 253.14235 252.10241 250.72047 248.89353 246.81458 244.65964
 242.46270 240.27876 238.11082 235.96188 233.83394 231.71300 229.75105 227.92011
 226.21517 224.69923 223.34129 222.12535 221.01941 219.99147 219.10752 218.26058
 217.51464 216.70670 215.81676 215.19282 214.65488 213.74113 211.53888 210.17043
 210.31021 210.93118 212.39487 214.98260 218.60255 223.32837 229.19124 234.19745
 238.15858 242.42096 246.76181 250.99464 254.94000 258.46838 261.47983 264.01431
 266.21851 268.56082 270.81366 272.98462 274.96161 276.68399 278.26303 279.90878
 281.50833 283.31790 285.24432 286.97983 288.48175 289.81055 291.02289 292.12119
 293.10901 293.98865 294.75708 295.73636
 366.78100 356.34329 345.78359 334.65788 323.06918 311.27147 299.14976 286.96106
 274.68135 262.58664 250.60394 239.91323 230.04353 221.15582 213.34611 206.35641
 200.19870 195.14499 191.73529 189.78558 188.83088 188.90317 189.74646 191.06276
 192.79605 194.89935 197.17064 199.53793 201.99123 204.47952 206.57581 208.42611
 210.06040 211.21370 211.45099 211.68728 211.63258 211.34587 210.98716 210.62546
 210.25075 209.96905 209.78534 209.65763 209.59393 209.93322 210.32752 210.72481
 211.52610 212.71240 213.97069 215.76198 217.69828 219.74957 221.85287 223.94416
 226.01245 228.10475 230.21004 232.32433 234.46163 236.64192 238.90622 241.28451
 243.91380 246.17310 248.18339 249.95669 251.38198 252.51327 253.34357 253.66786
 253.71315 253.49545 252.86374 251.82004 250.43433 248.60362 246.52092 244.36221
 242.16151 239.97380 237.80209 235.64939 233.51768 231.39297 229.42727 227.59256
 225.88386 224.36415 223.00244 221.78274 220.67303 219.64132 218.75362 217.90291
 217.15321 216.34150 215.44779 214.82009 214.27838 213.57071 211.77060 210.37354
 210.22713 210.73663 212.17749 214.97717 218.62622 223.24796 229.14845 234.18976
 238.17079 242.46829 246.84998 251.14331 255.17857 258.82300 261.90057 264.45709
 266.68097 268.85303 270.95868 273.03818 274.92120 276.55383 278.04581 279.67026
 281.74136 284.02631 286.00354 287.73969 289.24219 290.57150 291.78430 292.88303
 293.87119 294.75116 295.51990 296.49954
 366.78100 356.34351 345.78402 334.65854 323.07005 311.27256 299.15107 286.96258
 274.68309 262.58861 250.60612 239.91563 230.04614 221.15865 213.34916 206.35968
 200.20219 195.14870 191.73921 189.78972 188.83523 188.90775 189.75126 191.06777
 192.80128 194.90479 197.17630 199.54382 201.99733 204.48584 206.58235 208.43286
 210.06737 211.22089 211.45840 211.69491 211.64042 211.35393 210.99544 210.63396
 210.25947 209.97798 209.79449 209.66700 209.60352 209.94303 210.33754 210.73505
 211.53656 212.72307 213.98159 215.77310 217.70961 219.76112 221.86463 223.95614
 226.02466 228.11717 230.22268 232.33719 234.47470 236.65521 238.91973 241.29824
 243.92775 246.18726 248.19777 249.97128 251.39680 252.52831 253.35882 253.68333
 253.72884 253.51135 252.87987 251.83638 250.45089 248.62040 246.53791 244.37943
 242.17894 239.99145 237.81996 235.66747 233.53598 231.41150 229.44601 227.61152
 225.90303 224.38354 223.02205 221.80257 220.69308 219.66159 218.77410 217.92361
 217.17412 216.36264 215.46915 214.84166 214.30017 213.56004 211.78421 210.62717
 210.38724 210.74904 212.05507 214.77629 218.42126 223.09781 229.00467 234.05641
 238.03487 242.33060 246.72067 251.03700 255.11586 258.83093 262.00797 264.62280
 266.91751 269.16077 271.31689 273.37674 275.27692 276.93118 278.40366 279.80743
 281.92950 284.32492 286.47211 288.35748 289.98911 291.43271 292.74976 293.94290
 295.01599 295.97162 296.80643 297.87027
 366.78100 356.34708 345.79116 334.66925 323.08433 311.29041 299.17249 286.98757
 274.71166 262.62074 250.64182 239.95490 230.08898 221.20507 213.39915 206.41323
 200.25931 195.20939 191.80348 189.85756 188.90664 188.98272 189.82980 191.14989
 192.88697 194.99405 197.26913 199.64021 202.09729 204.58938 206.68946 208.54354
 210.18162 211.33870 211.57979 211.81987 211.76895 211.48603 211.13111 210.77320
 210.40228 210.12436 209.94444 209.82052 209.76061 210.10369 210.50177 210.90285
 211.70793 212.89802 214.16010 215.95518 217.89526 219.95034 222.05743 224.15251
 226.22459 228.32067 230.42975 232.54784 234.68892 236.87300 239.14108 241.52316
 244.15625 246.41933 248.43341 250.21049 251.63957 252.77466 253.60874 253.93682
 253.98590 253.77198 253.14407 252.10415 250.72223 248.89531 246.81639 244.66147
 242.46456 240.28064 238.11272 235.96380 233.83588 231.71497 229.75305 227.92213
 226.21721 224.70129 223.34338 222.12746 221.02154 219.99362 219.10970 218.26279
 217.51687 216.70895 215.81903 215.19511 214.65720 213.71597 211.57878 210.70470
 210.71367 211.08823 212.28276 214.72855 218.25514 223.00035 228.79216 233.84067
 237.79218 242.06259 246.42422 250.70555 254.73445 258.37158 261.51273 264.20691
 266.70370 269.12643 271.41370 273.58698 275.58743 277.35178 278.86807 280.23779
 282.01221 283.86365 285.67227 287.36536 288.83060 290.12692 291.30966 292.38113
 293.34479 294.20294 294.95261 295.90796
 366.78100 356.35127 345.79954 334.68181 323.10108 311.31135 299.19762 287.01689
 274.74516 262.65843 250.68370 240.00097 230.13924 221.25951 213.45778 206.47605
 200.32632 195.28059 191.87886 189.93712 188.99039 189.07066 189.92193 191.24620
 192.98747 195.09874 197.37801 199.75328 202.21455 204.71082 206.81509 208.67336
 210.31563 211.47690 211.72217 211.96644 211.91971 211.64098 211.29025 210.93652
 210.56979 210.29606 210.12033 210.00060 209.94487 210.29214 210.69441 211.09968
 211.90895 213.10322 214.36949 216.16876 218.11303 220.17230 222.28357 224.38284
 226.45911 228.55937 230.67264 232.79491 234.94018 237.12845 239.40072 241.78699
 244.42426 246.69153 248.70980 250.49107 251.92434 253.06361 253.90188 254.23415
 254.28742 254.07769 253.45396 252.41823 251.04050 249.21777 247.14304 244.99231
 242.79958 240.61985 238.45612 236.31139 234.18766 232.07093 230.11320 228.28647
 226.58574 225.07401 223.72028 222.50855 221.40682 220.38309 219.50336 218.66062
 217.91889 217.11516 216.22943 215.60970 215.07597 213.94267 211.37253 210.55450
 210.86861 211.39008 212.59706 214.82852 218.23840 222.92284 228.67577 233.72450
 237.66588 241.93098 246.28473 250.56256 254.58073 258.16534 261.22375 263.88092
 266.40408 268.87036 271.21408 273.41245 275.42615 277.22733 278.85184 280.39713
 282.02771 283.80173 285.39236 286.84177 288.20523 289.42581 290.53937 291.54819
 292.45554 293.26352 293.96933 294.86884
 366.78100 356.35458 345.80616 334.69174 323.11432 311.32791 299.21749 287.04007
 274.77165 262.68823 250.71681 240.03739 230.17897 221.30255 213.50413 206.52572
 200.37930 195.33688 191.93846 190.00004 189.05662 189.14020 189.99478 191.32236
 193.06695 195.18153 197.46411 199.84269 202.30727 204.80685 206.91443 208.77601
 210.42159 211.58617 211.83476 212.08234 212.03892 211.76350 211.41608 211.06566
 210.70224 210.43182 210.25940 210.14298 210.09057 210.44115 210.84673 211.25531
 212.06789 213.26547 214.53505 216.33763 218.28521 220.34780 222.46238 224.56496
 226.64454 228.74812 230.86470 232.99028 235.13886 237.33044 239.60602 241.99561
 244.63619 246.90677 248.92835 250.71293 252.14951 253.29209 254.13367 254.46925
 254.52584 254.31942 253.69900 252.66658 251.29216 249.47274 247.40132 245.25390
 243.06448 240.88806 238.72765 236.58623 234.46581 232.35239 230.39797 228.57455
 226.87713 225.36871 224.01829 222.80988 221.71146 220.69104 219.81462 218.97520
 218.23678 217.43636 216.55394 215.93752 215.40710 214.14859 211.28201 210.38235
 210.90910 211.61201 212.80652 214.83867 218.11736 222.80614 228.64967 233.68977
 237.63734 241.90796 246.26096 250.54619 254.60344 258.23621 261.27588 263.84756
 266.33728 268.79404 271.13705 273.33920 275.32440 277.06198 278.65546 280.22787
 281.92383 283.68768 285.25815 286.66449 287.94077 289.11887 290.19370 291.16745
 292.04321 292.82309 293.50436 294.37256
 366.78100 356.35476 345.80651 334.69227 323.11502 311.32878 299.21853 287.04129
 274.77304 262.68980 250.71855 240.03931 230.18107 221.30482 213.50658 206.52833
 200.38209 195.33984 191.94160 190.00335 189.06011 189.14386 189.99862 191.32638
 193.07113 195.18589 197.46864 199.84740 202.31215 204.81191 206.91966 208.78142
 210.42717 211.59193 211.84069 212.08844 212.04520 211.76995 211.42271 211.07246
 210.70922 210.43897 210.26673 210.15048 210.09824 210.44900 210.85475 211.26351
 212.07626 213.27402 214.54377 216.34653 218.29428 220.35704 222.47179 224.57455
 226.65431 228.75806 230.87482 233.00057 235.14933 237.34108 239.61684 242.00659
 244.64735 246.91810 248.93986 250.72462 252.16137 253.30413 254.14588 254.48164
 254.53839 254.33215 253.71190 252.67966 251.30541 249.48617 247.41493 245.26768
 243.07844 240.90219 238.74195 236.60070 234.48046 232.36721 230.41297 228.58972
 226.89248 225.38424 224.03399 222.82575 221.72750 220.70726 219.83101 218.99177
 218.25352 217.45328 216.57103 215.95479 215.42455 214.19518 211.37033 210.28905
 210.79883 211.75665 212.99809 214.89684 218.06461 222.73004 228.60893 233.65300
 237.59064 241.85950 246.20738 250.49820 254.58688 258.24286 261.28336 263.83160
 266.32407 268.79132 271.16888 273.36154 275.32721 277.02158 278.60034 280.21820
 281.95087 283.69391 285.25781 286.65924 287.92923 289.10657 290.18069 291.15381
 292.02899 292.80835 293.48920 294.35684
 366.78100 356.35146 345.79992 334.68238 323.10184 311.31230 299.19876 287.01822
 274.74668 262.66014 250.68560 240.00306 230.14152 221.26198 213.46044 206.47890
 200.32936 195.28382 191.88228 189.94074 188.99420 189.07466 189.92612 191.25058
 192.99204 195.10350 197.38296 199.75842 202.21988 204.71634 206.82080 208.67926
 210.32172 211.48318 211.72864 211.97310 211.92655 211.64801 211.29747 210.94393
 210.57739 210.30385 210.12831 210.00877 209.95323 210.30069 210.70315 211.10861
 211.91807 213.11253 214.37899 216.17845 218.12291 220.18237 222.29383 224.39329
 226.46975 228.57021 230.68367 232.80613 234.95159 237.14005 239.41251 241.79897
 244.43643 246.70389 248.72235 250.50381 251.93727 253.07673 253.91519 254.24765
 254.30111 254.09157 253.46803 252.43249 251.05495 249.23241 247.15787 245.00733
 242.81479 240.63525 238.47171 236.32717 234.20363 232.08709 230.12955 228.30301
 226.60247 225.09093 223.73739 222.52585 221.42431 220.40077 219.52123 218.67869
 217.93715 217.13361 216.24807 215.62853 215.09499 214.05040 211.61020 210.32608
 210.56378 211.66829 213.02675 214.95415 218.09990 222.71185 228.57114 233.61012
 237.54054 241.79387 246.12778 250.40897 254.49167 258.13477 261.17105 263.74271
 266.24545 268.73825 271.13370 273.32553 275.28067 276.97592 278.56265 280.22614
 281.97141 283.66293 285.20953 286.58478 287.79514 288.92554 289.98209 290.93924
 291.80011 292.56671 293.23639 294.08981
 366.78100 356.34830 345.79360 334.67290 323.08920 311.29649 299.17979 286.99609
 274.72139 262.63169 250.65399 239.96829 230.10359 221.22089 213.41618 206.43148
 200.27878 195.23008 191.82538 189.88068 188.93098 189.00828 189.85657 191.17787
 192.91617 195.02447 197.30077 199.67307 202.13137 204.62467 206.72597 208.58126
 210.22056 211.37886 211.62116 211.86246 211.81276 211.53106 211.17736 210.82066
 210.45095 210.17425 209.99555 209.87285 209.81415 210.15845 210.55775 210.96005
 211.76634 212.95764 214.22094 216.01724 217.95854 220.01484 222.12314 224.21944
 226.29274 228.39003 230.50033 232.61963 234.76193 236.94723 239.21653 241.59983
 244.23413 246.49843 248.51372 250.29202 251.72232 252.85862 253.69392 254.02322
 254.07352 253.86082 253.23411 252.19541 250.81471 248.98901 246.91131 244.75761
 242.56191 240.37921 238.21251 236.06480 233.93810 231.81840 229.85770 228.02800
 226.32430 224.80960 223.45290 222.23820 221.13349 220.10679 219.22409 218.37839
 217.63369 216.82699 215.93829 215.31559 214.77888 213.89522 211.81738 210.54167
 210.42641 211.41692 212.88408 214.93906 218.13005 222.72060 228.56314 233.59909
 237.52821 241.77383 246.10280 250.38359 254.47449 258.11469 261.13028 263.69980
 266.20074 268.66895 271.04803 273.27878 275.22989 276.91080 278.49774 280.13882
 281.88333 283.54364 285.07266 286.43536 287.63577 288.73203 289.78647 290.74173
 291.60089 292.36597 293.03433 293.88608
 366.78100 356.34924 345.79548 334.67573 323.09297 311.30121 299.18545 287.00270
 274.72894 262.64018 250.66342 239.97866 230.11491 221.23315 213.42939 206.44563
 200.29387 195.24612 191.84236 189.89860 188.94984 189.02809 189.87733 191.19957
 192.93881 195.04805 197.32530 199.69854 202.15778 204.65202 206.75426 208.61051
 210.25075 211.40999 211.65323 211.89548 211.84672 211.56596 211.21320 210.85744
 210.48869 210.21293 210.03517 209.91341 209.85565 210.20090 210.60114 211.00438
 211.81162 213.00387 214.26811 216.06535 218.00759 220.06483 222.17408 224.27132
 226.34556 228.44380 230.55504 232.67529 234.81853 237.00477 239.27501 241.65926
 244.29450 246.55974 248.57598 250.35522 251.78647 252.92371 253.75995 254.09019
 254.14143 253.92968 253.30392 252.26616 250.88640 249.06165 246.98489 244.83213
 242.63737 240.45561 238.28986 236.14310 234.01734 231.89858 229.93882 228.11007
 226.40731 224.89355 223.53779 222.32404 221.22028 220.19452 219.31276 218.46800
 217.72425 216.91849 216.03073 215.40897 214.87321 213.94980 211.80246 210.72710
 210.64241 211.34222 212.71527 214.80402 218.04524 222.66998 228.50941 233.55777
 237.49271 241.75365 246.08733 250.38211 254.52449 258.21664 261.24008 263.75885
 266.20688 268.65845 271.08917 273.29584 275.20792 276.86627 278.42130 280.05185
 281.77609 283.46802 285.01306 286.39008 287.61044 288.76135 289.84695 290.83044
 291.71497 292.50266 293.19077 294.06769
 366.78100 356.35463 345.80627 334.69190 323.11454 311.32817 299.21781 287.04044
 274.77208 262.68871 250.71735 240.03798 230.17962 221.30325 213.50489 206.52652
 200.38016 195.33779 191.93943 190.00106 189.05770 189.14133 189.99596 191.32360
 193.06823 195.18287 197.46550 199.84414 202.30877 204.80841 206.91604 208.77768
 210.42331 211.58795 211.83658 212.08422 212.04085 211.76549 211.41812 211.06776
 210.70439 210.43402 210.26166 210.14529 210.09293 210.44356 210.84920 211.25783
 212.07047 213.26810 214.53774 216.34037 218.28801 220.35064 222.46528 224.56791
 226.64755 228.75118 230.86782 232.99345 235.14209 237.33372 239.60935 241.99899
 244.63962 246.91026 248.93189 250.71653 252.15316 253.29580 254.13743 254.47307
 254.52970 254.32334 253.70297 252.67061 251.29624 249.47688 247.40551 245.25815
 243.06878 240.89242 238.73205 236.59068 234.47032 232.35695 230.40259 228.57922
 226.88186 225.37349 224.02313 222.81476 221.71640 220.69603 219.81967 218.98030
 218.24194 217.44157 216.55921 215.94284 215.41248 214.25436 211.60036 210.68127
 211.10115 211.64803 212.71947 214.64159 217.87352 222.52589 228.33162 233.38745
 237.32991 241.61362 245.96530 250.28523 254.47003 258.21439 261.29535 263.85074
 266.31393 268.78934 271.24649 273.42471 275.32535 276.95157 278.47189 280.06317
 281.72626 283.48892 285.05710 286.46655 287.73904 288.95874 290.07150 291.07959
 291.98627 292.79364 293.49896 294.39783
 366.78100 356.35508 345.80716 334.69323 323.11631 311.33039 299.22047 287.04355
 274.77562 262.69270 250.72178 240.04286 230.18494 221.30901 213.51109 206.53317
 200.38725 195.34533 191.94740 190.00948 189.06656 189.15064 190.00572 191.33379
 193.07887 195.19395 197.47703 199.85611 202.32118 204.82126 206.92934 208.79142
 210.43750 211.60257 211.85165 212.09973 212.05681 211.78189 211.43496 211.08504
 210.72212 210.45220 210.28028 210.16436 210.11243 210.46351 210.86959 211.27867
 212.09175 213.28982 214.55990 216.36298 218.31106 220.37414 222.48921 224.59229
 226.67237 228.77645 230.89353 233.01960 235.16868 237.36076 239.63684 242.02692
 244.66799 246.93907 248.96115 250.74623 252.18331 253.32638 254.16846 254.50454
 254.56162 254.35570 253.73577 252.70385 251.32993 249.51101 247.44009 245.29316
 243.10424 240.92832 238.76840 236.62748 234.50755 232.39463 230.44071 228.61779
 226.92087 225.41294 224.06302 222.85510 221.75718 220.73726 219.86133 219.02241
 218.28449 217.48457 216.60265 215.98672 215.45680 214.31448 211.66614 210.53609
 211.14485 211.94609 212.95236 214.67921 217.79605 222.39926 228.15036 233.18088
 237.12279 241.40231 245.76923 250.12471 254.32347 258.04633 261.11356 263.72754
 266.28156 268.86658 271.35602 273.60593 275.55725 277.18112 278.63876 280.16351
 281.86343 283.63300 285.20386 286.61084 287.86914 289.06332 290.17557 291.18317
 292.08942 292.89642 293.60141 294.49982
 366.78100 356.34704 345.79107 334.66911 323.08414 311.29018 299.17222 286.98725
 274.71129 262.62032 250.64136 239.95440 230.08843 221.20447 213.39850 206.41254
 200.25858 195.20861 191.80265 189.85668 188.90572 188.98176 189.82879 191.14883
 192.88586 194.99290 197.26794 199.63897 202.09601 204.58804 206.68808 208.54212
 210.18015 211.33719 211.57823 211.81826 211.76730 211.48433 211.12937 210.77141
 210.40044 210.12248 209.94251 209.81855 209.75859 210.10162 210.49966 210.90069
 211.70573 212.89577 214.15780 215.95284 217.89287 219.94791 222.05495 224.14998
 226.22202 228.31805 230.42709 232.54513 234.68616 236.87020 239.13823 241.52027
 244.15331 246.41634 248.43038 250.20741 251.63645 252.77149 253.60552 253.93356
 253.98259 253.76863 253.14067 252.10070 250.71874 248.89177 246.81281 244.65785
 242.46088 240.27692 238.10895 235.95999 233.83203 231.71106 229.74910 227.91813
 226.21317 224.69721 223.33924 222.12328 221.01731 219.98935 219.10539 218.25842
 217.51246 216.70450 215.81453 215.19057 214.65260 213.88799 212.07739 210.75633
 210.65350 211.69574 213.06972 214.88817 217.89395 222.41066 228.19318 233.11569
 237.09740 241.34435 245.70517 250.02666 254.16675 257.85312 260.94061 263.62888
 266.22763 268.81778 271.29663 273.55408 275.50900 277.18802 278.73080 280.29349
 281.95016 283.59769 285.12241 286.47498 287.66479 288.74576 289.73297 290.64301
 291.48746 292.23947 292.89639 293.73358
 366.78100 356.34641 345.78982 334.66723 323.08165 311.28706 299.16847 286.98288
 274.70629 262.61470 250.63511 239.94753 230.08094 221.19635 213.38976 206.40317
 200.24858 195.19800 191.79141 189.84482 188.89323 188.96864 189.81505 191.13446
 192.87088 194.97729 197.25170 199.62211 202.07852 204.56993 206.66934 208.52276
 210.16017 211.31658 211.55699 211.79640 211.74481 211.46123 211.10564 210.74705
 210.37546 210.09687 209.91628 209.79169 209.73111 210.07352 210.47093 210.87134
 211.67575 212.86516 214.12657 215.92099 217.86040 219.91481 222.02122 224.11563
 226.18704 228.28245 230.39087 232.50828 234.64869 236.83210 239.09951 241.48092
 244.11334 246.37575 248.38916 250.16557 251.59398 252.72839 253.56180 253.88922
 253.93763 253.72304 253.09445 252.05386 250.67127 248.84368 246.76410 244.60851
 242.41092 240.22633 238.05774 235.90815 233.77957 231.65798 229.69539 227.86380
 226.15821 224.64162 223.28303 222.06645 220.95986 219.93127 219.04668 218.19909
 217.45250 216.64391 215.75333 215.12874 214.59015 213.82585 212.02089 211.18918
 210.61563 211.41887 212.95651 214.85077 217.87497 222.41745 228.29652 233.11069
 237.15105 241.37794 245.73401 250.02408 254.15927 257.83844 260.90067 263.54980
 266.14008 268.72760 271.19434 273.43674 275.38147 277.07635 278.69351 280.31503
 281.95206 283.50577 284.93625 286.20190 287.29443 288.35907 289.31573 290.00592
 290.63181 291.18048 291.60483 292.05304
 366.78100 356.34891 345.79483 334.67474 323.09165 311.29957 299.18348 287.00040
 274.72631 262.63722 250.66014 239.97505 230.11096 221.22888 213.42479 206.44070
 200.28862 195.24053 191.83645 189.89236 188.94327 189.02119 189.87010 191.19201
 192.93093 195.03984 197.31675 199.68967 202.14858 204.64250 206.74441 208.60032
 210.24024 211.39915 211.64206 211.88398 211.83489 211.55380 211.20072 210.84463
 210.47555 210.19946 210.02137 209.89929 209.84120 210.18611 210.58603 210.98894
 211.79585 212.98777 214.25168 216.04859 217.99051 220.04742 222.15634 224.25325
 226.32716 228.42508 230.53599 232.65590 234.79882 236.98473 239.25464 241.63856
 244.27347 246.53839 248.55430 250.33321 251.76413 252.90104 253.73695 254.06687
 254.11778 253.90569 253.27961 252.24152 250.86144 249.03635 246.95926 244.80618
 242.61109 240.42900 238.26292 236.11583 233.98974 231.87066 229.91057 228.08149
 226.37840 224.86431 223.50823 222.29414 221.19005 220.16397 219.28188 218.43679
 217.69271 216.88662 215.99854 215.37645 214.84036 213.97134 211.91820 211.24316
 210.80400 211.39992 212.88043 214.75595 217.81467 222.38939 228.28545 233.09160
 237.13029 241.37291 245.73260 250.02039 254.17154 257.85226 260.89212 263.49451
 266.06219 268.62457 271.06555 273.32355 275.27121 276.95831 278.60532 280.28268
 281.97592 283.54031 284.93649 286.13217 287.11575 288.17603 289.16678 289.71341
 290.23297 290.69751 291.07977 291.49384
 366.78100 356.34840 345.79380 334.67319 323.08959 311.29699 299.18039 286.99678
 274.72218 262.63258 250.65498 239.96937 230.10477 221.22217 213.41757 206.43297
 200.28036 195.23176 191.82716 189.88256 188.93295 189.01035 189.85875 191.18015
 192.91855 195.02694 197.30334 199.67574 202.13414 204.62753 206.72893 208.58433
 210.22373 211.38212 211.62452 211.86592 211.81632 211.53472 211.18111 210.82451
 210.45491 210.17831 209.99970 209.87710 209.81850 210.16290 210.56230 210.96469
 211.77109 212.96249 214.22589 216.02228 217.96368 220.02008 222.12848 224.22487
 226.29827 228.39567 230.50607 232.62547 234.76786 236.95326 239.22266 241.60606
 244.24045 246.50485 248.52025 250.29865 251.72905 252.86544 253.70084 254.03024
 254.08064 253.86803 253.24143 252.20283 250.82223 248.99662 246.91902 244.76542
 242.56982 240.38722 238.22061 236.07301 233.94641 231.82681 229.86620 228.03660
 226.33300 224.81840 223.46180 222.24719 221.14259 220.11599 219.23339 218.38778
 217.64318 216.83658 215.94798 215.32537 214.78877 213.97673 212.06067 211.17020
 210.89398 211.48212 212.86060 214.69002 217.75156 222.33813 228.22139 233.05336
 237.07016 241.34502 245.69945 249.99980 254.17563 257.88168 260.93863 263.53653
 266.08105 268.59961 271.00287 273.26547 275.20471 276.86926 278.48868 280.16888
 281.88953 283.47372 284.84790 285.98566 286.95364 287.98956 288.86911 289.43533
 289.95392 290.41898 290.77209 291.19708
 366.78100 356.34350 345.78401 334.65851 323.07001 311.27251 299.15102 286.96252
 274.68302 262.58852 250.60603 239.91553 230.04603 221.15853 213.34904 206.35954
 200.20204 195.14854 191.73905 189.78955 188.83505 188.90755 189.75106 191.06756
 192.80106 194.90456 197.17607 199.54357 201.99707 204.48557 206.58208 208.43258
 210.06708 211.22058 211.45809 211.69459 211.64009 211.35359 210.99510 210.63360
 210.25910 209.97760 209.79411 209.66661 209.60311 209.94261 210.33712 210.73462
 211.53612 212.72263 213.98113 215.77263 217.70913 219.76064 221.86414 223.95564
 226.02414 228.11665 230.22215 232.33665 234.47415 236.65466 238.91916 241.29766
 243.92716 246.18667 248.19717 249.97067 251.39617 252.52768 253.35818 253.68268
 253.72818 253.51069 252.87919 251.83569 250.45019 248.61970 246.53720 244.37870
 242.17820 239.99071 237.81921 235.66671 233.53521 231.41072 229.44522 227.61072
 225.90222 224.38273 223.02123 221.80173 220.69223 219.66074 218.77324 217.92274
 217.17325 216.36175 215.46825 214.84075 214.29926 213.76842 212.48660 211.12091
 210.73109 211.31117 212.66467 214.66496 217.80209 222.34665 228.17142 233.11317
 237.03360 241.32948 245.69493 250.02414 254.18509 257.89590 260.97607 263.60614
 266.10159 268.54251 270.92429 273.16266 275.10718 276.79071 278.41214 280.09537
 281.78000 283.33655 284.65128 285.82764 286.82358 287.62961 288.39758 289.18576
 289.92154 290.57675 291.14914 291.87857
 366.78100 356.34513 345.78725 334.66338 323.07650 311.28063 299.16075 286.97388
 274.69600 262.60313 250.62225 239.93338 230.06550 221.17963 213.37175 206.38388
 200.22801 195.17613 191.76826 189.82038 188.86751 188.94163 189.78676 191.10488
 192.84001 194.94513 197.21826 199.58738 202.04251 204.53263 206.63076 208.48289
 210.11901 211.27414 211.51326 211.75139 211.69851 211.41364 211.05676 210.69689
 210.32401 210.04414 209.86226 209.73639 209.67451 210.01564 210.41176 210.81089
 211.61402 212.80214 214.06227 215.85539 217.79352 219.84664 221.95177 224.04489
 226.11502 228.20914 230.31627 232.43239 234.57152 236.75364 239.01977 241.39990
 244.03102 246.29215 248.30427 250.07940 251.50652 252.63965 253.47177 253.79790
 253.84502 253.62915 252.99927 251.95740 250.57352 248.74465 246.66378 244.50690
 242.30803 240.12215 237.95228 235.80140 233.67153 231.54865 229.58478 227.75190
 226.04503 224.52715 223.16728 221.94940 220.84153 219.81166 218.92578 218.07691
 217.32903 216.51916 215.62728 215.00141 214.46153 213.88284 212.47246 211.19952
 210.82436 211.16772 212.60674 214.81506 218.01901 222.46852 228.21672 233.11551
 237.04190 241.33693 245.69344 250.03912 254.23715 257.99472 261.10385 263.74722
 266.24649 268.66522 271.01257 273.21674 275.14777 276.83353 278.43527 280.05566
 281.69522 283.18375 284.45218 285.76740 287.04257 288.23123 289.31570 290.29816
 291.18176 291.96863 292.65601 293.53198
 366.78100 356.35445 345.80590 334.69135 323.11380 311.32725 299.21670 287.03916
 274.77061 262.68706 250.71551 240.03596 230.17741 221.30086 213.50231 206.52376
 200.37721 195.33466 191.93611 189.99756 189.05401 189.13747 189.99192 191.31937
 193.06382 195.17827 197.46072 199.83917 202.30362 204.80307 206.91052 208.77197
 210.41742 211.58187 211.83032 212.07778 212.03423 211.75868 211.41113 211.06058
 210.69703 210.42648 210.25393 210.13738 210.08483 210.43528 210.84073 211.24918
 212.06164 213.25909 214.52854 216.33099 218.27844 220.34089 222.45534 224.55779
 226.63724 228.74069 230.85714 232.98259 235.13104 237.32249 239.59795 241.98740
 244.62785 246.89830 248.91975 250.70420 252.14065 253.28310 254.12455 254.46000
 254.51645 254.30990 253.68935 252.65681 251.28226 249.46271 247.39116 245.24361
 243.05406 240.87751 238.71696 236.57541 234.45486 232.34131 230.38676 228.56321
 226.86566 225.35712 224.00657 222.79802 221.69947 220.67892 219.80237 218.96282
 218.22427 217.42372 216.54117 215.92462 215.39407 214.39206 212.08354 211.15027
 211.36613 211.45421 212.57698 214.71895 217.96107 222.39563 227.99330 232.90677
 236.85101 241.15599 245.53877 249.91147 254.10019 257.81335 260.97101 263.76422
 266.40567 268.93454 271.35355 273.59592 275.53751 277.21970 278.77820 280.31927
 281.86960 283.24246 284.66974 286.08072 287.46042 288.69885 289.82877 290.85239
 291.77304 292.59286 293.30905 294.22174
 366.78100 356.35878 345.81456 334.70435 323.13113 311.34891 299.24269 287.06948
 274.80526 262.72604 250.75882 240.08360 230.22939 221.35717 213.56295 206.58873
 200.44652 195.40830 192.01408 190.07986 189.14064 189.22843 190.08721 191.41899
 193.16777 195.28656 197.57334 199.95612 202.42490 204.92869 207.04047 208.90625
 210.55603 211.72481 211.97760 212.22938 212.19016 211.91894 211.57573 211.22951
 210.87029 210.60407 210.43585 210.32364 210.27542 210.63020 211.03998 211.45277
 212.26955 213.47133 214.74511 216.55189 218.50368 220.57046 222.68924 224.79602
 226.87981 228.98759 231.10837 233.23815 235.39093 237.58672 239.86650 242.26028
 244.90506 247.17985 249.20563 250.99441 252.43519 253.58198 254.42776 254.76754
 254.82832 254.62610 254.00989 252.98167 251.61145 249.79623 247.72902 245.58580
 243.40058 241.22836 239.07214 236.93493 234.81871 232.70949 230.75927 228.94006
 227.24684 225.74262 224.39640 223.19218 222.09797 221.08175 220.20953 219.37431
 218.64010 217.84388 216.96566 216.35344 215.82722 214.65616 211.95042 210.94521
 211.57903 211.87854 212.80135 214.71159 217.83162 222.20448 227.71951 232.63158
 236.57228 240.86180 245.25085 249.57999 253.66006 257.30817 260.50854 263.43457
 266.24237 268.93088 271.46469 273.79474 275.82901 277.60031 279.20871 280.74551
 282.23804 283.63452 284.99414 286.34897 287.57849 288.77237 289.91263 290.94562
 291.87466 292.70200 293.42474 294.34579
 366.78100 356.35509 345.80717 334.69326 323.11635 311.33043 299.22052 287.04361
 274.77569 262.69278 250.72187 240.04295 230.18504 221.30913 213.51121 206.53330
 200.38739 195.34547 191.94756 190.00964 189.06673 189.15082 190.00590 191.33399
 193.07908 195.19416 197.47725 199.85634 202.32142 204.82151 206.92960 208.79168
 210.43777 211.60286 211.85194 212.10003 212.05712 211.78220 211.43529 211.08538
 210.72246 210.45255 210.28064 210.16472 210.11281 210.46390 210.86998 211.27907
 212.09216 213.29024 214.56033 216.36341 218.31150 220.37459 222.48967 224.59276
 226.67285 228.77693 230.89402 233.02011 235.16919 237.36128 239.63737 242.02745
 244.66854 246.93963 248.96171 250.74680 252.18389 253.32697 254.16906 254.50515
 254.56223 254.35632 253.73641 252.70449 251.33058 249.51167 247.44075 245.29384
 243.10493 240.92901 238.76910 236.62819 234.50827 232.39536 230.44144 228.61853
 226.92162 225.41370 224.06379 222.85588 221.75796 220.73805 219.86214 219.02322
 218.28531 217.48540 216.60348 215.98757 215.45766 214.48648 212.20334 210.90733
 211.32185 211.93840 212.98396 214.79434 217.79213 222.13074 227.68787 232.55399
 236.50381 240.77031 245.15314 249.46249 253.51619 257.14105 260.32803 263.26038
 266.08609 268.79376 271.36447 273.74957 275.82504 277.63699 279.27585 280.82892
 282.30853 283.68622 284.96988 286.27448 287.46576 288.54349 289.57043 290.53534
 291.40317 292.17596 292.85104 293.71140
 366.78100 356.34853 345.79406 334.67359 323.09012 311.29765 299.18118 286.99771
 274.72324 262.63377 250.65630 239.97084 230.10637 221.22390 213.41943 206.43496
 200.28249 195.23402 191.82955 189.88508 188.93561 189.01314 189.86167 191.18320
 192.92173 195.03026 197.30679 199.67932 202.13785 204.63138 206.73291 208.58844
 210.22798 211.38651 211.62904 211.87057 211.82110 211.53963 211.18616 210.82969
 210.46022 210.18375 210.00528 209.88281 209.82434 210.16887 210.56840 210.97093
 211.77746 212.96899 214.23252 216.02905 217.97058 220.02712 222.13565 224.23218
 226.30571 228.40324 230.51377 232.63330 234.77583 236.96136 239.23089 241.61442
 244.24895 246.51348 248.52901 250.30754 251.73807 252.87460 253.71013 254.03966
 254.09019 253.87772 253.25126 252.21279 250.83232 249.00685 246.92938 244.77591
 242.58044 240.39797 238.23150 236.08403 233.95756 231.83809 229.87762 228.04815
 226.34468 224.83021 223.47374 222.25927 221.15480 220.12833 219.24586 218.40040
 217.65593 216.84946 215.96099 215.33852 214.80205 214.17336 212.62984 210.94250
 210.86324 211.78700 213.04051 214.90976 217.86913 222.16747 227.71202 232.61134
 236.54276 240.83224 245.23209 249.56581 253.65605 257.31171 260.49805 263.37796
 266.13873 268.77866 271.27414 273.62857 275.71100 277.54678 279.23648 280.82004
 282.33908 283.72665 284.99591 286.19339 287.35938 288.43994 289.51019 290.47980
 291.35184 292.12839 292.80676 293.67126
 366.78100 356.34812 345.79323 334.67235 323.08846 311.29558 299.17870 286.99481
 274.71993 262.63004 250.65216 239.96628 230.10139 221.21851 213.41362 206.42874
 200.27586 195.22697 191.82209 189.87720 188.92732 189.00444 189.85255 191.17367
 192.91179 195.01990 197.29602 199.66813 202.12625 204.61937 206.72048 208.57560
 210.21471 211.37283 211.61495 211.85606 211.80618 211.52429 211.17041 210.81353
 210.44364 210.16676 209.98787 209.86499 209.80611 210.15022 210.54934 210.95145
 211.75757 212.94869 214.21180 216.00792 217.94903 220.00515 222.11327 224.20938
 226.28250 228.37961 230.48973 232.60885 234.75096 236.93608 239.20520 241.58831
 244.22243 246.48654 248.50166 250.27978 251.70989 252.84601 253.68112 254.01024
 254.06036 253.84747 253.22059 252.18170 250.80082 248.97494 246.89705 244.74317
 242.54728 240.36440 238.19752 236.04963 233.92275 231.80286 229.84198 228.01210
 226.30821 224.79333 223.43644 222.22156 221.11668 220.08979 219.20691 218.36102
 217.61614 216.80926 215.92037 215.29749 214.76060 214.14874 212.67548 211.13205
 210.56612 211.58495 213.18810 215.06807 217.90921 222.12550 227.71182 232.56804
 236.51097 240.79855 245.20787 249.55322 253.65698 257.31839 260.49277 263.35938
 266.11057 268.73410 271.22003 273.59186 275.68884 277.51028 279.19431 280.85168
 282.43826 283.87949 285.15436 286.35260 287.50723 288.57809 289.58829 290.54660
 291.41336 292.18521 292.85950 293.71881
 366.78100 356.35046 345.79791 334.67937 323.09782 311.30728 299.19274 287.01119
 274.73865 262.65110 250.67556 239.99202 230.12947 221.24893 213.44638 206.46384
 200.31330 195.26675 191.86421 189.92166 188.97412 189.05358 189.90403 191.22749
 192.96794 195.07840 197.35686 199.73131 202.19177 204.68722 206.79068 208.64814
 210.28959 211.45005 211.69450 211.93796 211.89042 211.61087 211.25933 210.90478
 210.53724 210.26270 210.08615 209.96561 209.90906 210.25552 210.65698 211.06143
 211.86989 213.06334 214.32880 216.12726 218.07071 220.12917 222.23962 224.33808
 226.41354 228.51299 230.62545 232.74690 234.89136 237.07882 239.35027 241.73573
 244.37218 246.63864 248.65609 250.43655 251.86901 253.00746 253.84492 254.17637
 254.22883 254.01829 253.39374 252.35720 250.97865 249.15511 247.07957 244.92802
 242.73448 240.55393 238.38939 236.24385 234.11930 232.00176 230.04321 228.21567
 226.51413 225.00158 223.64704 222.43449 221.33195 220.30741 219.42686 218.58332
 217.84077 217.03623 216.14969 215.52914 214.99460 214.26042 212.52577 211.26118
 210.70039 211.66701 213.20720 215.02211 217.80905 222.05206 227.74017 232.45010
 236.48059 240.73259 245.15068 249.48447 253.59694 257.24493 260.38263 263.22556
 265.99258 268.63776 271.12292 273.49515 275.57843 277.33966 278.97708 280.63370
 282.28320 283.78418 285.11108 286.28922 287.35818 288.37402 289.28738 290.03427
 290.70987 291.31104 291.78583 292.37488
 366.78100 356.35436 345.80572 334.69108 323.11344 311.32680 299.21616 287.03852
 274.76988 262.68624 250.71460 240.03496 230.17632 221.29968 213.50104 206.52240
 200.37576 195.33312 191.93448 189.99584 189.05220 189.13556 189.98992 191.31728
 193.06164 195.17599 197.45835 199.83671 202.30107 204.80043 206.90779 208.76915
 210.41451 211.57887 211.82723 212.07459 212.03095 211.75531 211.40767 211.05703
 210.69339 210.42275 210.25011 210.13347 210.08083 210.43119 210.83655 211.24491
 212.05727 213.25463 214.52399 216.32635 218.27371 220.33607 222.45043 224.55279
 226.63215 228.73551 230.85187 232.97723 235.12559 237.31695 239.59231 241.98167
 244.62203 246.89239 248.91375 250.69811 252.13447 253.27683 254.11819 254.45355
 254.50991 254.30326 253.68262 252.64998 251.27534 249.45570 247.38406 245.23642
 243.04678 240.87014 238.70950 236.56786 234.44722 232.33358 230.37894 228.55530
 226.85766 225.34902 223.99838 222.78974 221.69110 220.67046 219.79382 218.95418
 218.21554 217.41490 216.53226 215.91562 215.38498 214.49147 212.39369 211.27565
 210.89423 211.44272 212.93970 215.05113 217.97856 222.15366 227.72432 232.56023
 236.48186 240.76491 245.16573 249.49550 253.57608 257.21338 260.37524 263.24228
 265.98190 268.58038 271.04041 273.36716 275.44165 277.24704 278.89029 280.46674
 282.01154 283.45673 284.78235 286.00131 287.08179 288.04837 288.98428 289.84802
 290.65277 291.36938 291.99539 292.79318
 366.78100 356.36012 345.81725 334.70837 323.13650 311.35562 299.25075 287.07887
 274.81599 262.73812 250.77224 240.09837 230.24549 221.37462 213.58174 206.60886
 200.46799 195.43111 192.03824 190.10536 189.16749 189.25661 190.11673 191.44986
 193.19998 195.32011 197.60823 199.99235 202.46248 204.96760 207.08073 208.94785
 210.59898 211.76910 212.02322 212.27635 212.23847 211.96860 211.62672 211.28185
 210.92397 210.65909 210.49222 210.38134 210.33447 210.69059 211.10172 211.51584
 212.33396 213.53709 214.81221 216.62034 218.57346 220.64159 222.76171 224.86983
 226.95496 229.06408 231.18621 233.31733 235.47146 237.66858 239.94970 242.34483
 244.99095 247.26708 249.29420 251.08433 252.52645 253.67457 254.52170 254.86282
 254.92495 254.72407 254.10920 253.08232 251.71344 249.89957 247.83369 245.69182
 243.50794 241.33706 239.18219 237.04631 234.93144 232.82356 230.87469 229.05681
 227.36493 225.86206 224.51718 223.31431 222.22143 221.20656 220.33568 219.50180
 218.76893 217.97405 217.09718 216.48630 215.96143 214.84610 212.27663 211.16948
 211.16362 211.64732 213.03935 215.04166 217.97176 222.15373 227.63344 232.47636
 236.40193 240.70601 245.12022 249.47020 253.55675 257.18738 260.39322 263.35184
 266.16620 268.79532 271.25931 273.54996 275.57788 277.35678 278.96097 280.47333
 281.94717 283.34290 284.67334 286.05011 287.34787 288.52631 289.60147 290.57550
 291.45151 292.23163 292.91309 293.78156
 366.78100 356.35789 345.81278 334.70167 323.12756 311.34444 299.23733 287.06322
 274.79811 262.71800 250.74989 240.07378 230.21867 221.34556 213.55045 206.57533
 200.43222 195.39311 191.99800 190.06289 189.12278 189.20967 190.06756 191.39845
 193.14634 195.26422 197.55011 199.93200 202.39989 204.90278 207.01367 208.87856
 210.52745 211.69534 211.94723 212.19811 212.15800 211.88589 211.54178 211.19467
 210.83456 210.56745 210.39834 210.28523 210.23612 210.59000 210.99889 211.41078
 212.22667 213.42756 214.70045 216.50634 218.45723 220.52312 222.64101 224.74689
 226.82978 228.93667 231.05656 233.18545 235.33734 237.53223 239.81112 242.20401
 244.84790 247.12178 249.14667 250.93456 252.37445 253.52034 254.36523 254.70412
 254.76401 254.56090 253.94379 252.91467 251.54356 249.72745 247.65934 245.51523
 243.32912 241.15601 238.99890 236.86079 234.74368 232.63356 230.68245 228.86234
 227.16823 225.66312 224.31601 223.11090 222.01579 220.99868 220.12557 219.28945
 218.55434 217.75723 216.87812 216.26501 215.73790 214.76935 212.46759 210.93285
 211.15323 212.07333 213.26852 214.98517 217.82719 222.02948 227.43973 232.30283
 236.21854 240.52429 244.94174 249.26291 253.28033 256.88254 260.14090 263.21689
 266.15930 268.90985 271.49078 273.91473 276.05865 277.88956 279.44577 280.85492
 282.20908 283.48083 284.77820 286.14212 287.40103 288.56760 289.63193 290.59613
 291.46332 292.23557 292.91019 293.76990
 366.78100 356.35415 345.80529 334.69044 323.11258 311.32573 299.21488 287.03702
 274.76817 262.68431 250.71246 240.03260 230.17375 221.29690 213.49804 206.51919
 200.37233 195.32948 191.93063 189.99177 189.04792 189.13106 189.98521 191.31235
 193.05650 195.17065 197.45279 199.83094 202.29508 204.79423 206.90138 208.76252
 210.40767 211.57181 211.81996 212.06711 212.02325 211.74740 211.39954 211.04869
 210.68483 210.41398 210.24113 210.12427 210.07142 210.42156 210.82671 211.23486
 212.04700 213.24415 214.51329 216.31544 218.26258 220.32473 222.43888 224.54102
 226.62017 228.72331 230.83946 232.96461 235.11275 237.30390 239.57904 241.96819
 244.60834 246.87848 248.89963 250.68377 252.11992 253.26206 254.10321 254.43836
 254.49450 254.28765 253.66679 252.63394 251.25909 249.43923 247.36738 245.21952
 243.02967 240.85282 238.69196 236.55011 234.42925 232.31540 230.36054 228.53669
 226.83884 225.32998 223.97913 222.77027 221.67142 220.65057 219.77371 218.93386
 218.19500 217.39415 216.51129 215.89444 215.36359 214.54903 212.61786 211.07155
 210.80721 211.90059 213.38483 215.13829 217.89796 222.02596 227.50713 232.24022
 236.18831 240.44295 244.83008 249.09966 253.06267 256.62643 259.85144 262.88080
 265.79791 268.58783 271.23987 273.73898 275.99481 277.97171 279.69742 281.22635
 282.60718 283.87711 285.04416 286.15204 287.24130 288.29501 289.28302 290.20465
 291.07843 291.85843 292.53983 293.40817
 366.78100 356.35510 345.80719 334.69329 323.11638 311.33048 299.22057 287.04367
 274.77576 262.69286 250.72196 240.04305 230.18515 221.30924 213.51134 206.53343
 200.38753 195.34562 191.94772 190.00982 189.06691 189.15101 190.00610 191.33420
 193.07929 195.19439 197.47748 199.85658 202.32168 204.82177 206.92987 208.79196
 210.43806 211.60315 211.85225 212.10034 212.05744 211.78254 211.43563 211.08573
 210.72282 210.45292 210.28101 210.16511 210.11321 210.46430 210.87040 211.27949
 212.09259 213.29068 214.56078 216.36387 218.31197 220.37507 222.49016 224.59326
 226.67335 228.77745 230.89454 233.02064 235.16973 237.36183 239.63793 242.02802
 244.66912 246.94021 248.96231 250.74740 252.18450 253.32759 254.16969 254.50579
 254.56288 254.35698 253.73707 252.70517 251.33126 249.51236 247.44145 245.29455
 243.10565 240.92974 238.76984 236.62893 234.50903 232.39612 230.44222 228.61931
 226.92241 225.41451 224.06460 222.85670 221.75879 220.73889 219.86298 219.02408
 218.28617 217.48627 216.60437 215.98846 215.45856 214.58174 212.51018 211.21272
 210.87357 211.77275 213.30782 215.09044 217.83455 222.01904 227.62679 232.25946
 236.23912 240.47925 244.88495 249.18387 253.18646 256.75400 259.92621 262.86835
 265.71091 268.40253 270.95352 273.42111 275.67368 277.65170 279.42267 281.02835
 282.49896 283.82202 285.02405 286.11435 287.09375 288.03555 288.98239 289.83408
 290.53763 291.11026 291.61932 292.27835
 366.78100 356.35594 345.80889 334.69583 323.11978 311.33472 299.22566 287.04961
 274.78255 262.70049 250.73044 240.05238 230.19533 221.32027 213.52321 206.54616
 200.40110 195.36004 191.96299 190.02593 189.08388 189.16882 190.02476 191.35371
 193.09965 195.21560 197.49954 199.87948 202.34543 204.84637 206.95531 208.81826
 210.46520 211.63115 211.88109 212.13003 212.08798 211.81392 211.46786 211.11881
 210.75675 210.48770 210.31664 210.20158 210.15053 210.50247 210.90942 211.31936
 212.13330 213.33225 214.60319 216.40713 218.35608 220.42002 222.53597 224.63991
 226.72085 228.82580 230.94374 233.07068 235.22063 237.41357 239.69052 242.08146
 244.72340 246.99535 249.01829 250.80424 252.24218 253.38612 254.22907 254.56601
 254.62395 254.41890 253.79984 252.76879 251.39573 249.57767 247.50762 245.36156
 243.17350 240.99845 238.83939 236.69934 234.58028 232.46822 230.51517 228.69311
 226.99706 225.49000 224.14094 222.93389 221.83683 220.81777 219.94272 219.10466
 218.36761 217.56855 216.68749 216.07244 215.54338 214.63716 212.49646 211.19965
 210.97231 211.72905 213.20976 215.03746 217.81335 222.00592 227.61633 232.27005
 236.21500 240.47195 244.88676 249.20044 253.21648 256.79333 259.97012 262.91705
 265.76266 268.44031 270.94208 273.36258 275.58008 277.52502 279.24475 280.80438
 282.25000 283.58084 284.80481 285.92514 286.92938 287.88840 288.81775 289.63971
 290.19818 290.51328 291.05743 291.75092
 366.78100 356.35654 345.81008 334.69762 323.12216 311.33770 299.22924 287.05378
 274.78732 262.70586 250.73640 240.05894 230.20248 221.32802 213.53156 206.55510
 200.41064 195.37018 191.97372 190.03726 189.09580 189.18134 190.03788 191.36742
 193.11396 195.23050 197.51504 199.89558 202.36212 204.86366 206.97320 208.83674
 210.48428 211.65082 211.90136 212.15090 212.10944 211.83598 211.49052 211.14206
 210.78060 210.51214 210.34168 210.22722 210.17676 210.52930 210.93684 211.34738
 212.16192 213.36146 214.63300 216.43754 218.38708 220.45162 222.56816 224.67270
 226.75424 228.85978 230.97832 233.10586 235.25640 237.44994 239.72748 242.11902
 244.76156 247.03410 249.05764 250.84418 252.28272 253.42726 254.27080 254.60834
 254.66688 254.46242 253.84396 252.81350 251.44104 249.62358 247.55412 245.40866
 243.22120 241.04674 238.88828 236.74882 234.63036 232.51890 230.56644 228.74498
 227.04952 225.54306 224.19460 222.98814 221.89168 220.87322 219.99876 219.16130
 218.42484 217.62638 216.74592 216.13146 215.60300 214.68161 212.51106 211.26558
 210.96312 211.65973 213.23221 215.09680 217.86111 222.00830 227.54852 232.22527
 236.14262 240.41096 244.82512 249.13319 253.12465 256.67987 259.86682 262.86569
 265.75916 268.46759 270.99478 273.41827 275.64395 277.60144 279.31717 280.84286
 282.22055 283.46909 284.62482 285.69806 286.68546 287.59009 288.45950 289.27707
 290.06256 290.78354 291.41336 292.21600
 366.78100 356.35675 345.81049 334.69824 323.12298 311.33873 299.23047 287.05522
 274.78897 262.70771 250.73846 240.06120 230.20495 221.33070 213.53444 206.55819
 200.41393 195.37368 191.97742 190.04117 189.09992 189.18566 190.04241 191.37215
 193.11890 195.23565 197.52039 199.90114 202.36788 204.86963 206.97937 208.84312
 210.49087 211.65761 211.90836 212.15810 212.11685 211.84359 211.49834 211.15009
 210.78883 210.52058 210.35032 210.23607 210.18582 210.53856 210.94631 211.35705
 212.17180 213.37154 214.64329 216.44804 218.39778 220.46253 222.57927 224.68402
 226.76577 228.87151 230.99026 233.11800 235.26875 237.46249 239.74024 242.13199
 244.77473 247.04748 249.07122 250.85797 252.29672 253.44146 254.28521 254.62295
 254.68170 254.47744 253.85919 252.82894 251.45668 249.63943 247.57017 245.42492
 243.23766 241.06341 238.90516 236.76590 234.64765 232.53639 230.58414 228.76289
 227.06763 225.56138 224.21312 223.00687 221.91061 220.89236 220.01811 219.18085
 218.44460 217.64634 216.76609 216.15184 215.62358 214.70705 212.55038 211.27654
 210.97050 211.61783 213.24352 215.18834 217.91823 221.98985 227.48175 232.18756
 236.05971 240.34433 244.76247 249.06798 253.03497 256.55807 259.73099 262.74829
 265.68143 268.41766 270.96927 273.41647 275.67917 277.68964 279.45682 281.00751
 282.39288 283.62183 284.72763 285.74002 286.67938 287.62543 288.58844 289.50824
 290.35989 291.11829 291.78082 292.62515
 366.78100 356.35715 345.81131 334.69946 323.12461 311.34077 299.23292 287.05807
 274.79223 262.71138 250.74254 240.06569 230.20984 221.33600 213.54015 206.56430
 200.42046 195.38061 191.98476 190.04892 189.10807 189.19422 190.05138 191.38153
 193.12868 195.24584 197.53099 199.91215 202.37930 204.88145 206.99161 208.85576
 210.50391 211.67107 211.92222 212.17237 212.13153 211.85868 211.51383 211.16599
 210.80514 210.53729 210.36745 210.25360 210.20376 210.55691 210.96506 211.37622
 212.19137 213.39152 214.66368 216.46883 218.41898 220.48414 222.60129 224.70644
 226.78860 228.89475 231.01390 233.14206 235.29321 237.48736 239.76552 242.15767
 244.80083 247.07398 249.09813 250.88529 252.32444 253.46959 254.31375 254.65190
 254.71105 254.50721 253.88936 252.85951 251.48767 249.67082 247.60197 245.45713
 243.27028 241.09644 238.93859 236.79974 234.68190 232.57105 230.61920 228.79836
 227.10351 225.59766 224.24982 223.04397 221.94812 220.93028 220.05643 219.21958
 218.48374 217.68589 216.80605 216.19220 215.66435 214.75180 212.59669 211.15758
 210.99249 211.56799 213.13252 215.24867 218.05327 222.05473 227.44374 232.15985
 236.00961 240.30441 244.73409 249.04555 253.00079 256.50381 259.66510 262.67694
 265.60956 268.33740 270.89743 273.35727 275.63577 277.66757 279.45636 281.02719
 282.41022 283.65115 284.76910 285.73688 286.73566 287.78906 288.81955 289.78735
 290.65778 291.43289 292.11002 292.97293
 366.78100 356.35566 345.80832 334.69499 323.11865 311.33331 299.22397 287.04763
 274.78029 262.69796 250.72762 240.04928 230.19194 221.31660 213.51927 206.54193
 200.39659 195.35525 191.95791 190.02057 189.07824 189.16290 190.01856 191.34722
 193.09288 195.20855 197.49221 199.87187 202.33753 204.83819 206.94685 208.80952
 210.45618 211.62184 211.87150 212.12016 212.07783 211.80349 211.45715 211.10781
 210.74547 210.47613 210.30480 210.18946 210.13812 210.48978 210.89644 211.30611
 212.11977 213.31843 214.58909 216.39275 218.34141 220.40508 222.52074 224.62440
 226.70506 228.80972 230.92739 233.05405 235.20371 237.39637 239.67303 242.06369
 244.70536 246.97702 248.99968 250.78534 252.22300 253.36667 254.20933 254.54599
 254.60365 254.39831 253.77898 252.74764 251.37430 249.55596 247.48562 245.33928
 243.15095 240.97561 238.81627 236.67593 234.55659 232.44426 230.49092 228.66858
 226.97224 225.46490 224.11556 222.90823 221.81089 220.79155 219.91621 219.07787
 218.34054 217.54120 216.65986 216.04452 215.51518 214.69672 212.73392 211.04736
 210.89484 211.58391 213.16344 215.35063 218.19560 222.16011 227.47333 232.16504
 236.01134 240.30695 244.74562 249.06705 253.01857 256.49225 259.62540 262.62842
 265.56250 268.25790 270.77954 273.24289 275.52905 277.56516 279.33823 280.88647
 282.27982 283.50482 284.59543 285.80124 286.99936 288.12106 289.23517 290.24448
 291.15222 291.96060 292.66675 293.56668
 366.78100 356.35352 345.80404 334.68856 323.11007 311.32259 299.21111 287.03263
 274.76315 262.67867 250.70619 240.02571 230.16622 221.28874 213.48926 206.50978
 200.36230 195.31882 191.91934 189.97986 189.03537 189.11789 189.97141 191.29793
 193.04145 195.15497 197.43649 199.81401 202.27752 204.77604 206.88256 208.74308
 210.38760 211.55112 211.79864 212.04516 212.00067 211.72419 211.37571 211.02423
 210.65975 210.38827 210.21479 210.09731 210.04382 210.39334 210.79786 211.20538
 212.01690 213.21342 214.48194 216.28346 218.22997 220.29149 222.40501 224.50653
 226.58505 228.68757 230.80309 232.92760 235.07512 237.26564 239.54016 241.92868
 244.56820 246.83772 248.85824 250.64175 252.07727 253.21879 254.05931 254.39383
 254.44935 254.24187 253.62039 252.58690 251.21142 249.39094 247.31846 245.16998
 242.97950 240.80202 238.64054 236.49805 234.37657 232.26209 230.30661 228.48213
 226.78365 225.27417 223.92269 222.71320 221.61372 220.59224 219.71476 218.87428
 218.13480 217.33332 216.44984 215.83235 215.30087 214.57202 212.83232 211.12822
 210.84230 211.46106 213.09438 215.36525 218.23122 222.19989 227.53745 232.18341
 236.01840 240.31111 244.75096 249.07217 253.01407 256.47678 259.59509 262.58270
 265.47760 268.18378 270.71951 273.16345 275.44016 277.47046 279.23709 280.76971
 282.12335 283.33603 284.44818 285.56833 286.69403 287.72568 288.67615 289.56116
 290.37244 291.09488 291.72601 292.53030
 366.78100 356.35273 345.80247 334.68620 323.10693 311.31867 299.20640 287.02714
 274.75687 262.67160 250.69834 240.01707 230.15680 221.27854 213.47827 206.49800
 200.34974 195.30547 191.90521 189.96494 189.01967 189.10141 189.95414 191.27987
 193.02261 195.13534 197.41608 199.79281 202.25554 204.75328 206.85901 208.71874
 210.36248 211.52521 211.77194 212.01768 211.97241 211.69515 211.34588 210.99361
 210.62835 210.35608 210.18181 210.06355 210.00928 210.35801 210.76175 211.16848
 211.97922 213.17495 214.44268 216.24342 218.18915 220.24988 222.36262 224.46335
 226.54109 228.64282 230.75755 232.88129 235.02802 237.21775 239.49149 241.87922
 244.51795 246.78669 248.80642 250.58916 252.02389 253.16462 254.00436 254.33809
 254.39282 254.18456 253.56229 252.52802 251.15176 249.33049 247.25723 245.10796
 242.91669 240.73843 238.57616 236.43289 234.31063 232.19536 230.23910 228.41383
 226.71456 225.20430 223.85203 222.64176 221.54150 220.51923 219.64096 218.79970
 218.05943 217.25717 216.37290 215.75463 215.22237 214.50551 212.81186 211.26683
 211.00444 211.41658 212.99323 215.28284 218.11070 222.12434 227.56007 232.10355
 235.95604 240.24364 244.69122 249.02092 252.96640 256.41949 259.51810 262.50742
 265.42279 268.15747 270.67642 273.08591 275.35925 277.41870 279.24252 280.81973
 282.17471 283.34094 284.38254 285.37637 286.35550 287.28088 288.15073 288.99585
 289.77155 290.46469 291.01126 291.63449
 366.78100 356.35157 345.80015 334.68272 323.10229 311.31287 299.19944 287.01901
 274.74758 262.66116 250.68673 240.00430 230.14288 221.26345 213.46202 206.48060
 200.33117 195.28574 191.88432 189.94289 188.99646 189.07703 189.92861 191.25318
 192.99475 195.10633 197.38590 199.76147 202.22305 204.71962 206.82419 208.68277
 210.32534 211.48691 211.73248 211.97706 211.93063 211.65220 211.30178 210.94835
 210.58192 210.30850 210.13307 210.01364 209.95822 210.30579 210.70836 211.11393
 211.92351 213.11808 214.38465 216.18423 218.12880 220.18837 222.29995 224.39952
 226.47609 228.57667 230.69024 232.81281 234.95838 237.14696 239.41953 241.80610
 244.44368 246.71125 248.72982 250.51140 251.94497 253.08454 253.92312 254.25569
 254.30926 254.09983 253.47641 252.44098 251.06355 249.24113 247.16670 245.01627
 242.82385 240.64442 238.48099 236.33657 234.21314 232.09671 230.13928 228.31286
 226.61243 225.10100 223.74758 222.53615 221.43472 220.41130 219.53187 218.68944
 217.94802 217.14459 216.25916 215.63973 215.10631 214.43819 212.85966 211.33936
 210.91518 211.49268 213.09700 215.28703 218.07233 222.10257 227.54295 232.01485
 235.88551 240.16647 244.62241 248.94630 252.85913 256.27393 259.37628 262.41861
 265.39923 268.17368 270.70935 273.11798 275.38354 277.44678 279.28232 280.85178
 282.17191 283.29178 284.25635 285.17755 286.14807 287.07230 287.89108 288.74097
 289.52478 290.22403 290.83197 291.56790
 366.78100 356.35286 345.80272 334.68659 323.10745 311.31931 299.20717 287.02804
 274.75790 262.67276 250.69962 240.01849 230.15835 221.28021 213.48007 206.49994
 200.35180 195.30766 191.90752 189.96739 189.02225 189.10411 189.95697 191.28284
 193.02570 195.13856 197.41942 199.79629 202.25915 204.75701 206.86287 208.72274
 210.36660 211.52946 211.77632 212.02219 211.97705 211.69991 211.35077 210.99864
 210.63350 210.36136 210.18722 210.06909 210.01495 210.36381 210.76767 211.17454
 211.98540 213.18126 214.44912 216.24998 218.19585 220.25671 222.36957 224.47043
 226.54830 228.65016 230.76502 232.88888 235.03575 237.22561 239.49947 241.88733
 244.52620 246.79506 248.81492 250.59778 252.03265 253.17351 254.01337 254.34723
 254.40210 254.19396 253.57182 252.53768 251.16155 249.34041 247.26727 245.11813
 242.92700 240.74886 238.58672 236.44358 234.32145 232.20631 230.25017 228.42503
 226.72590 225.21576 223.86362 222.65348 221.55335 220.53121 219.65307 218.81193
 218.07179 217.26966 216.38552 215.76738 215.23524 214.50516 212.78027 211.42268
 210.83958 211.50954 213.19365 215.32382 218.13599 222.14732 227.55724 231.99181
 235.87639 240.14420 244.60149 248.91400 252.79474 256.17206 259.26801 262.32864
 265.33359 268.13437 270.70816 273.14865 275.42975 277.50977 279.35452 280.90140
 282.17300 283.24237 284.14163 285.02155 286.00156 286.91696 287.82330 288.68137
 289.46207 290.16568 290.77466 291.55496
 366.78100 356.35303 345.80305 334.68708 323.10811 311.32014 299.20816 287.02919
 274.75922 262.67424 250.70127 240.02030 230.16033 221.28235 213.48238 206.50241
 200.35443 195.31046 191.91049 189.97051 189.02554 189.10757 189.96060 191.28662
 193.02965 195.14268 197.42370 199.80073 202.26376 204.76179 206.86781 208.72784
 210.37187 211.53489 211.78192 212.02795 211.98298 211.70600 211.35703 211.00506
 210.64008 210.36811 210.19414 210.07616 210.02219 210.37122 210.77525 211.18227
 211.99330 213.18933 214.45735 216.25838 218.20441 220.26544 222.37846 224.47949
 226.55752 228.65954 230.77457 232.89860 235.04563 237.23565 239.50968 241.89771
 244.53673 246.80576 248.82579 250.60882 252.04384 253.18487 254.02490 254.35892
 254.41395 254.20598 253.58400 252.55003 251.17406 249.35309 247.28011 245.13114
 242.94017 240.76219 238.60022 236.45725 234.33528 232.22030 230.26433 228.43936
 226.74038 225.23041 223.87844 222.66847 221.56849 220.54652 219.66855 218.82757
 218.08760 217.28563 216.40165 215.78368 215.25171 214.51669 212.78012 211.44620
 210.92676 211.41815 213.13750 215.29883 218.13835 222.15424 227.55609 231.97905
 235.88132 240.14633 244.61363 248.93665 252.82256 256.18863 259.26089 262.28668
 265.25500 268.01883 270.57831 273.03320 275.34674 277.46375 279.33505 280.88989
 282.14853 283.19553 284.04443 284.89185 285.85852 286.79309 287.72964 288.58804
 289.36758 290.06454 290.67267 291.45410
 366.78100 356.35105 345.79910 334.68115 323.10020 311.31025 299.19630 287.01535
 274.74340 262.65646 250.68151 239.99856 230.13661 221.25666 213.45471 206.47276
 200.32281 195.27686 191.87491 189.93296 188.98601 189.06606 189.91711 191.24116
 192.98221 195.09327 197.37232 199.74737 202.20842 204.70447 206.80852 208.66657
 210.30862 211.46967 211.71472 211.95877 211.91182 211.63287 211.28192 210.92797
 210.56102 210.28708 210.11113 209.99118 209.93523 210.28228 210.68433 211.08938
 211.89843 213.09248 214.35853 216.15758 218.10163 220.16068 222.27173 224.37078
 226.44683 228.54689 230.65994 232.78199 234.92704 237.11509 239.38714 241.77319
 244.41024 246.67729 248.69534 250.47639 251.90944 253.04849 253.88654 254.21859
 254.27164 254.06170 253.43775 252.40180 251.02385 249.20090 247.12595 244.97500
 242.78205 240.60210 238.43815 236.29320 234.16925 232.05230 230.09435 228.26740
 226.56645 225.05451 223.70056 222.48861 221.38666 220.36271 219.48276 218.63981
 217.89786 217.09391 216.20796 215.58801 215.05406 214.41457 212.90367 211.42021
 211.03262 211.38863 213.06180 215.25826 218.06781 222.10823 227.51787 231.95113
 235.85744 240.12881 244.61145 248.95454 252.85995 256.23499 259.29678 262.29965
 265.23898 267.96191 270.47043 272.89218 275.21140 277.35696 279.25974 280.83725
 282.10562 283.14484 283.95844 284.77768 285.74295 286.68018 287.58127 288.43399
 289.20432 289.89188 290.49670 291.28513
 366.78100 356.34964 345.79628 334.67693 323.09457 311.30321 299.18785 287.00549
 274.73214 262.64378 250.66742 239.98306 230.11970 221.23835 213.43499 206.45163
 200.30027 195.25292 191.84956 189.90620 188.95784 189.03648 189.88613 191.20877
 192.94841 195.05805 197.33569 199.70934 202.16898 204.66362 206.76626 208.62290
 210.26355 211.42319 211.66683 211.90947 211.86111 211.58076 211.22840 210.87304
 210.50468 210.22933 210.05197 209.93061 209.87325 210.21889 210.61954 211.02318
 211.83082 213.02346 214.28810 216.08575 218.02839 220.08603 222.19567 224.29331
 226.36796 228.46660 230.57824 232.69888 234.84252 237.02917 239.29981 241.68445
 244.32009 246.58574 248.60238 250.38202 251.81366 252.95130 253.78795 254.11859
 254.17023 253.95887 253.33351 252.29616 250.91680 249.09244 247.01608 244.86372
 242.66937 240.48801 238.32265 236.17629 234.05093 231.93258 229.97322 228.14486
 226.44250 224.92915 223.57379 222.36043 221.25707 220.23171 219.35036 218.50600
 217.76264 216.95728 216.06992 215.44857 214.91321 214.34103 212.98923 211.44804
 211.04625 211.41917 213.05426 215.25511 218.00967 222.06725 227.47955 231.92413
 235.81090 240.09216 244.58557 248.93777 252.84192 256.20932 259.27310 262.28983
 265.24353 267.96399 270.44131 272.81592 275.10733 277.25183 279.16272 280.75241
 282.02548 283.05234 283.84912 284.66391 285.62814 286.55661 287.45233 288.30746
 289.08444 289.78003 290.38858 291.17148
 366.78100 356.34932 345.79563 334.67595 323.09326 311.30158 299.18589 287.00321
 274.72952 262.64084 250.66415 239.97947 230.11578 221.23410 213.43042 206.44673
 200.29505 195.24736 191.84368 189.89999 188.95131 189.02962 189.87894 191.20125
 192.94057 195.04988 197.32720 199.70052 202.15983 204.65415 206.75646 208.61278
 210.25309 211.41241 211.65572 211.89804 211.84935 211.56867 211.21598 210.86030
 210.49162 210.21593 210.03825 209.91656 209.85888 210.20419 210.60451 211.00782
 211.81514 213.00745 214.27177 216.06908 218.01140 220.06872 222.17803 224.27535
 226.34966 228.44798 230.55929 232.67961 234.82292 237.00924 239.27955 241.66387
 244.29918 246.56450 248.58082 250.36013 251.79145 252.92876 253.76508 254.09539
 254.14671 253.93502 253.30934 252.27165 250.89197 249.06728 246.99060 244.83792
 242.64323 240.46155 238.29586 236.14918 234.02349 231.90481 229.94512 228.11644
 226.41375 224.90007 223.54439 222.33070 221.22702 220.20133 219.31965 218.47496
 217.73128 216.92559 216.03791 215.41622 214.88054 214.32260 213.00438 211.55873
 211.02078 211.40065 213.01564 215.25235 218.02527 222.06729 227.46178 231.91248
 235.77258 240.06262 244.56264 248.91853 252.80617 256.14841 259.21112 262.25323
 265.23434 267.97214 270.44470 272.78598 275.03543 277.14935 279.04413 280.62659
 281.89206 282.90198 283.69632 284.52850 285.51715 286.44818 287.35800 288.21619
 288.99738 289.69614 290.31223 291.10440
 366.78100 356.34937 345.79575 334.67612 323.09349 311.30186 299.18624 287.00361
 274.72998 262.64136 250.66473 239.98010 230.11647 221.23485 213.43122 206.44759
 200.29597 195.24834 191.84471 189.90109 188.95246 189.03083 189.88020 191.20258
 192.94195 195.05132 197.32870 199.70207 202.16144 204.65581 206.75819 208.61456
 210.25493 211.41431 211.65768 211.90005 211.85142 211.57080 211.21817 210.86254
 210.49392 210.21829 210.04066 209.91904 209.86141 210.20678 210.60715 211.01053
 211.81790 213.01027 214.27465 216.07202 218.01439 220.07176 222.18114 224.27851
 226.35288 228.45126 230.56263 232.68300 234.82637 237.01275 239.28312 241.66749
 244.30287 246.56824 248.58461 250.36399 251.79536 252.93273 253.76910 254.09948
 254.15085 253.93922 253.31360 252.27597 250.89634 249.07171 246.99509 244.84246
 242.64783 240.46621 238.30058 236.15395 234.02832 231.90970 229.95007 228.12144
 226.41882 224.90519 223.54956 222.33594 221.23231 220.20668 219.32505 218.48043
 217.73680 216.93117 216.04355 215.42192 214.88629 214.32159 212.98746 211.71931
 211.04161 211.32614 212.90422 215.17801 218.03365 222.09261 227.47380 231.93388
 235.76183 240.05507 244.55673 248.91562 252.78857 256.10977 259.16885 262.22946
 265.22333 267.96863 270.44016 272.76169 274.96951 277.03766 278.89557 280.45538
 281.70996 282.71933 283.54242 284.41205 285.39514 286.35324 287.29175 288.15485
 288.93845 289.64377 290.26083 291.05881
 366.78100 356.34881 345.79463 334.67444 323.09125 311.29906 299.18288 286.99969
 274.72550 262.63632 250.65913 239.97394 230.10976 221.22757 213.42338 206.43919
 200.28701 195.23882 191.83463 189.89045 188.94126 189.01907 189.86788 191.18970
 192.92851 195.03732 197.31414 199.68695 202.14576 204.63957 206.74139 208.59720
 210.23701 211.39583 211.63864 211.88045 211.83127 211.55008 211.19689 210.84070
 210.47152 210.19533 210.01714 209.89496 209.83677 210.18158 210.58139 210.98421
 211.79102 212.98283 214.24665 216.04346 217.98527 220.04208 222.15090 224.24771
 226.32152 228.41934 230.53015 232.64996 234.79278 236.97859 239.24840 241.63221
 244.26703 246.53184 248.54765 250.32647 251.75728 252.89409 253.72990 254.05972
 254.11053 253.89834 253.27216 252.23397 250.85378 249.02859 246.95141 244.79822
 242.60303 240.42085 238.25466 236.10747 233.98129 231.86210 229.90191 228.07272
 226.36954 224.85535 223.49916 222.28498 221.18079 220.15460 219.27241 218.42723
 217.68304 216.87685 215.98867 215.36648 214.83029 214.29001 213.01350 211.82310
 211.13315 211.32617 212.72382 215.02052 218.01541 222.10387 227.47321 231.95039
 235.76453 240.05862 244.56007 248.91914 252.78252 256.09457 259.15646 262.22995
 265.22308 267.96609 270.43613 272.74234 274.90665 276.91992 278.73657 280.27493
 281.52106 282.54001 283.38516 284.27716 285.29730 286.29480 287.24142 288.10587
 288.89291 289.59644 290.21664 291.01144
 366.78100 356.34814 345.79327 334.67241 323.08854 311.29568 299.17881 286.99495
 274.72008 262.63022 250.65235 239.96649 230.10163 221.21876 213.41390 206.42903
 200.27617 195.22730 191.82244 189.87757 188.92771 189.00484 189.85298 191.17411
 192.91225 195.02039 197.29652 199.66866 202.12679 204.61993 206.72106 208.57620
 210.21533 211.37347 211.61560 211.85674 211.80688 211.52501 211.17115 210.81428
 210.44442 210.16755 209.98869 209.86582 209.80696 210.15109 210.55023 210.95237
 211.75850 212.94964 214.21277 216.00891 217.95004 220.00618 222.11431 224.21045
 226.28358 228.38072 230.49085 232.60999 234.75213 236.93726 239.20640 241.58953
 244.22367 246.48780 248.50294 250.28107 251.71121 252.84734 253.68248 254.01162
 254.06175 253.84889 253.22202 252.18316 250.80229 248.97643 246.89856 244.74470
 242.54883 240.36597 238.19911 236.05124 233.92438 231.80451 229.84365 228.01378
 226.30992 224.79505 223.43819 222.22332 221.11846 220.09159 219.20873 218.36287
 217.61800 216.81114 215.92227 215.29941 214.76254 214.25768 213.06488 211.88635
 211.20354 211.37039 212.64639 214.86664 217.91238 222.05800 227.42342 231.96405
 235.76819 240.06915 244.56029 248.90533 252.75679 256.08038 259.16046 262.23822
 265.21820 267.95813 270.43875 272.74374 274.88065 276.84155 278.60715 280.11429
 281.34946 282.36435 283.25641 284.22025 285.29672 286.34128 287.30283 288.18210
 288.98764 289.72641 290.43930 291.34778
 366.78100 356.34866 345.79432 334.67398 323.09064 311.29830 299.18197 286.99863
 274.72429 262.63495 250.65761 239.97227 230.10793 221.22559 213.42125 206.43691
 200.28458 195.23624 191.83190 189.88756 188.93822 189.01588 189.86454 191.18620
 192.92486 195.03352 197.31018 199.68285 202.14151 204.63517 206.73683 208.59249
 210.23215 211.39081 211.63347 211.87513 211.82579 211.54445 211.19112 210.83478
 210.46544 210.18910 210.01076 209.88842 209.83008 210.17474 210.57440 210.97706
 211.78373 212.97539 214.23905 216.03571 217.97737 220.03403 222.14269 224.23935
 226.31301 228.41067 230.52133 232.64100 234.78366 236.96932 239.23898 241.62264
 244.25730 246.52196 248.53762 250.31628 251.74694 252.88360 253.71927 254.04893
 254.09959 253.88725 253.26091 252.22257 250.84223 249.01689 246.93955 244.78621
 242.59088 240.40854 238.24220 236.09486 233.96852 231.84918 229.88884 228.05950
 226.35616 224.84182 223.48548 222.27115 221.16681 220.14047 219.25813 218.41279
 217.66845 216.86211 215.97377 215.35143 214.81509 214.28516 213.03314 211.99846
 211.33640 211.34944 212.52586 214.76826 217.87553 222.03992 227.38770 231.94943
 235.77254 240.07625 244.56279 248.89828 252.73466 256.05487 259.14386 262.23019
 265.20389 267.94406 270.43555 272.74329 274.85855 276.78030 278.51080 280.01303
 281.26004 282.28470 283.19409 284.17963 285.29028 286.34052 287.30624 288.19421
 289.01340 289.79532 290.51538 291.43301
 366.78100 356.34848 345.79396 334.67344 323.08993 311.29741 299.18089 286.99737
 274.72285 262.63333 250.65581 239.97030 230.10578 221.22326 213.41874 206.43422
 200.28170 195.23319 191.82867 189.88415 188.93463 189.01211 189.86059 191.18207
 192.92056 195.02904 197.30552 199.67800 202.13648 204.62996 206.73144 208.58693
 210.22641 211.38489 211.62737 211.86885 211.81933 211.53782 211.18430 210.82778
 210.45826 210.18174 210.00322 209.88070 209.82219 210.16667 210.56615 210.96863
 211.77511 212.96659 214.23007 216.02656 217.96804 220.02452 222.13300 224.22948
 226.30296 228.40045 230.51093 232.63041 234.77289 236.95837 239.22785 241.61133
 244.24582 246.51030 248.52578 250.30426 251.73474 252.87122 253.70670 254.03619
 254.08667 253.87415 253.24763 252.20911 250.82859 249.00308 246.92556 244.77204
 242.57652 240.39400 238.22748 236.07996 233.95345 231.83393 229.87341 228.04389
 226.34037 224.82585 223.46933 222.25482 221.15030 220.12378 219.24126 218.39574
 217.65122 216.84471 215.95619 215.33367 214.79715 214.28014 213.05759 212.06923
 211.50586 211.30562 212.36086 214.69466 217.86566 222.02771 227.34557 231.93190
 235.75270 240.06212 244.54707 248.87331 252.69653 256.01001 259.09897 262.18521
 265.15170 267.88513 270.38086 272.68729 274.78094 276.66895 278.38474 279.90775
 281.21313 282.33218 283.31033 284.24622 285.29977 286.35297 287.32297 288.21808
 289.06183 289.88632 290.60660 291.52448
 366.78100 356.34748 345.79196 334.67044 323.08592 311.29240 299.17488 286.99036
 274.71484 262.62432 250.64580 239.95928 230.09376 221.21024 213.40472 206.41920
 200.26568 195.21616 191.81064 189.86512 188.91460 188.99108 189.83856 191.15904
 192.89653 195.00401 197.27949 199.65097 202.10845 204.60093 206.70141 208.55589
 210.19437 211.35185 211.59333 211.83381 211.78329 211.50077 211.14625 210.78873
 210.41821 210.14069 209.96117 209.83765 209.77813 210.12161 210.52009 210.92157
 211.72705 212.91753 214.18001 215.97549 217.91597 219.97145 222.07893 224.17441
 226.24689 228.34337 230.45285 232.57133 234.71281 236.89729 239.16577 241.54825
 244.18173 246.44521 248.45969 250.23717 251.66665 252.80213 253.63662 253.96510
 254.01458 253.80106 253.17354 252.13402 250.75250 248.92598 246.84746 244.69294
 242.49642 240.31290 238.14538 235.99686 233.86934 231.74882 229.78730 227.95678
 226.25226 224.73674 223.37922 222.16370 221.05818 220.03066 219.14714 218.30062
 217.55510 216.74758 215.85806 215.23454 214.69702 214.24300 213.15863 212.06453
 211.51051 211.22144 212.24979 214.63103 217.86069 222.03226 227.32172 231.95869
 235.77019 240.08058 244.55978 248.86690 252.68683 256.02487 259.14886 262.22150
 265.15216 267.84659 270.31851 272.59409 274.63800 276.45218 278.12036 279.63202
 280.92783 282.04434 283.11520 284.40863 285.59875 286.66901 287.67868 288.68005
 289.61417 290.44601 291.17270 292.09875
 366.78100 356.34657 345.79014 334.66771 323.08228 311.28785 299.16942 286.98399
 274.70757 262.61614 250.63671 239.94928 230.08285 221.19842 213.39199 206.40556
 200.25113 195.20070 191.79427 189.84784 188.89641 188.97198 189.81855 191.13812
 192.87470 194.98127 197.25584 199.62641 202.08298 204.57455 206.67412 208.52769
 210.16526 211.32183 211.56240 211.80197 211.75054 211.46711 211.11168 210.75325
 210.38183 210.10340 209.92297 209.79854 209.73811 210.08068 210.47825 210.87882
 211.68339 212.87296 214.13453 215.92910 217.86867 219.92324 222.02981 224.12439
 226.19596 228.29153 230.40010 232.51767 234.65824 236.84181 239.10938 241.49095
 244.12352 246.38609 248.39966 250.17623 251.60480 252.73937 253.57294 253.90052
 253.94909 253.73466 253.10623 252.06580 250.68337 248.85594 246.77651 244.62108
 242.42365 240.23922 238.07079 235.92136 233.79293 231.67150 229.70907 227.87765
 226.17222 224.65579 223.29736 222.08093 220.97450 219.94607 219.06164 218.21421
 217.46778 216.65935 215.76892 215.14449 214.60606 214.19678 213.21834 212.11198
 211.57661 211.20236 212.17375 214.53575 217.78340 222.00337 227.33739 231.98820
 235.80446 240.11646 244.59904 248.92088 252.75523 256.10104 259.22446 262.30103
 265.22574 267.89978 270.33423 272.55273 274.50302 276.21228 277.78781 279.21857
 280.49158 281.72543 282.99362 284.29163 285.47409 286.53644 287.52127 288.46249
 289.36359 290.16602 290.86700 291.76035
 366.78100 356.34611 345.78921 334.66632 323.08043 311.28554 299.16664 286.98075
 274.70386 262.61196 250.63207 239.94418 230.07728 221.19239 213.38550 206.39861
 200.24371 195.19282 191.78593 189.83903 188.88714 188.96225 189.80836 191.12746
 192.86357 194.96968 197.24378 199.61389 202.07000 204.56111 206.66021 208.51332
 210.15043 211.30653 211.54664 211.78575 211.73385 211.44996 211.09407 210.73518
 210.36328 210.08439 209.90350 209.77860 209.71771 210.05982 210.45693 210.85703
 211.66114 212.85025 214.11135 215.90546 217.84457 219.89868 222.00478 224.09889
 226.17000 228.26510 230.37321 232.49032 234.63042 236.81353 239.08064 241.46175
 244.09385 246.35596 248.36907 250.14517 251.57328 252.70739 253.54050 253.86760
 253.91571 253.70082 253.07192 252.03103 250.64814 248.82024 246.74035 244.58446
 242.38657 240.20167 238.03278 235.88289 233.75399 231.63210 229.66921 227.83732
 226.13142 224.61453 223.25564 222.03874 220.93185 219.90296 219.01807 218.17017
 217.42328 216.61439 215.72349 215.09860 214.55971 214.16837 213.23991 212.22545
 211.74940 211.24216 212.10597 214.39697 217.64230 221.91060 227.29918 231.94130
 235.78960 240.09918 244.57973 248.89613 252.70116 256.02576 259.16241 262.29449
 265.25195 267.94675 270.38208 272.58023 274.49484 276.16428 277.71741 279.15460
 280.42624 281.59375 282.70251 283.88837 285.07129 286.12723 287.10184 288.00293
 288.85193 289.66034 290.36655 291.26651
 366.78100 356.34520 345.78741 334.66361 323.07681 311.28102 299.16122 286.97443
 274.69663 262.60383 250.62304 239.93424 230.06644 221.18065 213.37285 206.38505
 200.22926 195.17746 191.76966 189.82187 188.86907 188.94328 189.78848 191.10668
 192.84189 194.94709 197.22029 199.58950 202.04470 204.53490 206.63311 208.48531
 210.12152 211.27672 211.51592 211.75413 211.70133 211.41653 211.05974 210.69994
 210.32714 210.04735 209.86555 209.73975 209.67796 210.01916 210.41537 210.81457
 211.61777 212.80598 214.06618 215.85938 217.79759 219.85079 221.95599 224.04920
 226.11940 228.21361 230.32081 232.43701 234.57622 236.75842 239.02462 241.40483
 244.03603 246.29723 248.30944 250.08464 251.51185 252.64505 253.47725 253.80346
 253.85066 253.63486 253.00507 251.96327 250.57947 248.75068 246.66988 244.51308
 242.31429 240.12849 237.95870 235.80790 233.67810 231.55531 229.59151 227.75871
 226.05192 224.53412 223.17432 221.95653 220.84873 219.81894 218.93314 218.08434
 217.33655 216.52675 215.63495 215.00916 214.46936 214.13586 213.32919 212.29152
 211.72438 211.17062 212.06110 214.36058 217.61809 221.86714 227.24081 231.93471
 235.77002 240.08691 244.56110 248.84007 252.60455 255.90836 259.07870 262.23636
 265.21716 267.93069 270.39297 272.59692 274.47803 276.10876 277.66443 279.12228
 280.43903 281.66443 282.83853 283.97675 285.10968 286.18100 287.19443 288.22125
 289.15176 289.98041 290.70428 291.62680
 366.78100 356.34432 345.78564 334.66096 323.07328 311.27660 299.15592 286.96824
 274.68956 262.59588 250.61420 239.92452 230.05584 221.16916 213.36048 206.37180
 200.21512 195.16244 191.75376 189.80508 188.85140 188.92472 189.76904 191.08636
 192.82068 194.92500 197.19732 199.56563 202.01995 204.50927 206.60659 208.45791
 210.09323 211.24755 211.48587 211.72319 211.66951 211.38383 211.02615 210.66547
 210.29179 210.01111 209.82843 209.70175 209.63907 209.97939 210.37471 210.77303
 211.57535 212.76267 214.02199 215.81431 217.75163 219.80395 221.90827 224.00059
 226.06991 228.16323 230.26955 232.38487 234.52319 236.70451 238.96983 241.34915
 243.97947 246.23979 248.25111 250.02543 251.45175 252.58407 253.41539 253.74071
 253.78703 253.57035 252.93967 251.89699 250.51231 248.68263 246.60095 244.44327
 242.24359 240.05690 237.88622 235.73454 233.60386 231.48018 229.51550 227.68182
 225.97414 224.45546 223.09478 221.87610 220.76742 219.73674 218.85006 218.00038
 217.25170 216.44102 215.54834 214.92166 214.38098 214.10880 213.41527 212.34933
 211.68599 211.14101 212.07787 214.42299 217.70157 221.91988 227.27882 231.96397
 235.80928 240.12244 244.60387 248.86945 252.61458 255.89198 259.07065 262.24045
 265.22382 267.93362 270.39755 272.57562 274.40335 275.98889 277.49814 278.97305
 280.26065 281.51151 282.89014 284.27130 285.51871 286.77011 287.92578 288.97275
 289.91437 290.75287 291.48538 292.41888
 366.78100 356.34511 345.78722 334.66333 323.07644 311.28055 299.16066 286.97377
 274.69588 262.60299 250.62210 239.93321 230.06532 221.17943 213.37154 206.38365
 200.22776 195.17587 191.76798 189.82009 188.86720 188.94131 189.78642 191.10453
 192.83964 194.94475 197.21786 199.58697 202.04208 204.53219 206.63030 208.48241
 210.11852 211.27363 211.51274 211.75085 211.69796 211.41307 211.05618 210.69629
 210.32340 210.04351 209.86162 209.73573 209.67384 210.01495 210.41106 210.81017
 211.61328 212.80139 214.06150 215.85461 217.79272 219.84583 221.95094 224.04405
 226.11416 228.20827 230.31538 232.43148 234.57059 236.75270 239.01881 241.39892
 244.03003 246.29114 248.30325 250.07836 251.50547 252.63858 253.47069 253.79680
 253.84391 253.62802 252.99813 251.95624 250.57235 248.74346 246.66257 244.50568
 242.30679 240.12090 237.95101 235.80012 233.67023 231.54734 229.58345 227.75056
 226.04367 224.52578 223.16589 221.94800 220.84011 219.81022 218.92433 218.07544
 217.32755 216.51766 215.62577 214.99988 214.45999 214.15721 213.39702 212.43896
 211.77405 211.10971 212.00735 214.40607 217.72206 221.94661 227.31154 231.97600
 235.82556 240.13388 244.62222 248.89326 252.63478 255.89391 259.06046 262.23981
 265.21103 267.92224 270.39810 272.57932 274.36182 275.86728 277.31171 278.63339
 279.92059 281.38477 282.90027 284.29260 285.62683 286.88669 288.03613 289.07742
 290.01398 290.84796 291.57651 292.50497
 366.78100 356.34624 345.78949 334.66673 323.08097 311.28622 299.16746 286.98170
 274.70495 262.61319 250.63343 239.94568 230.07892 221.19416 213.38741 206.40065
 200.24589 195.19514 191.78838 189.84162 188.88987 188.96511 189.81135 191.13060
 192.86684 194.97308 197.24733 199.61757 202.07381 204.56506 206.66430 208.51754
 210.15479 211.31103 211.55127 211.79052 211.73876 211.45500 211.09925 210.74049
 210.36873 210.08998 209.90922 209.78446 209.72371 210.06595 210.46319 210.86344
 211.66768 212.85692 214.11817 215.91241 217.85165 219.90590 222.01214 224.10638
 226.17763 228.27287 230.38111 232.49836 234.63860 236.82184 239.08909 241.47033
 244.10257 246.36482 248.37806 250.15430 251.58255 252.71679 253.55003 253.87728
 253.92552 253.71076 253.08201 252.04125 250.65849 248.83074 246.75098 244.59522
 242.39747 240.21271 238.04395 235.89420 233.76544 231.64368 229.68093 227.84917
 226.14341 224.62666 223.26790 222.05114 220.94439 219.91563 219.03087 218.18312
 217.43636 216.62760 215.73685 215.11209 214.57333 214.22556 213.36574 212.45697
 211.96539 211.17336 211.91257 214.30408 217.64606 221.89360 227.26738 231.93192
 235.78543 240.08627 244.56552 248.82347 252.55632 255.82599 259.02765 262.24631
 265.23859 267.95316 270.43118 272.64194 274.42633 275.86584 277.17807 278.24353
 279.61124 281.09836 282.57498 283.96436 285.32901 286.59915 287.75797 288.80777
 289.75195 290.59274 291.32724 292.26328
 366.78100 356.34587 345.78875 334.66562 323.07950 311.28437 299.16525 286.97912
 274.70200 262.60987 250.62975 239.94162 230.07449 221.18937 213.38224 206.39512
 200.23999 195.18887 191.78174 189.83462 188.88249 188.95737 189.80324 191.12211
 192.85799 194.96386 197.23774 199.60761 202.06349 204.55436 206.65324 208.50611
 210.14299 211.29886 211.53873 211.77761 211.72548 211.44136 211.08523 210.72611
 210.35398 210.07486 209.89373 209.76860 209.70748 210.04935 210.44623 210.84610
 211.64998 212.83885 214.09973 215.89360 217.83248 219.88635 221.99222 224.08610
 226.15697 228.25185 230.35972 232.47660 234.61647 236.79935 239.06622 241.44710
 244.07897 246.34084 248.35372 250.12959 251.55747 252.69134 253.52422 253.85109
 253.89897 253.68384 253.05472 252.01359 250.63046 248.80234 246.72221 244.56609
 242.36796 240.18284 238.01371 235.86359 233.73446 231.61234 229.64921 227.81708
 226.11096 224.59383 223.23471 222.01758 220.91046 219.88133 218.99621 218.14808
 217.40096 216.59183 215.70070 215.07558 214.53645 214.20740 213.39978 212.47346
 211.96045 211.20869 211.85207 214.20164 217.55029 221.83861 227.20720 231.89803
 235.75195 240.05849 244.51732 248.74611 252.46100 255.75726 258.98514 262.22684
 265.23807 267.96350 270.44998 272.64737 274.40573 275.81412 277.09662 278.29416
 279.58130 280.87631 282.29892 283.67706 284.92224 286.18771 287.39529 288.48929
 289.47321 290.34937 291.11478 292.09021
 366.78100 356.34540 345.78780 334.66419 323.07759 311.28199 299.16239 286.97578
 274.69818 262.60558 250.62498 239.93637 230.06877 221.18317 213.37557 206.38796
 200.23236 195.18076 191.77316 189.82555 188.87295 188.94735 189.79275 191.11114
 192.84654 194.95194 197.22534 199.59473 202.05013 204.54053 206.63893 208.49132
 210.12772 211.28312 211.52252 211.76091 211.70831 211.42371 211.06711 210.70750
 210.33490 210.05530 209.87370 209.74809 209.68649 210.02789 210.42429 210.82368
 211.62708 212.81548 214.07588 215.86927 217.80767 219.86107 221.96647 224.05986
 226.13026 228.22466 230.33206 232.44846 234.58785 236.77025 239.03665 241.41705
 244.04844 246.30984 248.32224 250.09764 251.52503 252.65843 253.49083 253.81723
 253.86462 253.64902 253.01942 251.97782 250.59421 248.76561 246.68501 244.52841
 242.32980 240.14420 237.97460 235.82400 233.69439 231.57179 229.60819 227.77559
 226.06898 224.55138 223.19178 221.97418 220.86657 219.83697 218.95137 218.10277
 217.35516 216.54556 215.65396 215.02836 214.48875 214.16113 213.38446 212.66714
 212.08047 211.15068 211.68190 214.07809 217.42381 221.75771 227.20172 231.86699
 235.75105 240.05194 244.48335 248.71561 252.44897 255.77284 258.98492 262.19489
 265.18674 267.85617 270.25015 272.36365 274.13367 275.62524 277.01608 278.37283
 279.69284 280.96844 282.22391 283.38742 284.48569 285.51117 286.46841 287.34692
 288.20398 288.98514 289.66757 290.53723
 366.78100 356.34393 345.78486 334.65979 323.07172 311.27465 299.15358 286.96551
 274.68644 262.59237 250.61030 239.92023 230.05116 221.16409 213.35502 206.36594
 200.20887 195.15580 191.74673 189.79766 188.84359 188.91652 189.76045 191.07738
 192.81131 194.91524 197.18717 199.55510 202.00903 204.49796 206.59489 208.44582
 210.08075 211.23468 211.47261 211.70954 211.65547 211.36940 211.01133 210.65026
 210.27619 209.99512 209.81205 209.68497 209.62190 209.96183 210.35676 210.75469
 211.55662 212.74355 214.00248 215.79441 217.73134 219.78327 221.88720 223.97913
 226.04806 228.14099 230.24692 232.36185 234.49978 236.68071 238.94564 241.32457
 243.95450 246.21443 248.22536 249.99929 251.42522 252.55715 253.38808 253.71300
 253.75893 253.54186 252.91079 251.86772 250.48265 248.65258 246.57051 244.41244
 242.21237 240.02530 237.85423 235.70216 233.57109 231.44702 229.48195 227.64788
 225.93981 224.42074 223.05967 221.84060 220.73153 219.70046 218.81339 217.96332
 217.21425 216.40318 215.51011 214.88304 214.34196 214.11145 213.53212 212.62074
 212.11180 211.15565 211.68028 214.03958 217.41019 221.72710 227.13217 231.85291
 235.71147 240.01199 244.43538 248.62691 252.34634 255.70012 258.97986 262.21851
 265.21439 267.88510 270.24326 272.25870 273.90930 275.33472 276.71829 278.13708
 279.60721 281.02399 282.31177 283.50327 284.69577 285.82501 286.93118 287.93329
 288.83456 289.63715 290.33829 291.23181
 366.78100 356.34363 345.78426 334.65888 323.07051 311.27314 299.15177 286.96340
 274.68402 262.58965 250.60728 239.91691 230.04754 221.16016 213.35079 206.36142
 200.20405 195.15068 191.74130 189.79193 188.83756 188.91019 189.75382 191.07044
 192.80407 194.90770 197.17933 199.54696 202.00058 204.48921 206.58584 208.43647
 210.07110 211.22472 211.46235 211.69898 211.64461 211.35824 210.99986 210.63849
 210.26412 209.98275 209.79938 209.67200 209.60863 209.94826 210.34289 210.74052
 211.54214 212.72877 213.98740 215.77903 217.71566 219.76728 221.87091 223.96254
 226.03117 228.12379 230.22942 232.34405 234.48168 236.66231 238.92693 241.30556
 243.93519 246.19482 248.20545 249.97907 251.40470 252.53633 253.36696 253.69159
 253.73721 253.51984 252.88847 251.84510 250.45973 248.62935 246.54698 244.38861
 242.18824 240.00087 237.82949 235.67712 233.54575 231.42138 229.45601 227.62163
 225.91326 224.39389 223.03252 221.81315 220.70377 219.67240 218.78503 217.93466
 217.18529 216.37391 215.48054 214.85317 214.31180 214.13889 213.60585 212.53450
 212.14365 211.48009 211.96712 214.12010 217.42996 221.69814 227.13844 231.79539
 235.67447 239.97522 244.41940 248.59970 252.29131 255.65869 258.98721 262.26608
 265.29782 268.01187 270.39688 272.37729 273.95700 275.30023 276.67136 278.16354
 279.66721 281.29721 282.93127 284.64124 286.13977 287.46564 288.67526 289.77109
 290.75668 291.63437 292.40106 293.37817
 366.78100 356.34437 345.78575 334.66112 323.07350 311.27687 299.15625 286.96862
 274.69000 262.59637 250.61474 239.92512 230.05649 221.16987 213.36124 206.37262
 200.21599 195.16337 191.75474 189.80611 188.85249 188.92586 189.77024 191.08761
 192.82199 194.92636 197.19874 199.56711 202.02148 204.51086 206.60823 208.45961
 210.09498 211.24936 211.48773 211.72511 211.67148 211.38585 211.02823 210.66760
 210.29398 210.01335 209.83073 209.70410 209.64148 209.98185 210.37722 210.77560
 211.57797 212.76535 214.02472 215.81710 217.75447 219.80685 221.91122 224.00359
 226.07297 228.16634 230.27272 232.38809 234.52647 236.70784 238.97322 241.35259
 243.98296 246.24334 248.25471 250.02909 251.45546 252.58784 253.41921 253.74459
 253.79096 253.57433 252.94371 251.90108 250.51646 248.68683 246.60521 244.44758
 242.24796 240.06133 237.89070 235.73908 233.60845 231.48483 229.52020 227.68658
 225.97895 224.46033 223.09970 221.88107 220.77245 219.74182 218.85520 218.00557
 217.25695 216.44632 215.55370 214.92707 214.38644 214.16545 213.59253 212.60585
 211.94724 211.43033 211.97513 214.10918 217.40761 221.70197 227.07204 231.80623
 235.68707 239.98468 244.39108 248.56229 252.27753 255.65567 258.94949 262.20444
 265.21182 267.87619 270.19220 272.16159 273.80188 275.27191 276.79706 278.42773
 280.03564 281.57358 283.07956 284.46814 285.73468 286.96921 288.09552 289.11588
 290.03357 290.85080 291.56470 292.47449
 366.78100 356.34498 345.78697 334.66295 323.07593 311.27992 299.15990 286.97288
 274.69486 262.60185 250.62083 239.93181 230.06380 221.17778 213.36976 206.38175
 200.22573 195.17371 191.76570 189.81768 188.86466 188.93865 189.78363 191.10161
 192.83659 194.94158 197.21456 199.58354 202.03853 204.52851 206.62649 208.47848
 210.11446 211.26944 211.50843 211.74641 211.69339 211.40838 211.05136 210.69134
 210.31832 210.03831 209.85629 209.73027 209.66826 210.00924 210.40522 210.80421
 211.60719 212.79517 214.05516 215.84814 217.78612 219.83911 221.94409 224.03707
 226.10705 228.20104 230.30802 232.42400 234.56299 236.74497 239.01095 241.39094
 244.02192 246.28290 248.29489 250.06987 251.49685 252.62983 253.46182 253.78780
 253.83478 253.61877 252.98875 251.94673 250.56272 248.73370 246.65268 244.49567
 242.29665 240.11063 237.94062 235.78960 233.65958 231.53656 229.57255 227.73953
 226.03251 224.51450 223.15448 221.93646 220.82845 219.79843 218.91241 218.06340
 217.31538 216.50536 215.61335 214.98733 214.44731 214.18951 213.56535 212.85367
 211.94920 211.29971 211.83720 213.93950 217.27852 221.61588 227.00970 231.76094
 235.65445 239.95175 244.34869 248.51729 252.24840 255.66051 258.98334 262.24741
 265.25131 267.86887 270.06165 271.87259 273.37094 274.83090 276.49307 278.29916
 280.03421 281.56824 282.96106 284.29111 285.51578 286.64670 287.72083 288.69391
 289.56909 290.34845 291.02930 291.89691
 366.78100 356.34433 345.78565 334.66098 323.07330 311.27663 299.15595 286.96828
 274.68960 262.59593 250.61426 239.92458 230.05591 221.16923 213.36056 206.37188
 200.21521 195.16254 191.75386 189.80519 188.85151 188.92484 189.76916 191.08649
 192.82081 194.92514 197.19747 199.56579 202.02012 204.50944 206.60677 208.45809
 210.09342 211.24775 211.48607 211.72340 211.66972 211.38405 211.02637 210.66570
 210.29202 210.01135 209.82868 209.70200 209.63933 209.97965 210.37498 210.77330
 211.57563 212.76296 214.02228 215.81461 217.75193 219.80426 221.90858 224.00091
 226.07023 228.16356 230.26989 232.38521 234.52354 236.70486 238.97019 241.34951
 243.97984 246.24016 248.25149 250.02582 251.45214 252.58447 253.41579 253.74112
 253.78744 253.57077 252.94010 251.89742 250.51275 248.68307 246.60140 244.44372
 242.24405 240.05737 237.88670 235.73503 233.60435 231.48068 229.51600 227.68233
 225.97465 224.45598 223.09531 221.87663 220.76796 219.73728 218.85061 218.00093
 217.25226 216.44158 215.54891 214.92224 214.38156 214.16612 213.63478 212.91493
 212.00526 211.33899 211.76276 213.85254 217.25716 221.59753 226.97922 231.73300
 235.63091 239.93007 244.32549 248.49260 252.23351 255.67961 259.04645 262.35785
 265.42191 268.07538 270.25211 271.99133 273.40036 274.77051 276.39941 278.28571
 280.09354 281.70355 283.06647 284.40164 285.62100 286.79010 287.88184 288.87088
 289.76041 290.55255 291.24454 292.12640
 366.78100 356.34293 345.78285 334.65678 323.06771 311.26963 299.14756 286.95849
 274.67841 262.58334 250.60027 239.90919 230.03912 221.15104 213.34097 206.35090
 200.19282 195.13875 191.72868 189.77860 188.82353 188.89546 189.73838 191.05431
 192.78724 194.89016 197.16109 199.52802 201.98094 204.46887 206.56480 208.41472
 210.04865 211.20158 211.43850 211.67443 211.61936 211.33228 210.97321 210.61113
 210.23606 209.95399 209.76991 209.64184 209.57777 209.91669 210.31062 210.70755
 211.50847 212.69440 213.95233 215.74325 217.67918 219.73011 221.83303 223.92396
 225.99189 228.08381 230.18874 232.30267 234.43959 236.61952 238.88345 241.26137
 243.89030 246.14922 248.15915 249.93208 251.35700 252.48793 253.31786 253.64178
 253.68671 253.46864 252.83656 251.79249 250.40642 248.57534 246.49227 244.33320
 242.13212 239.94405 237.77198 235.61890 233.48683 231.36176 229.39568 227.56061
 225.85154 224.33146 222.96939 221.74931 220.63924 219.60717 218.71909 217.86802
 217.11795 216.30587 215.41180 214.78373 214.24165 214.09824 213.73657 213.03352
 212.04800 211.15077 211.51605 213.74339 217.22812 221.56438 226.94225 231.69881
 235.62294 239.91472 244.29622 248.45251 252.19571 255.65544 259.03702 262.36246
 265.45386 268.14487 270.35501 272.12234 273.51401 274.90219 276.60507 278.49564
 280.30603 281.92117 283.26843 284.50726 285.67642 286.74536 287.82129 288.80423
 289.68826 290.47552 291.16327 292.03970
 366.78100 356.34155 345.78011 334.65266 323.06221 311.26277 299.13932 286.94888
 274.66743 262.57098 250.58654 239.89409 230.02264 221.13320 213.32175 206.33031
 200.17086 195.11541 191.70397 189.75252 188.79607 188.86663 189.70818 191.02274
 192.75429 194.85584 197.12540 199.49095 201.94250 204.42906 206.52361 208.37216
 210.00472 211.15627 211.39183 211.62638 211.56993 211.28149 210.92104 210.55759
 210.18115 209.89770 209.71226 209.58281 209.51736 209.85492 210.24747 210.64302
 211.44258 212.62713 213.88369 215.67324 217.60779 219.65735 221.75890 223.84845
 225.91501 228.00556 230.10911 232.22167 234.35722 236.53578 238.79833 241.17488
 243.80244 246.05999 248.06854 249.84010 251.26365 252.39321 253.22176 253.54431
 253.58787 253.36842 252.73497 251.68953 250.30208 248.46963 246.38519 244.22474
 242.02230 239.83285 237.65940 235.50496 233.37151 231.24506 229.27762 227.44117
 225.73073 224.20928 222.84583 221.62439 220.51294 219.47949 218.59005 217.73760
 216.98616 216.17271 215.27726 214.64782 214.10437 214.05553 213.87230 213.00067
 212.19815 211.28928 211.54778 213.74814 217.20309 221.53560 226.87711 231.62610
 235.54663 239.85812 244.25117 248.40981 252.15218 255.62582 259.02277 262.36752
 265.48743 268.19189 270.38620 272.12335 273.55209 274.99966 276.80524 278.75375
 280.57565 282.12863 283.50589 284.84225 286.10168 287.30453 288.40195 289.39615
 290.29031 291.08655 291.78217 292.66861
 366.78100 356.33889 345.77478 334.64466 323.05155 311.24944 299.12333 286.93021
 274.64610 262.54699 250.55988 239.86476 229.99065 221.09854 213.28443 206.29031
 200.12820 195.07009 191.65598 189.70186 188.74275 188.81064 189.64953 190.96141
 192.69030 194.78919 197.05608 199.41896 201.86785 204.35174 206.44363 208.28951
 209.91940 211.06829 211.30118 211.53306 211.47395 211.18284 210.81973 210.45361
 210.07450 209.78839 209.60028 209.46816 209.40005 209.73494 210.12483 210.51771
 211.31460 212.49649 213.75038 215.53726 217.46915 219.51604 221.61493 223.70181
 225.76570 227.85359 229.95448 232.06436 234.19725 236.37314 238.63303 241.00691
 243.63180 245.88669 247.89258 249.66146 251.08235 252.20924 253.03513 253.35501
 253.39590 253.17379 252.53768 251.48956 250.09945 248.26434 246.17723 244.01412
 241.80900 239.61689 237.44078 235.28367 233.14755 231.01844 229.04833 227.20922
 225.49610 223.97199 222.60588 221.38177 220.26765 219.23154 218.33943 217.48432
 216.73020 215.91409 215.01598 214.38387 213.83775 213.96696 214.05402 212.87439
 212.17252 211.58328 211.78529 213.83577 217.19345 221.49609 226.85100 231.54799
 235.44653 239.74268 244.10727 248.23505 251.99486 255.54430 259.02670 262.41928
 265.59088 268.36853 270.59042 272.36212 273.88922 275.51196 277.31168 279.22305
 280.86032 282.57617 284.35596 286.01904 287.45831 288.73169 289.89346 290.94595
 291.89255 292.73547 293.47186 294.41028
 366.78100 356.33756 345.77213 334.64069 323.04625 311.24281 299.11538 286.92094
 274.63550 262.53507 250.54663 239.85019 229.97476 221.08132 213.26588 206.27044
 200.10701 195.04757 191.63213 189.67670 188.71626 188.78282 189.62038 190.93095
 192.65851 194.75607 197.02164 199.38320 201.83076 204.31332 206.40389 208.24845
 209.87701 211.02458 211.25614 211.48670 211.42627 211.13383 210.76939 210.40195
 210.02152 209.73408 209.54464 209.41121 209.34177 209.67533 210.06389 210.45546
 211.25102 212.43158 213.68415 215.46971 217.40027 219.44583 221.54340 223.62896
 225.69152 227.77809 229.87765 231.98621 234.11778 236.29234 238.55090 240.92346
 243.54703 245.80059 247.80515 249.57272 250.99228 252.11784 252.94240 253.26097
 253.30053 253.07709 252.43966 251.39022 249.99878 248.16234 246.07391 243.90947
 241.70303 239.50960 237.33216 235.17372 233.03629 230.90585 228.93441 227.09397
 225.37954 223.85410 222.48666 221.26123 220.14579 219.10835 218.21491 217.35848
 216.60304 215.78560 214.88617 214.25273 213.70529 213.91939 214.14328 212.88832
 212.02936 211.67021 211.88863 213.84351 217.21574 221.51796 226.89529 231.56429
 235.42235 239.67543 243.98128 248.05324 251.79341 255.36087 258.87241 262.30231
 265.52567 268.35175 270.66403 272.48602 274.00742 275.65927 277.62686 279.57523
 281.60196 283.59955 285.43842 287.05307 288.45044 289.68674 290.81467 291.83649
 292.75552 293.57391 294.28885 295.19995
 366.78100 356.34031 345.77763 334.64894 323.05726 311.25657 299.13189 286.94020
 274.65752 262.55983 250.57415 239.88046 230.00778 221.11709 213.30441 206.31172
 200.15104 195.09435 191.68167 189.72898 188.77130 188.84061 189.68093 190.99424
 192.72456 194.82487 197.09319 199.45750 201.90782 204.39313 206.48645 208.33376
 209.96508 211.11539 211.34971 211.58302 211.52534 211.23565 210.87397 210.50928
 210.13160 209.84691 209.66023 209.52954 209.46286 209.79917 210.19049 210.58480
 211.38312 212.56643 213.82175 215.61006 217.54338 219.59169 221.69201 223.78032
 225.84564 227.93495 230.03727 232.14858 234.28290 236.46021 238.72153 241.09684
 243.72316 245.97947 247.98679 249.75710 251.17942 252.30773 253.13505 253.45636
 253.49868 253.27799 252.64331 251.59662 250.20794 248.37425 246.28857 244.12688
 241.92320 239.73251 237.55783 235.40214 233.26746 231.13977 229.17109 227.33340
 225.62172 224.09903 222.73435 221.51166 220.39898 219.36429 218.47361 217.61992
 216.86724 216.05255 215.15587 214.52518 213.98050 214.04247 214.04749 213.12509
 211.94398 211.49394 211.89935 213.84293 217.24394 221.59708 226.96715 231.64168
 235.48128 239.70810 243.98691 248.03989 251.77005 255.32930 258.81268 262.18930
 265.38419 268.21301 270.48743 272.21255 273.68182 275.43561 277.60837 279.88947
 282.01785 283.99380 285.81137 287.40729 288.78845 290.01041 291.12527 292.13525
 293.04361 293.85254 294.55917 295.45972
 366.78100 356.34425 345.78550 334.66075 323.07300 311.27625 299.15549 286.96774
 274.68899 262.59524 250.61349 239.92374 230.05499 221.16824 213.35949 206.37074
 200.21398 195.16123 191.75248 189.80373 188.84998 188.92323 189.76748 191.08473
 192.81898 194.92323 197.19547 199.56372 202.01797 204.50722 206.60447 208.45572
 210.09097 211.24522 211.48347 211.72072 211.66696 211.38121 211.02346 210.66271
 210.28896 210.00821 209.82546 209.69871 209.63596 209.97621 210.37145 210.76970
 211.57195 212.75920 214.01845 215.81070 217.74795 219.80020 221.90445 223.99670
 226.06594 228.15919 230.26544 232.38069 234.51894 236.70019 238.96544 241.34469
 243.97494 246.23519 248.24643 250.02068 251.44693 252.57918 253.41043 253.73568
 253.78193 253.56518 252.93443 251.89168 250.50693 248.67717 246.59542 244.43767
 242.23792 240.05117 237.88042 235.72867 233.59792 231.47417 229.50942 227.67566
 225.96791 224.44916 223.08841 221.86966 220.76091 219.73016 218.84341 217.99366
 217.24491 216.43415 215.54140 214.91465 214.37390 214.24156 213.90820 213.31494
 212.07875 211.30530 211.76419 213.83449 217.21904 221.53317 226.94678 231.63084
 235.48294 239.71051 243.98666 248.04533 251.79628 255.38153 258.87448 262.22617
 265.38110 268.20847 270.47992 272.11688 273.51486 275.48685 277.75385 280.07550
 282.32846 284.45435 286.29395 287.90927 289.30716 290.54395 291.67233 292.69458
 293.61398 294.43271 295.14792 296.05939
 366.78100 356.34483 345.78665 334.66248 323.07531 311.27913 299.15896 286.97179
 274.69361 262.60044 250.61927 239.93010 230.06192 221.17575 213.36758 206.37940
 200.22323 195.17106 191.76288 189.81471 188.86154 188.93536 189.78019 191.09802
 192.83284 194.93767 197.21050 199.57933 202.03415 204.52398 206.62181 208.47363
 210.10946 211.26429 211.50311 211.74094 211.68777 211.40259 211.04542 210.68525
 210.31207 210.03190 209.84973 209.72356 209.66138 210.00221 210.39804 210.79686
 211.59969 212.78752 214.04734 215.84017 217.77800 219.83082 221.93565 224.02848
 226.09830 228.19213 230.29896 232.41478 234.55361 236.73544 239.00127 241.38109
 244.01192 246.27275 248.28457 250.05940 251.48623 252.61905 253.45088 253.77671
 253.82353 253.60736 252.97719 251.93501 250.55084 248.72167 246.64050 244.48332
 242.28415 240.09798 237.92780 235.77663 233.64646 231.52328 229.55911 227.72594
 226.01876 224.50059 223.14042 221.92224 220.81407 219.78390 218.89773 218.04855
 217.30038 216.49021 215.59803 214.97186 214.43169 214.30704 213.92522 213.28717
 212.22098 211.26382 211.70242 213.89966 217.21684 221.49562 226.83310 231.54738
 235.41458 239.66151 243.94614 248.01575 251.81229 255.46117 258.99216 262.35263
 265.49875 268.29810 270.54352 272.13971 273.52744 275.44247 278.00479 280.72363
 283.34839 285.59818 287.54498 289.25446 290.73383 292.04272 293.23688 294.31870
 295.29166 296.15811 296.91501 297.87958
 366.78100 356.34228 345.78156 334.65483 323.06511 311.26639 299.14367 286.95394
 274.67322 262.57750 250.59378 239.90205 230.03133 221.14261 213.33189 206.34116
 200.18244 195.12772 191.71700 189.76627 188.81055 188.88183 189.72411 191.03938
 192.77166 194.87394 197.14422 199.51049 201.96277 204.45005 206.54533 208.39460
 210.02788 211.18016 211.41644 211.65172 211.59599 211.30827 210.94855 210.58583
 210.21010 209.92738 209.74266 209.61394 209.54921 209.88749 210.28077 210.67705
 211.47732 212.66260 213.91988 215.71016 217.64543 219.69571 221.79799 223.88827
 225.95554 228.04682 230.15110 232.26438 234.40065 236.57993 238.84321 241.22049
 243.84877 246.10704 248.11632 249.88860 251.31288 252.44315 253.27243 253.59571
 253.63999 253.42126 252.78854 251.74382 250.35710 248.52537 246.44165 244.28193
 242.08021 239.89148 237.71876 235.56504 233.43232 231.30659 229.33987 227.50415
 225.79443 224.27370 222.91098 221.69026 220.57954 219.54681 218.65809 217.80637
 217.05565 216.24293 215.34820 214.71948 214.17676 214.23758 214.04230 213.21843
 212.29782 211.23024 211.61725 213.79872 217.11264 221.46202 226.73396 231.48370
 235.34737 239.57971 243.85545 247.95032 251.81277 255.53795 259.14023 262.55157
 265.72021 268.52188 270.77530 272.42261 273.76633 275.76196 279.15292 282.51840
 285.43948 287.94327 290.10992 292.01239 293.65881 295.11545 296.44446 297.64841
 298.73123 299.69550 300.53787 301.61139
 366.78100 356.34184 345.78067 334.65351 323.06335 311.26418 299.14102 286.95086
 274.66970 262.57353 250.58937 239.89721 230.02604 221.13688 213.32572 206.33455
 200.17539 195.12023 191.70906 189.75790 188.80174 188.87257 189.71441 191.02925
 192.76109 194.86292 197.13276 199.49860 201.95043 204.43727 206.53211 208.38094
 210.01378 211.16562 211.40145 211.63629 211.58013 211.29197 210.93180 210.56864
 210.19248 209.90931 209.72415 209.59499 209.52982 209.86766 210.26050 210.65633
 211.45617 212.64101 213.89785 215.68768 217.62252 219.67236 221.77419 223.86403
 225.93087 228.02170 230.12554 232.23838 234.37421 236.55305 238.81589 241.19272
 243.82056 246.07840 248.08724 249.85907 251.28291 252.41275 253.24158 253.56442
 253.60826 253.38909 252.75593 251.71077 250.32360 248.49144 246.40728 244.24712
 242.04495 239.85579 237.68263 235.52846 233.39530 231.26914 229.30197 227.46581
 225.75565 224.23448 222.87132 221.65016 220.53900 219.50583 218.61667 217.76451
 217.01334 216.20018 215.30502 214.67585 214.13269 214.22206 214.10733 213.16823
 212.41441 211.41237 211.56396 213.69508 217.11646 221.40689 226.67657 231.44682
 235.31734 239.54680 243.79338 247.84363 251.67877 255.41289 259.05551 262.53897
 265.80399 268.66650 270.95724 272.52142 274.02039 276.34509 279.34485 282.47452
 285.19092 287.51929 289.53412 291.30328 292.83435 294.18893 295.42480 296.54443
 297.55139 298.44809 299.23145 300.22971
 366.78100 356.34416 345.78532 334.66047 323.07263 311.27579 299.15495 286.96711
 274.68826 262.59442 250.61258 239.92274 230.05390 221.16705 213.35821 206.36937
 200.21253 195.15969 191.75085 189.80200 188.84816 188.92132 189.76548 191.08264
 192.81679 194.92095 197.19311 199.56127 202.01543 204.50458 206.60174 208.45290
 210.08806 211.24222 211.48037 211.71753 211.66369 211.37785 211.02001 210.65916
 210.28532 210.00448 209.82164 209.69480 209.63196 209.97211 210.36727 210.76543
 211.56759 212.75475 214.01390 215.80606 217.74322 219.79538 221.89954 223.99169
 226.06085 228.15401 230.26017 232.37533 234.51348 236.69464 238.95980 241.33896
 243.96912 246.22927 248.24043 250.01459 251.44075 252.57291 253.40406 253.72922
 253.77538 253.55854 252.92770 251.88486 250.50001 248.67017 246.58833 244.43049
 242.23065 240.04380 237.87296 235.72112 233.59028 231.46644 229.50159 227.66775
 225.95991 224.44107 223.08023 221.86138 220.75254 219.72170 218.83486 217.98502
 217.23617 216.42533 215.53249 214.90565 214.36481 214.29970 214.05167 213.29733
 212.36935 211.70555 211.60164 213.49551 217.03659 221.39815 226.63812 231.43555
 235.29446 239.50017 243.72864 247.77948 251.60747 255.30815 258.91232 262.32785
 265.49286 268.32581 270.71088 272.59839 274.20938 275.99686 278.18558 280.46570
 282.61673 284.58817 286.29413 287.79208 289.08844 290.23538 291.28177 292.22974
 293.08234 293.84158 294.50485 295.35010
 366.78100 356.34604 345.78908 334.66612 323.08016 311.28520 299.16624 286.98028
 274.70332 262.61136 250.63140 239.94344 230.07648 221.19152 213.38456 206.39760
 200.24264 195.19168 191.78472 189.83776 188.88580 188.96084 189.80688 191.12592
 192.86196 194.96800 197.24204 199.61208 202.06812 204.55916 206.65820 208.51124
 210.14828 211.30432 211.54436 211.78340 211.73144 211.44748 211.09152 210.73256
 210.36060 210.08164 209.90068 209.77572 209.71476 210.05680 210.45384 210.85388
 211.65792 212.84696 214.10800 215.90204 217.84108 219.89512 222.00116 224.09520
 226.16624 228.26128 230.36932 232.48636 234.62640 236.80944 239.07648 241.45752
 244.08956 246.35160 248.36464 250.14068 251.56872 252.70276 253.53580 253.86284
 253.91088 253.69592 253.06696 252.02600 250.64304 248.81508 246.73512 244.57916
 242.38120 240.19623 238.02727 235.87731 233.74835 231.62639 229.66343 227.83147
 226.12551 224.60855 223.24959 222.03263 220.92567 219.89671 219.01175 218.16379
 217.41683 216.60787 215.71691 215.09195 214.55299 214.38860 213.98882 213.44231
 212.36447 211.65340 211.81296 213.56046 216.92625 221.32936 226.48906 231.33966
 235.20602 239.42123 243.65472 247.70673 251.53561 255.26237 258.89490 262.33612
 265.54709 268.38217 270.75366 272.67935 274.23923 275.79663 277.77554 279.81113
 281.53998 283.41727 285.17706 286.72229 288.05954 289.24268 290.32211 291.30002
 292.17950 292.96271 293.64691 294.51883
 366.78100 356.34666 345.79032 334.66798 323.08263 311.28829 299.16995 286.98461
 274.70827 262.61693 250.63759 239.95025 230.08390 221.19956 213.39322 206.40688
 200.25254 195.20220 191.79586 189.84951 188.89817 188.97383 189.82049 191.14015
 192.87681 194.98347 197.25813 199.62878 202.08544 204.57710 206.67676 208.53042
 210.16808 211.32474 211.56540 211.80505 211.75371 211.47037 211.11503 210.75669
 210.38535 210.10701 209.92666 209.80232 209.74198 210.08464 210.48230 210.88296
 211.68762 212.87728 214.13893 215.93359 217.87325 219.92791 222.03457 224.12923
 226.20089 228.29654 230.40520 232.52286 234.66352 236.84718 239.11484 241.49650
 244.12916 246.39181 248.40547 250.18213 251.61079 252.74545 253.57911 253.90677
 253.95543 253.74108 253.11274 252.07240 250.69006 248.86272 246.78338 244.62804
 242.43069 240.24635 238.07801 235.92867 233.80033 231.67899 229.71665 227.88531
 226.17996 224.66362 223.30528 222.08894 220.98260 219.95426 219.06992 218.22257
 217.47623 216.66789 215.77755 215.15321 214.61487 214.44907 214.02544 213.44717
 212.37494 211.54536 211.82771 213.78398 216.98573 221.19922 226.47678 231.24501
 235.12769 239.34766 243.59029 247.65614 251.51044 255.28229 258.93933 262.38416
 265.58310 268.41568 270.75024 272.64273 274.24139 275.86450 277.72784 279.59100
 281.74527 283.82687 285.62814 287.20981 288.57861 289.78964 290.89450 291.89545
 292.79568 293.59735 294.29770 295.19016
 366.78100 356.34537 345.78774 334.66410 323.07747 311.28184 299.16221 286.97557
 274.69794 262.60531 250.62468 239.93605 230.06841 221.18278 213.37515 206.38752
 200.23188 195.18025 191.77262 189.82499 188.87236 188.94672 189.79209 191.11046
 192.84583 194.95119 197.22456 199.59393 202.04930 204.53967 206.63803 208.49040
 210.12677 211.28214 211.52150 211.75987 211.70724 211.42261 211.06598 210.70634
 210.33371 210.05408 209.87245 209.74681 209.68518 210.02655 210.42292 210.82229
 211.62565 212.81402 214.07439 215.86776 217.80612 219.85949 221.96486 224.05823
 226.12860 228.22296 230.33033 232.44670 234.58607 236.76844 239.03480 241.41517
 244.04654 246.30791 248.32027 250.09564 251.52301 252.65638 253.48875 253.81511
 253.86248 253.64685 253.01722 251.97558 250.59195 248.76332 246.68269 244.52606
 242.32742 240.14179 237.97216 235.82153 233.69189 231.56926 229.60563 227.77300
 226.06637 224.54873 223.18910 221.97147 220.86384 219.83420 218.94857 218.09994
 217.35231 216.54268 215.65104 215.02541 214.48578 214.42357 214.11903 213.39319
 212.42786 211.42152 211.80348 213.92546 217.03375 221.15807 226.45082 231.20045
 235.08418 239.30862 243.56796 247.64938 251.50813 255.31499 259.00299 262.45663
 265.68701 268.50296 270.82678 272.71957 274.24884 275.73526 277.49304 279.82529
 282.31934 284.48837 286.36530 288.01340 289.43970 290.70160 291.85287 292.89587
 293.83392 294.66925 295.39899 296.32895
 366.78100 356.34343 345.78387 334.65830 323.06973 311.27216 299.15060 286.96203
 274.68246 262.58790 250.60533 239.91476 230.04519 221.15763 213.34806 206.35849
 200.20093 195.14736 191.73779 189.78822 188.83366 188.90609 189.74952 191.06595
 192.79939 194.90282 197.17425 199.54169 201.99512 204.48355 206.57998 208.43042
 210.06485 211.21828 211.45572 211.69215 211.63758 211.35101 210.99245 210.63088
 210.25631 209.97475 209.79118 209.66361 209.60004 209.93948 210.33391 210.73134
 211.53278 212.71921 213.97764 215.76907 217.70551 219.75694 221.86037 223.95181
 226.02024 228.11267 230.21810 232.33254 234.46997 236.65040 238.91483 241.29327
 243.92270 246.18213 248.19257 249.96600 251.39143 252.52286 253.35330 253.67773
 253.72316 253.50560 252.87403 251.83046 250.44489 248.61433 246.53176 244.37319
 242.17263 239.98506 237.81349 235.66092 233.52936 231.40479 229.43922 227.60466
 225.89609 224.37652 223.01495 221.79539 220.68582 219.65425 218.76669 217.91612
 217.16655 216.35498 215.46142 214.83385 214.29228 214.33498 214.24792 213.32558
 212.45950 211.54083 211.81223 213.77098 216.95503 221.21530 226.42383 231.20851
 235.07515 239.27585 243.49452 247.55032 251.42526 255.23636 258.94922 262.43747
 265.66998 268.53238 270.92447 272.83832 274.39114 275.88663 277.59061 279.61523
 281.77332 283.86938 285.76160 287.42313 288.86102 290.13318 291.29382 292.34531
 293.29102 294.13315 294.86884 295.80637
 366.78100 356.34262 345.78224 334.65586 323.06647 311.26809 299.14571 286.95633
 274.67595 262.58057 250.59718 239.90580 230.03542 221.14704 213.33666 206.34628
 200.18790 195.13351 191.72313 189.77275 188.81737 188.88899 189.73161 191.04722
 192.77984 194.88246 197.15308 199.51970 201.97232 204.45994 206.55555 208.40517
 210.03879 211.19141 211.42803 211.66365 211.60826 211.32088 210.96150 210.59912
 210.22374 209.94136 209.75698 209.62859 209.56421 209.90283 210.29645 210.69307
 211.49369 212.67930 213.93692 215.72754 217.66316 219.71378 221.81640 223.90702
 225.97463 228.06625 230.17087 232.28449 234.42111 236.60073 238.86434 241.24196
 243.87058 246.12920 248.13882 249.91144 251.33606 252.46667 253.29629 253.61991
 253.66453 253.44615 252.81377 251.76938 250.38300 248.55162 246.46824 244.30886
 242.10748 239.91910 237.74671 235.59333 233.46095 231.33557 229.36919 227.53381
 225.82442 224.30404 222.94166 221.72128 220.61090 219.57852 218.69014 217.83875
 217.08837 216.27599 215.38161 214.75323 214.21085 214.27727 214.34225 213.45448
 212.33185 211.48486 211.69220 213.68927 216.97984 221.25348 226.41377 231.19109
 235.04817 239.23697 243.44342 247.50285 251.37622 255.17090 258.86819 262.33966
 265.54129 268.41144 270.85818 272.87463 274.54727 276.09286 277.77344 279.56033
 281.23517 282.92776 284.50244 285.91669 287.27951 288.49347 289.60107 290.60446
 291.50690 292.31052 293.01254 293.90720
 366.78100 356.34299 345.78298 334.65698 323.06797 311.26996 299.14795 286.95894
 274.67893 262.58393 250.60092 239.90991 230.03990 221.15189 213.34188 206.35188
 200.19387 195.13986 191.72985 189.77984 188.82483 188.89683 189.73982 191.05581
 192.78880 194.89179 197.16278 199.52978 201.98277 204.47076 206.56675 208.41674
 210.05073 211.20373 211.44072 211.67671 211.62170 211.33469 210.97568 210.61368
 210.23867 209.95666 209.77265 209.64464 209.58063 209.91963 210.31362 210.71061
 211.51160 212.69759 213.95558 215.74658 217.68257 219.73356 221.83655 223.92754
 225.99553 228.08753 230.19252 232.30651 234.44350 236.62349 238.88748 241.26548
 243.89447 246.15346 248.16345 249.93644 251.36143 252.49243 253.32242 253.64641
 253.69140 253.47339 252.84139 251.79738 250.41137 248.58036 246.49735 244.33834
 242.13734 239.94933 237.77732 235.62431 233.49230 231.36729 229.40129 227.56628
 225.85727 224.33726 222.97525 221.75524 220.64524 219.61323 218.72522 217.87421
 217.12420 216.31219 215.41819 214.79018 214.24817 214.29955 214.36163 213.58897
 212.34143 211.39658 211.55818 213.50217 216.85410 221.18568 226.40514 231.14627
 235.02116 239.19818 243.40373 247.47345 251.36923 255.18964 258.89288 262.34479
 265.53162 268.39511 270.84396 272.88177 274.55664 276.05710 277.70938 279.51062
 281.22086 282.73483 284.13223 285.47076 286.67004 287.80429 288.83914 289.77661
 290.61978 291.37064 292.02655 292.86246
 366.78100 356.34338 345.78377 334.65815 323.06954 311.27192 299.15030 286.96169
 274.68207 262.58745 250.60484 239.91422 230.04461 221.15699 213.34737 206.35776
 200.20014 195.14653 191.73691 189.78729 188.83268 188.90506 189.74844 191.06483
 192.79821 194.90160 197.17298 199.54036 201.99375 204.48213 206.57852 208.42890
 210.06328 211.21667 211.45405 211.69043 211.63582 211.34920 210.99059 210.62897
 210.25435 209.97274 209.78912 209.66151 209.59789 209.93727 210.33166 210.72904
 211.53042 212.71681 213.97519 215.76658 217.70296 219.75434 221.85773 223.94911
 226.01750 228.10988 230.21526 232.32965 234.46703 236.64741 238.91180 241.29018
 243.91957 246.17895 248.18933 249.96272 251.38810 252.51948 253.34987 253.67425
 253.71964 253.50202 252.87040 251.82679 250.44117 248.61056 246.52794 244.36932
 242.16871 239.98109 237.80947 235.65686 233.52524 231.40063 229.43501 227.60039
 225.89178 224.37216 223.01055 221.79093 220.68131 219.64970 218.76208 217.91146
 217.16185 216.35023 215.45662 214.82900 214.28738 214.34380 214.39622 213.58670
 212.35478 211.40926 211.67763 213.59315 216.87486 221.18030 226.41068 231.14011
 235.00415 239.18335 243.39192 247.46977 251.36937 255.20860 258.91931 262.35452
 265.51053 268.34857 270.81186 272.89569 274.58038 276.08051 277.68622 279.41159
 281.07544 282.57175 284.14069 285.55710 286.86105 288.01471 289.06726 290.02078
 290.87839 291.64209 292.30923 293.15945
 366.78100 356.34371 345.78443 334.65914 323.07085 311.27356 299.15228 286.96399
 274.68470 262.59042 250.60813 239.91784 230.04856 221.16127 213.35198 206.36269
 200.20541 195.15212 191.74283 189.79355 188.83926 188.91197 189.75569 191.07240
 192.80611 194.90982 197.18154 199.54925 202.00296 204.49168 206.58839 208.43910
 210.07382 211.22753 211.46524 211.70195 211.64767 211.36138 211.00309 210.64181
 210.26752 209.98623 209.80294 209.67566 209.61237 209.95208 210.34680 210.74451
 211.54622 212.73294 213.99165 215.78336 217.72007 219.77179 221.87550 223.96721
 226.03593 228.12864 230.23435 232.34907 234.48678 236.66749 238.93220 241.31092
 243.94063 246.20034 248.21106 249.98477 251.41048 252.54220 253.37291 253.69762
 253.74333 253.52605 252.89476 251.85147 250.46619 248.63590 246.55361 244.39532
 242.19504 240.00775 237.83646 235.68418 233.55289 231.42860 229.46332 227.62903
 225.92074 224.40145 223.04017 221.82088 220.71159 219.68031 218.79302 217.94273
 217.19345 216.38216 215.48887 214.86158 214.32030 214.38873 214.44223 213.60518
 212.35851 211.41870 211.75815 213.64523 216.87170 221.15143 226.41545 231.12126
 234.98488 239.15947 243.36247 247.43658 251.34657 255.19147 258.89926 262.33405
 265.48398 268.32278 270.81067 272.92084 274.63141 276.10052 277.66296 279.32199
 280.94937 282.69754 284.36920 285.93829 287.29620 288.49762 289.59372 290.58673
 291.47980 292.27512 292.96988 293.85526
 366.78100 356.34483 345.78665 334.66248 323.07530 311.27913 299.15895 286.97178
 274.69361 262.60043 250.61926 239.93008 230.06191 221.17573 213.36756 206.37938
 200.22321 195.17104 191.76286 189.81469 188.86151 188.93534 189.78016 191.09799
 192.83282 194.93764 197.21047 199.57929 202.03412 204.52394 206.62177 208.47359
 210.10942 211.26425 211.50307 211.74090 211.68772 211.40255 211.04537 210.68520
 210.31203 210.03185 209.84968 209.72350 209.66133 210.00215 210.39798 210.79681
 211.59963 212.78746 214.04728 215.84011 217.77793 219.83076 221.93558 224.02841
 226.09824 228.19206 230.29889 232.41471 234.55354 236.73536 239.00119 241.38102
 244.01184 246.27267 248.28449 250.05932 251.48614 252.61897 253.45080 253.77662
 253.82345 253.60727 252.97710 251.93492 250.55075 248.72157 246.64040 244.48323
 242.28405 240.09788 237.92770 235.77653 233.64635 231.52318 229.55901 227.72583
 226.01866 224.50048 223.14031 221.92213 220.81396 219.78378 218.89761 218.04844
 217.30026 216.49009 215.59791 214.97174 214.43156 214.47064 214.45006 213.64194
 212.42415 211.40697 211.73378 213.61760 216.81795 221.10243 226.40268 231.10201
 234.95700 239.12442 243.32304 247.39520 251.31284 255.16853 258.88174 262.31738
 265.46793 268.30740 270.80612 272.96164 274.67603 276.10168 277.60767 279.23904
 281.02124 282.88477 284.59705 286.12601 287.44919 288.61987 289.68793 290.65552
 291.52579 292.30072 292.97772 293.84045
 366.78100 356.34494 345.78688 334.66282 323.07576 311.27970 299.15965 286.97259
 274.69453 262.60147 250.62041 239.93135 230.06329 221.17723 213.36917 206.38111
 200.22506 195.17300 191.76494 189.81688 188.86382 188.93776 189.78270 191.10064
 192.83558 194.94052 197.21347 199.58241 202.03735 204.52729 206.62523 208.47717
 210.11311 211.26805 211.50699 211.74493 211.69188 211.40682 211.04976 210.68970
 210.31664 210.03658 209.85452 209.72846 209.66640 210.00734 210.40329 210.80223
 211.60517 212.79311 214.05305 215.84599 217.78393 219.83687 221.94181 224.03475
 226.10470 228.19864 230.30558 232.42152 234.56046 236.74240 239.00834 241.38828
 244.01922 246.28016 248.29211 250.06705 251.49399 252.62693 253.45887 253.78481
 253.83175 253.61569 252.98563 251.94357 250.55952 248.73046 246.64940 244.49234
 242.29328 240.10722 237.93716 235.78610 233.65604 231.53298 229.56893 227.73587
 226.02881 224.51075 223.15069 221.93263 220.82457 219.79451 218.90845 218.05939
 217.31134 216.50128 215.60922 214.98316 214.44310 214.50322 214.50449 213.62140
 212.46852 211.41711 211.71184 213.62971 216.80809 221.07147 226.37062 231.07310
 234.92094 239.08163 243.27719 247.35341 251.28174 255.15605 258.88806 262.33084
 265.48401 268.32919 270.85870 273.05026 274.74268 276.05728 277.46457 279.01846
 281.00031 282.85272 284.58182 286.11951 287.45023 288.62759 289.70175 290.67487
 291.55008 292.32947 293.01031 293.87796
 366.78100 356.34426 345.78552 334.66078 323.07304 311.27629 299.15555 286.96781
 274.68907 262.59533 250.61359 239.92385 230.05511 221.16837 213.35963 206.37088
 200.21414 195.16140 191.75266 189.80392 188.85018 188.92344 189.76770 191.08496
 192.81921 194.92347 197.19573 199.56399 202.01825 204.50751 206.60477 208.45603
 210.09129 211.24554 211.48380 211.72106 211.66732 211.38158 211.02384 210.66310
 210.28936 210.00862 209.82588 209.69913 209.63639 209.97665 210.37191 210.77017
 211.57243 212.75969 214.01895 215.81121 217.74846 219.80072 221.90498 223.99724
 226.06650 228.15976 230.26602 232.38128 234.51954 236.70079 238.96605 241.34531
 243.97557 246.23583 248.24709 250.02135 251.44761 252.57987 253.41113 253.73638
 253.78264 253.56590 252.93516 251.89242 250.50768 248.67794 246.59620 244.43846
 242.23871 240.05197 237.88123 235.72949 233.59875 231.47501 229.51027 227.67653
 225.96879 224.45004 223.08930 221.87056 220.76182 219.73108 218.84434 217.99460
 217.24586 216.43512 215.54238 214.91563 214.37489 214.49179 214.60262 213.61369
 212.42628 211.44997 211.69791 213.64935 216.81958 221.06422 226.32672 231.03120
 234.86957 239.02399 243.21605 247.29335 251.22893 255.11488 258.86374 262.32056
 265.48792 268.35825 270.92178 273.18930 274.94458 276.23398 277.54068 278.92960
 280.69626 282.52744 284.26193 285.82758 287.18253 288.38132 289.47501 290.46585
 291.35696 292.15054 292.84378 293.72723
 366.78100 356.34538 345.78776 334.66414 323.07752 311.28189 299.16227 286.97565
 274.69803 262.60541 250.62479 239.93617 230.06855 221.18293 213.37530 206.38768
 200.23206 195.18044 191.77282 189.82520 188.87258 188.94696 189.79234 191.11072
 192.84609 194.95147 197.22485 199.59423 202.04961 204.53999 206.63837 208.49075
 210.12713 211.28250 211.52188 211.76026 211.70764 211.42302 211.06640 210.70678
 210.33416 210.05454 209.87291 209.74729 209.68567 210.02705 210.42343 210.82281
 211.62619 212.81457 214.07495 215.86833 217.80670 219.86008 221.96546 224.05884
 226.12922 228.22360 230.33098 232.44736 234.58674 236.76911 239.03549 241.41587
 244.04725 246.30863 248.32101 250.09639 251.52377 252.65715 253.48952 253.81590
 253.86328 253.64766 253.01804 251.97642 250.59280 248.76418 246.68356 244.52694
 242.32831 240.14269 237.97307 235.82245 233.69283 231.57021 229.60659 227.77397
 226.06735 224.54972 223.19010 221.97248 220.86486 219.83524 218.94962 218.10100
 217.35338 216.54376 215.65213 215.02651 214.48689 214.55470 214.60748 213.68724
 212.36343 211.42566 211.62717 213.58963 216.83812 221.09612 226.30670 231.02078
 234.86041 239.01335 243.19695 247.26727 251.19664 255.07614 258.81750 262.25446
 265.39990 268.28070 270.91104 273.24026 275.05377 276.47046 277.84393 279.25266
 280.62466 282.05383 283.63098 285.14948 286.49658 287.68842 288.77579 289.76086
 290.64685 291.43579 292.12503 293.00336
 366.78100 356.34654 345.79008 334.66762 323.08216 311.28770 299.16924 286.98377
 274.70731 262.61585 250.63639 239.94893 230.08247 221.19801 213.39155 206.40509
 200.25063 195.20017 191.79371 189.84724 188.89578 188.97132 189.81786 191.13740
 192.87394 194.98048 197.25502 199.62556 202.08210 204.57364 206.67318 208.52672
 210.16425 211.32079 211.56133 211.80087 211.74941 211.46595 211.11049 210.75203
 210.38057 210.10211 209.92165 209.79719 209.73673 210.07926 210.47680 210.87734
 211.68188 212.87142 214.13296 215.92750 217.86704 219.92158 222.02812 224.12266
 226.19420 228.28973 230.39827 232.51581 234.65635 236.83989 239.10743 241.48897
 244.12151 246.38405 248.39759 250.17413 251.60267 252.73721 253.57074 253.89828
 253.94682 253.73236 253.10390 252.06344 250.68098 248.85352 246.77406 244.61860
 242.42114 240.23668 238.06821 235.91875 233.79029 231.66883 229.70637 227.87491
 226.16945 224.65299 223.29453 222.07807 220.97161 219.94315 219.05869 218.21122
 217.46476 216.65630 215.76584 215.14138 214.60292 214.60722 214.58284 213.85941
 212.24641 211.05820 211.40706 213.42297 216.79338 221.08820 226.36620 231.03117
 234.88484 239.02611 243.20515 247.28313 251.22874 255.09517 258.81189 262.23346
 265.35645 268.22083 270.82104 273.10904 274.96786 276.48010 277.90967 279.37137
 280.80792 282.01105 282.98425 284.05429 285.22931 286.18085 287.14993 288.02786
 288.81744 289.52060 290.13483 290.91763
 366.78100 356.34672 345.79044 334.66816 323.08288 311.28861 299.17033 286.98505
 274.70877 262.61749 250.63821 239.95093 230.08465 221.20037 213.39410 206.40782
 200.25354 195.20326 191.79698 189.85070 188.89942 188.97514 189.82186 191.14159
 192.87831 194.98503 197.25975 199.63047 202.08719 204.57891 206.67863 208.53235
 210.17007 211.32680 211.56752 211.80724 211.75596 211.47268 211.11740 210.75912
 210.38784 210.10956 209.92929 209.80501 209.74473 210.08745 210.48517 210.88589
 211.69061 212.88033 214.14205 215.93678 217.87650 219.93122 222.03794 224.13266
 226.20438 228.30010 230.40882 232.52654 234.66727 236.85099 239.11871 241.50043
 244.13315 246.39587 248.40959 250.18631 251.61503 252.74976 253.58348 253.91120
 253.95992 253.74564 253.11736 252.07708 250.69480 248.86752 246.78825 244.63297
 242.43569 240.25141 238.08313 235.93385 233.80557 231.68429 229.72201 227.89073
 226.18546 224.66918 223.31090 222.09462 220.98834 219.96006 219.07578 218.22850
 217.48222 216.67395 215.78367 215.15939 214.62111 214.61787 214.60190 213.98900
 212.43677 210.88680 211.18547 213.26003 216.70134 221.04402 226.40477 230.98318
 234.89282 239.03075 243.21725 247.29895 251.24957 255.10419 258.81033 262.22565
 265.33536 268.18857 270.79019 273.08380 274.95407 276.46475 277.85535 279.26889
 280.66403 281.86963 282.80719 283.69073 284.73105 285.63474 286.30875 287.09146
 287.90698 288.63321 289.26761 290.07611
 366.78100 356.34630 345.78960 334.66689 323.08119 311.28649 299.16779 286.98208
 274.70538 262.61368 250.63398 239.94628 230.07957 221.19487 213.38817 206.40147
 200.24676 195.19606 191.78936 189.84266 188.89096 188.96625 189.81255 191.13185
 192.86815 194.97445 197.24874 199.61904 202.07534 204.56664 206.66593 208.51923
 210.15653 211.31283 211.55313 211.79242 211.74072 211.45702 211.10132 210.74261
 210.37091 210.09221 209.91151 209.78681 209.72610 210.06840 210.46570 210.86600
 211.67029 212.85959 214.12089 215.91519 217.85449 219.90878 222.01508 224.10938
 226.18068 228.27598 230.38427 232.50157 234.64187 236.82517 239.09246 241.47376
 244.10606 246.36836 248.38166 250.15795 251.58625 252.72055 253.55385 253.88114
 253.92944 253.71474 253.08604 252.04534 250.66263 248.83493 246.75523 244.59953
 242.40182 240.21712 238.04842 235.89872 233.77002 231.64831 229.68561 227.85391
 226.14821 224.63151 223.27280 222.05610 220.94940 219.92070 219.03599 218.18829
 217.44159 216.63289 215.74219 215.11748 214.57878 214.61186 214.68307 213.94005
 212.54369 210.85704 211.03973 213.21324 216.67744 221.02951 226.40932 230.98582
 234.89320 239.03406 243.22520 247.31017 251.25945 255.10638 258.80130 262.20312
 265.30212 268.15091 270.76660 273.10046 275.00739 276.51910 277.88123 279.23129
 280.56573 281.70041 282.54700 283.36838 284.31009 285.24716 285.92767 286.61642
 287.41907 288.14777 288.78433 289.59558
 366.78100 356.34624 345.78947 334.66671 323.08095 311.28619 299.16742 286.98166
 274.70490 262.61314 250.63337 239.94561 230.07885 221.19408 213.38732 206.40056
 200.24580 195.19503 191.78827 189.84151 188.88974 188.96498 189.81122 191.13046
 192.86669 194.97293 197.24717 199.61741 202.07364 204.56488 206.66412 208.51735
 210.15459 211.31083 211.55107 211.79030 211.73854 211.45478 211.09901 210.74025
 210.36849 210.08973 209.90896 209.78420 209.72344 210.06568 210.46291 210.86315
 211.66739 212.85662 214.11786 215.91210 217.85134 219.90557 222.01181 224.10605
 226.17729 228.27252 230.38076 232.49800 234.63823 236.82147 239.08871 241.46995
 244.10218 246.36442 248.37766 250.15389 251.58213 252.71637 253.54961 253.87684
 253.92508 253.71032 253.08156 252.04079 250.65803 248.83027 246.75050 244.59474
 242.39698 240.21222 238.04345 235.89369 233.76493 231.64316 229.68040 227.84864
 226.14288 224.62611 223.26735 222.05059 220.94383 219.91506 219.03030 218.18254
 217.43577 216.62701 215.73625 215.11149 214.57272 214.62279 214.73811 213.92175
 212.60675 210.83315 210.90132 213.14937 216.67294 221.05518 226.41928 230.99371
 234.90221 239.04605 243.23973 247.32236 251.26466 255.09982 258.78177 262.17200
 265.26346 268.11166 270.73990 273.10071 275.03745 276.56332 277.91852 279.23792
 280.51904 281.60223 282.35992 282.89478 283.56152 284.55875 285.53439 286.17010
 286.95798 287.69324 288.33554 289.15408
 366.78100 356.34707 345.79114 334.66922 323.08429 311.29036 299.17243 286.98750
 274.71158 262.62065 250.64172 239.95479 230.08886 221.20494 213.39901 206.41308
 200.25915 195.20922 191.80330 189.85737 188.90644 188.98251 189.82958 191.14966
 192.88673 194.99380 197.26887 199.63995 202.09702 204.58909 206.68916 208.54323
 210.18131 211.33838 211.57945 211.81952 211.76859 211.48567 211.13074 210.77281
 210.40188 210.12395 209.94403 209.82010 209.76017 210.10324 210.50131 210.90239
 211.70746 212.89753 214.15960 215.95467 217.89475 219.94982 222.05689 224.15196
 226.22403 228.32011 230.42918 232.54725 234.68832 236.87239 239.14047 241.52254
 244.15561 246.41868 248.43275 250.20983 251.63890 252.77397 253.60804 253.93611
 253.98519 253.77126 253.14333 252.10340 250.72148 248.89455 246.81562 244.66069
 242.46376 240.27984 238.11191 235.96298 233.83505 231.71412 229.75220 227.92127
 226.21634 224.70041 223.34248 222.12656 221.02063 219.99270 219.10877 218.26184
 217.51592 216.70799 215.81806 215.19413 214.65620 214.67630 214.72377 213.97090
 212.66823 210.80925 210.80269 213.11154 216.61966 220.97484 226.40663 230.98167
 234.90158 239.04971 243.24730 247.32724 251.26299 255.08827 258.75995 262.14291
 265.23071 268.07809 270.71072 273.08411 275.04312 276.58554 277.93777 279.23157
 280.44839 281.42819 282.03384 282.46295 283.18655 284.26257 285.26645 285.92630
 286.59656 287.33551 287.98392 288.81021
 366.78100 356.34825 345.79350 334.67275 323.08900 311.29625 299.17950 286.99575
 274.72100 262.63125 250.65350 239.96776 230.10301 221.22026 213.41551 206.43076
 200.27801 195.22926 191.82451 189.87976 188.93001 189.00726 189.85551 191.17676
 192.91501 195.02326 197.29951 199.67176 202.13001 204.62326 206.72451 208.57976
 210.21902 211.37727 211.61952 211.86077 211.81102 211.52927 211.17552 210.81877
 210.44902 210.17227 209.99352 209.87077 209.81202 210.15627 210.55552 210.95777
 211.76402 212.95527 214.21852 216.01477 217.95602 220.01228 222.12053 224.21678
 226.29003 228.38728 230.49753 232.61678 234.75903 236.94428 239.21353 241.59678
 244.23103 246.49528 248.51053 250.28878 251.71903 252.85528 253.69053 254.01978
 254.07003 253.85728 253.23054 252.19179 250.81104 248.98529 246.90754 244.75379
 242.55804 240.37529 238.20854 236.06079 233.93404 231.81429 229.85354 228.02379
 226.32004 224.80529 223.44854 222.23379 221.12904 220.10229 219.21954 218.37380
 217.62905 216.82230 215.93355 215.31080 214.77405 214.74854 214.68825 214.02686
 212.69441 210.77168 210.73459 213.11288 216.58041 220.86267 226.39418 230.98843
 234.90094 239.05531 243.25626 247.33562 251.26768 255.08453 258.74493 262.12280
 265.20773 268.05228 270.68457 273.06110 275.03125 276.59888 277.95752 279.23035
 280.39664 281.27859 281.71771 282.07928 282.93317 283.99881 285.01062 285.91302
 286.70135 287.42593 288.06302 288.87491
 366.78100 356.34890 345.79480 334.67470 323.09159 311.29949 299.18339 287.00029
 274.72619 262.63709 250.65999 239.97488 230.11078 221.22868 213.42458 206.44048
 200.28838 195.24027 191.83617 189.89207 188.94297 189.02087 189.86977 191.19167
 192.93056 195.03946 197.31636 199.68926 202.14816 204.64206 206.74396 208.59985
 210.23975 211.39865 211.64155 211.88345 211.83435 211.55325 211.20014 210.84404
 210.47494 210.19884 210.02074 209.89864 209.84053 210.18543 210.58533 210.98823
 211.79513 212.98703 214.25093 216.04782 217.98972 220.04662 222.15552 224.25242
 226.32632 228.42422 230.53511 232.65501 234.79791 236.98381 239.25371 241.63761
 244.27251 246.53740 248.55330 250.33220 251.76310 252.90000 253.73590 254.06579
 254.11669 253.90459 253.27849 252.24039 250.86029 249.03519 246.95808 244.80498
 242.60988 240.42778 238.26168 236.11458 233.98848 231.86937 229.90927 228.08017
 226.37707 224.86297 223.50687 222.29277 221.18866 220.16256 219.28046 218.43536
 217.69126 216.88516 215.99705 215.37495 214.83885 214.79265 214.68346 214.04132
 212.72057 210.73547 210.66472 213.08344 216.54939 220.82561 226.38991 230.99564
 234.90262 239.06306 243.26669 247.34511 251.27428 255.08354 258.73392 262.10721
 265.18735 268.02539 270.64987 273.01767 274.99442 276.59497 277.97321 279.24011
 280.37527 281.18808 281.54510 281.86908 282.55789 283.61087 284.60934 285.51718
 286.31903 287.04816 287.69101 288.51022
 366.78100 356.34912 345.79525 334.67537 323.09249 311.30062 299.18474 287.00186
 274.72799 262.63911 250.66223 239.97735 230.11348 221.23160 213.42772 206.44385
 200.29197 195.24409 191.84022 189.89634 188.94746 189.02559 189.87471 191.19683
 192.93596 195.04508 197.32220 199.69532 202.15445 204.64857 206.75069 208.60682
 210.24694 211.40606 211.64919 211.89131 211.84243 211.56156 211.20868 210.85280
 210.48393 210.20805 210.03017 209.90829 209.85042 210.19554 210.59566 210.99879
 211.80591 212.99803 214.26216 216.05928 218.00140 220.05853 222.16765 224.26477
 226.33890 228.43702 230.54814 232.66826 234.81139 236.99751 239.26763 241.65176
 244.28688 246.55200 248.56813 250.34725 251.77837 252.91550 253.75162 254.08174
 254.13287 253.92099 253.29511 252.25723 250.87736 249.05248 246.97560 244.82273
 242.62785 240.44597 238.28010 236.13322 234.00734 231.88847 229.92859 228.09971
 226.39684 224.88296 223.52708 222.31320 221.20933 220.18345 219.30157 218.45670
 217.71282 216.90694 216.01907 215.39719 214.86131 214.81050 214.69046 214.03275
 212.76421 210.75331 210.56787 213.01996 216.50308 220.78857 226.39240 230.98431
 234.90443 239.07056 243.27808 247.35237 251.27661 255.07819 258.72214 262.09500
 265.17059 267.99982 270.60953 272.96597 274.94992 276.57877 277.97348 279.22437
 280.32513 281.05109 281.41269 281.76978 282.38550 283.07654 283.94412 284.85919
 285.75214 286.47653 287.13464 287.97336
 366.78100 356.34946 345.79593 334.67639 323.09385 311.30231 299.18678 287.00424
 274.73070 262.64217 250.66563 239.98109 230.11755 221.23602 213.43248 206.44894
 200.29740 195.24987 191.84633 189.90279 188.95426 189.03272 189.88218 191.20464
 192.94411 195.05357 197.33103 199.70450 202.16396 204.65842 206.76088 208.61735
 210.25781 211.41727 211.66073 211.90320 211.85466 211.57412 211.22159 210.86605
 210.49751 210.22197 210.04444 209.92290 209.86536 210.21083 210.61129 211.01475
 211.82221 213.01468 214.27914 216.07660 218.01907 220.07653 222.18599 224.28345
 226.35792 228.45638 230.56784 232.68830 234.83177 237.01823 239.28869 241.67316
 244.30862 246.57408 248.59054 250.37001 251.80147 252.93893 253.77540 254.10586
 254.15732 253.94578 253.32025 252.28271 250.90317 249.07863 247.00210 244.84956
 242.65502 240.47349 238.30795 236.16141 234.03587 231.91734 229.95780 228.12926
 226.42673 224.91319 223.55765 222.34411 221.24058 220.21504 219.33350 218.48896
 217.74543 216.93989 216.05235 215.43082 214.89528 214.83270 214.68488 214.02670
 212.83168 210.80949 210.56029 212.96527 216.44695 220.73575 226.38615 230.95998
 234.89755 239.07246 243.28384 247.35197 251.27094 255.06523 258.70697 262.08325
 265.15582 267.97662 270.57373 272.92059 274.91275 276.56540 277.96634 279.18951
 280.28259 280.93051 281.20050 281.48828 282.12057 282.89182 283.83792 284.73080
 285.57120 286.30347 286.93024 287.75000
 366.78100 356.34975 345.79649 334.67724 323.09498 311.30373 299.18847 287.00622
 274.73296 262.64471 250.66845 239.98420 230.12094 221.23969 213.43644 206.45318
 200.30193 195.25467 191.85142 189.90816 188.95991 189.03865 189.88840 191.21114
 192.95089 195.06063 197.33838 199.71213 202.17187 204.66662 206.76936 208.62611
 210.26685 211.42660 211.67034 211.91309 211.86483 211.58458 211.23232 210.87707
 210.50882 210.23356 210.05631 209.93505 209.87780 210.22354 210.62429 211.02803
 211.83578 213.02852 214.29327 216.09101 218.03376 220.09151 222.20125 224.29900
 226.37374 228.47249 230.58423 232.70498 234.84872 237.03547 239.30621 241.69096
 244.32670 246.59245 248.60920 250.38894 251.82069 252.95843 253.79518 254.12592
 254.17767 253.96641 253.34116 252.30390 250.92465 249.10039 247.02414 244.87189
 242.67763 240.49638 238.33112 236.18487 234.05961 231.94136 229.98210 228.15385
 226.45159 224.93834 223.58308 222.36983 221.26658 220.24132 219.36007 218.51581
 217.77256 216.96730 216.08005 215.45879 214.92354 214.85457 214.69162 214.00571
 212.89505 210.84586 210.50319 212.91032 216.39787 220.69093 226.36160 230.94379
 234.88280 239.06699 243.28241 247.35008 251.26819 255.05554 258.69189 262.07098
 265.14001 267.95410 270.53851 272.86349 274.84927 276.51862 277.93021 279.14331
 280.21103 280.83029 281.07932 281.36960 282.01797 282.78033 283.70676 284.58737
 285.40964 286.14581 286.77835 287.60541
 366.78100 356.34976 345.79651 334.67727 323.09503 311.30379 299.18854 287.00630
 274.73306 262.64481 250.66857 239.98433 230.12109 221.23984 213.43660 206.45336
 200.30211 195.25487 191.85163 189.90839 188.96014 189.03890 189.88866 191.21141
 192.95117 195.06093 197.33869 199.71244 202.17220 204.66696 206.76971 208.62647
 210.26723 211.42699 211.67074 211.91350 211.86526 211.58501 211.23277 210.87753
 210.50929 210.23404 210.05680 209.93556 209.87831 210.22407 210.62483 211.02859
 211.83634 213.02910 214.29386 216.09161 218.03437 220.09213 222.20189 224.29964
 226.37440 228.47316 230.58491 232.70567 234.84943 237.03619 239.30694 241.69170
 244.32746 246.59321 248.60997 250.38973 251.82148 252.95924 253.79600 254.12676
 254.17851 253.96727 253.34203 252.30478 250.92554 249.10130 247.02506 244.87281
 242.67857 240.49733 238.33208 236.18584 234.06060 231.94236 229.98311 228.15487
 226.45263 224.93938 223.58414 222.37090 221.26766 220.24241 219.36117 218.51693
 217.77368 216.96844 216.08120 215.45996 214.92471 214.86380 214.71988 213.97604
 212.92937 210.85371 210.42218 212.83990 216.35789 220.65251 226.33134 230.94429
 234.86368 239.06068 243.28081 247.35371 251.27354 255.05545 258.68442 262.06558
 265.13232 267.93625 270.50165 272.79028 274.75909 276.43600 277.85828 279.07233
 280.10822 280.71735 281.00775 281.33478 281.95923 282.74243 283.64438 284.52567
 285.34210 286.08618 286.75601 287.62082
 366.78100 356.34971 345.79641 334.67712 323.09483 311.30353 299.18824 287.00595
 274.73265 262.64436 250.66807 239.98377 230.12048 221.23919 213.43589 206.45260
 200.30131 195.25402 191.85072 189.90743 188.95914 189.03784 189.88755 191.21026
 192.94996 195.05967 197.33738 199.71108 202.17079 204.66550 206.76820 208.62491
 210.26562 211.42532 211.66903 211.91174 211.86344 211.58315 211.23086 210.87556
 210.50727 210.23198 210.05468 209.93339 209.87610 210.22180 210.62251 211.02622
 211.83393 213.02663 214.29134 216.08905 218.03175 220.08946 222.19917 224.29687
 226.37158 228.47029 230.58199 232.70270 234.84641 237.03311 239.30382 241.68853
 244.32423 246.58994 248.60665 250.38635 251.81806 252.95577 253.79247 254.12318
 254.17489 253.96359 253.33830 252.30101 250.92172 249.09742 247.02113 244.86884
 242.67454 240.49325 238.32796 236.18166 234.05637 231.93808 229.97878 228.15049
 226.44820 224.93490 223.57961 222.36632 221.26302 220.23773 219.35644 218.51214
 217.76885 216.96356 216.07626 215.45497 214.91968 214.86894 214.74908 213.95885
 212.95729 210.84064 210.34404 212.78714 216.32977 220.62123 226.29774 230.94247
 234.84161 239.04927 243.27414 247.35350 251.27632 255.05663 258.68130 262.06500
 265.12949 267.92130 270.46066 272.70798 274.65430 276.33481 277.76633 278.99118
 279.99884 280.60355 280.91681 281.27225 281.90656 282.74512 283.67377 284.56256
 285.39581 286.15442 286.83310 287.69800
 366.78100 356.34960 345.79620 334.67681 323.09441 311.30301 299.18761 287.00521
 274.73182 262.64342 250.66702 239.98262 230.11922 221.23783 213.43443 206.45103
 200.29963 195.25223 191.84884 189.90544 188.95704 189.03564 189.88524 191.20784
 192.94745 195.05705 197.33465 199.70825 202.16785 204.66246 206.76506 208.62166
 210.26226 211.42186 211.66547 211.90807 211.85967 211.57927 211.22687 210.87148
 210.50308 210.22768 210.05028 209.92888 209.87149 210.21709 210.61769 211.02129
 211.82889 213.02150 214.28610 216.08370 218.02630 220.08390 222.19351 224.29111
 226.36571 228.46431 230.57591 232.69652 234.84012 237.02672 239.29732 241.68192
 244.31752 246.58313 248.59973 250.37933 251.81093 252.94853 253.78514 254.11574
 254.16734 253.95594 253.33054 252.29315 250.91375 249.08935 247.01295 244.86055
 242.66616 240.48476 238.31936 236.17296 234.04756 231.92917 229.96977 228.14137
 226.43897 224.92557 223.57018 222.35678 221.25338 220.22798 219.34658 218.50219
 217.75879 216.95339 216.06599 215.44459 214.90919 214.87086 214.78030 213.94455
 212.98366 210.83362 210.29742 212.75168 216.29929 220.59090 226.25800 230.93085
 234.81252 239.03020 243.26201 247.35060 251.27798 255.05922 258.68289 262.06967
 265.13318 267.91144 270.41916 272.62271 274.54211 276.21854 277.65823 278.89801
 279.89172 280.52359 280.83353 281.20001 281.86688 282.76489 283.73160 284.63446
 285.48080 286.26578 286.95959 287.84381
 366.78100 356.34935 345.79571 334.67606 323.09341 311.30177 299.18612 287.00347
 274.72983 262.64118 250.66453 239.97989 230.11624 221.23459 213.43095 206.44730
 200.29565 195.24800 191.84436 189.90071 188.95206 189.03042 189.87977 191.20212
 192.94148 195.05083 197.32818 199.70154 202.16089 204.65524 206.75760 208.61395
 210.25430 211.41366 211.65701 211.89936 211.85072 211.57007 211.21742 210.86178
 210.49313 210.21748 210.03984 209.91819 209.86054 210.20590 210.60625 211.00960
 211.81696 213.00931 214.27366 216.07101 218.01337 220.07072 222.18007 224.27743
 226.35178 228.45013 230.56149 232.68184 234.82519 237.01155 239.28190 241.66625
 244.30161 246.56696 248.58331 250.36267 251.79402 252.93137 253.76773 254.09808
 254.14943 253.93779 253.31214 252.27449 250.89485 249.07020 246.99355 244.84091
 242.64626 240.46461 238.29896 236.15232 234.02667 231.90802 229.94838 228.11973
 226.41708 224.90344 223.54779 222.33414 221.23050 220.20485 219.32320 218.47856
 217.73491 216.92926 216.04162 215.41997 214.88432 214.86299 214.81258 213.93878
 212.98363 210.83662 210.30968 212.71864 216.25137 220.55183 226.22243 230.91110
 234.78606 239.01227 243.25313 247.35063 251.28235 255.06456 258.68942 262.08173
 265.14355 267.90436 270.37500 272.53168 274.42230 276.09308 277.54391 278.79745
 279.78482 280.42154 280.71265 281.11612 281.88052 282.82013 283.79095 284.69873
 285.56400 286.36264 287.06030 287.94943
 366.78100 356.34919 345.79537 334.67556 323.09275 311.30093 299.18512 287.00230
 274.72849 262.63968 250.66286 239.97805 230.11424 221.23242 213.42861 206.44479
 200.29298 195.24517 191.84135 189.89754 188.94873 189.02691 189.87610 191.19828
 192.93747 195.04666 197.32384 199.69703 202.15622 204.65040 206.75259 208.60878
 210.24896 211.40815 211.65133 211.89352 211.84471 211.56389 211.21108 210.85527
 210.48645 210.21064 210.03282 209.91101 209.85320 210.19838 210.59857 211.00176
 211.80894 213.00113 214.26532 216.06250 218.00469 220.06187 222.17106 224.26825
 226.34243 228.44062 230.55181 232.67199 234.81518 237.00136 239.27155 241.65574
 244.29092 246.55611 248.57230 250.35148 251.78267 252.91985 253.75604 254.08623
 254.13741 253.92560 253.29979 252.26197 250.88216 249.05735 246.98053 244.82772
 242.63290 240.45109 238.28528 236.13846 234.01265 231.89384 229.93402 228.10521
 226.40239 224.88858 223.53277 222.31895 221.21514 220.18933 219.30751 218.46270
 217.71888 216.91307 216.02526 215.40344 214.86763 214.85545 214.82671 213.95432
 212.98656 210.84178 210.29419 212.69583 216.19452 220.50948 226.19876 230.88101
 234.75787 238.99239 243.24193 247.34464 251.27773 255.06245 258.69479 262.09903
 265.16089 267.90173 270.33234 272.44254 274.30362 275.97006 277.42807 278.67136
 279.62878 280.26187 280.62234 281.12476 281.93430 282.89191 283.86276 284.77722
 285.64432 286.42502 287.10706 287.97623
 366.78100 356.34924 345.79549 334.67573 323.09298 311.30122 299.18547 287.00271
 274.72896 262.64020 250.66344 239.97869 230.11493 221.23318 213.42942 206.44567
 200.29391 195.24616 191.84240 189.89864 188.94989 189.02813 189.87738 191.19962
 192.93887 195.04811 197.32536 199.69860 202.15784 204.65209 206.75433 208.61058
 210.25082 211.41007 211.65331 211.89556 211.84680 211.56604 211.21329 210.85753
 210.48878 210.21302 210.03527 209.91351 209.85576 210.20100 210.60124 211.00449
 211.81173 213.00398 214.26822 216.06547 218.00771 220.06496 222.17420 224.27144
 226.34569 228.44393 230.55518 232.67542 234.81867 237.00491 239.27516 241.65940
 244.29464 246.55989 248.57613 250.35538 251.78662 252.92387 253.76011 254.09035
 254.14160 253.92984 253.30409 252.26633 250.88658 249.06182 246.98507 244.83231
 242.63755 240.45580 238.29004 236.14329 234.01753 231.89878 229.93902 228.11027
 226.40751 224.89375 223.53800 222.32424 221.22049 220.19473 219.31298 218.46822
 217.72447 216.91871 216.03095 215.40920 214.87344 214.85672 214.81721 213.97972
 213.01913 210.86633 210.25670 212.65002 216.14490 220.47652 226.16808 230.82835
 234.71538 238.96007 243.21877 247.32664 251.26205 255.05379 258.70157 262.12534
 265.18860 267.90897 270.30301 272.36639 274.19269 275.84332 277.29196 278.51016
 279.46567 280.15347 280.66141 281.26190 282.05475 282.98294 283.95035 284.87323
 285.71713 286.46933 287.12842 287.96832
 366.78100 356.34951 345.79601 334.67652 323.09402 311.30253 299.18703 287.00454
 274.73105 262.64255 250.66606 239.98156 230.11807 221.23658 213.43308 206.44959
 200.29809 195.25060 191.84710 189.90361 188.95512 189.03362 189.88313 191.20563
 192.94514 195.05465 197.33215 199.70566 202.16516 204.65967 206.76217 208.61868
 210.25919 211.41869 211.66220 211.90470 211.85621 211.57572 211.22322 210.86773
 210.49923 210.22374 210.04624 209.92475 209.86726 210.21276 210.61327 211.01677
 211.82428 213.01679 214.28129 216.07880 218.02130 220.07881 222.18831 224.28582
 226.36033 228.45883 230.57034 232.69084 234.83435 237.02085 239.29136 241.67587
 244.31137 246.57688 248.59338 250.37289 251.80440 252.94190 253.77841 254.10891
 254.16042 253.94892 253.32343 252.28594 250.90644 249.08195 247.00545 244.85296
 242.65847 240.47697 238.31148 236.16498 234.03949 231.92099 229.96150 228.13301
 226.43051 224.91702 223.56152 222.34803 221.24454 220.21904 219.33755 218.49305
 217.74956 216.94406 216.05657 215.43508 214.89958 214.87115 214.80397 213.98917
 213.10780 210.88986 210.18384 212.63351 216.10811 220.42668 226.11017 230.76331
 234.66302 238.91885 243.18895 247.30704 251.24857 255.05142 258.71634 262.15561
 265.22104 267.92453 270.28198 272.29385 274.07462 275.69937 277.13623 278.35577
 279.35355 280.13437 280.74448 281.38959 282.22952 283.28561 284.27875 285.18100
 285.98416 286.71603 287.36105 288.18301
 366.78100 356.34974 345.79648 334.67722 323.09497 311.30371 299.18845 287.00619
 274.73293 262.64467 250.66841 239.98416 230.12090 221.23964 213.43638 206.45312
 200.30186 195.25460 191.85135 189.90809 188.95983 189.03857 189.88831 191.21105
 192.95079 195.06054 197.33828 199.71202 202.17176 204.66650 206.76924 208.62598
 210.26673 211.42647 211.67021 211.91295 211.86469 211.58443 211.23217 210.87692
 210.50866 210.23340 210.05614 209.93488 209.87762 210.22336 210.62411 211.02785
 211.83559 213.02833 214.29307 216.09081 218.03355 220.09129 222.20104 224.29878
 226.37352 228.47226 230.58400 232.70474 234.84848 237.03523 239.30597 241.69071
 244.32645 246.59219 248.60893 250.38867 251.82042 252.95816 253.79490 254.12564
 254.17738 253.96612 253.34086 252.30361 250.92435 249.10009 247.02383 244.87157
 242.67731 240.49605 238.33080 236.18454 234.05928 231.94102 229.98176 228.15350
 226.45124 224.93799 223.58273 222.36947 221.26621 220.24095 219.35969 218.51543
 217.77218 216.96692 216.07966 215.45840 214.92314 214.88736 214.80284 213.98630
 213.15761 210.98813 210.20589 212.47736 216.03842 220.41660 226.03972 230.72150
 234.61786 238.88995 243.17947 247.31552 251.26180 255.06740 258.74081 262.18521
 265.24438 267.91864 270.22842 272.19577 273.94678 275.55679 277.00119 278.26581
 279.33243 280.20139 280.87946 281.57285 282.41672 283.41751 284.41345 285.32120
 286.14392 286.88861 287.53915 288.36823
 366.78100 356.34958 345.79616 334.67674 323.09432 311.30291 299.18749 287.00507
 274.73165 262.64323 250.66681 239.98239 230.11897 221.23756 213.43414 206.45072
 200.29930 195.25188 191.84846 189.90504 188.95662 189.03521 189.88479 191.20737
 192.94695 195.05653 197.33411 199.70769 202.16727 204.66185 206.76444 208.62102
 210.26160 211.42118 211.66476 211.90734 211.85892 211.57850 211.22609 210.87067
 210.50225 210.22683 210.04941 209.92799 209.87057 210.21615 210.61674 211.02032
 211.82790 213.02048 214.28506 216.08264 218.02522 220.08280 222.19238 224.28997
 226.36455 228.46313 230.57471 232.69529 234.83887 237.02545 239.29603 241.68062
 244.31620 246.58178 248.59836 250.37794 251.80952 252.94710 253.78368 254.11427
 254.16585 253.95443 253.32901 252.29159 250.91217 249.08775 247.01133 244.85891
 242.66450 240.48308 238.31766 236.17124 234.04582 231.92740 229.96798 228.13956
 226.43715 224.92373 223.56831 222.35489 221.25147 220.22605 219.34463 218.50021
 217.75679 216.95138 216.06396 215.44254 214.90712 214.88266 214.82040 213.97429
 213.15240 211.05130 210.26364 212.36862 215.95300 220.38110 225.98999 230.69923
 234.59473 238.88071 243.18391 247.33125 251.28053 255.08533 258.75998 262.20041
 265.25342 267.91232 270.18793 272.10910 273.81906 275.40900 276.87601 278.18518
 279.27524 280.16519 280.92007 281.69580 282.54749 283.58145 284.57675 285.49149
 286.33328 287.08310 287.73810 288.57281
 366.78100 356.34884 345.79468 334.67452 323.09136 311.29920 299.18305 286.99989
 274.72573 262.63657 250.65941 239.97425 230.11009 221.22793 213.42377 206.43961
 200.28746 195.23930 191.83514 189.89098 188.94182 189.01966 189.86850 191.19034
 192.92918 195.03802 197.31487 199.68771 202.14655 204.64039 206.74223 208.59807
 210.23791 211.39675 211.63959 211.88143 211.83228 211.55112 211.19796 210.84180
 210.47264 210.19648 210.01832 209.89616 209.83800 210.18284 210.58269 210.98553
 211.79237 212.98421 214.24805 216.04489 217.98673 220.04357 222.15241 224.24925
 226.32310 228.42094 230.53178 232.65162 234.79446 236.98030 239.25014 241.63398
 244.26882 246.53366 248.54951 250.32835 251.75919 252.89603 253.73187 254.06171
 254.11255 253.90039 253.27423 252.23607 250.85592 249.03076 246.95360 244.80044
 242.60528 240.42312 238.25696 236.10980 233.98364 231.86448 229.90433 228.07517
 226.37201 224.85785 223.50169 222.28753 221.18337 220.15721 219.27505 218.42989
 217.68574 216.87958 215.99142 215.36926 214.83310 214.84761 214.86978 213.94801
 213.12799 211.11313 210.29134 212.21954 215.93024 220.43486 225.95387 230.66971
 234.55916 238.85446 243.16579 247.30444 251.23628 255.04895 258.76959 262.25409
 265.31076 267.92798 270.14178 272.01376 273.69489 275.27649 276.76923 278.10187
 279.17084 280.10150 280.94101 281.80035 282.78009 283.85236 284.89841 285.83914
 286.65854 287.38824 288.02570 288.83804
 366.78100 356.34798 345.79295 334.67193 323.08791 311.29488 299.17786 286.99383
 274.71881 262.62879 250.65076 239.96474 230.09972 221.21669 213.41167 206.42664
 200.27362 195.22460 191.81957 189.87455 188.92453 189.00150 189.84948 191.17045
 192.90843 195.01641 197.29238 199.66436 202.12234 204.61531 206.71629 208.57126
 210.21024 211.36822 211.61019 211.85117 211.80115 211.51912 211.16510 210.80807
 210.43805 210.16103 209.98200 209.85898 209.79996 210.14393 210.54291 210.94489
 211.75086 212.94184 214.20481 216.00079 217.94177 219.99774 222.10572 224.20170
 226.27467 228.37165 230.48162 232.60060 234.74258 236.92755 239.19653 241.57951
 244.21348 246.47746 248.49243 250.27041 251.70039 252.83636 253.67134 254.00032
 254.05029 253.83727 253.21024 252.17122 250.79020 248.96417 246.88615 244.73213
 242.53610 240.35308 238.18605 236.03803 233.91101 231.79098 229.82996 227.99994
 226.29591 224.78089 223.42387 222.20884 221.10382 220.07679 219.19377 218.34775
 217.60272 216.79570 215.90668 215.28365 214.74663 214.77800 214.83289 213.95622
 213.11600 211.17668 210.32079 212.08533 215.93997 220.51399 225.91663 230.62395
 234.51392 238.82124 243.14642 247.27708 251.19118 255.01285 258.78409 262.31180
 265.36298 267.93066 270.08591 271.91541 273.56403 275.11911 276.62421 277.95499
 279.03818 280.01141 280.95636 281.94125 282.96121 284.04337 285.12003 285.97000
 286.71930 287.38657 287.96945 288.71231
 366.78100 356.34708 345.79115 334.66923 323.08431 311.29039 299.17246 286.98754
 274.71162 262.62069 250.64177 239.95485 230.08892 221.20500 213.39908 206.41316
 200.25923 195.20931 191.80339 189.85746 188.90654 188.98262 189.82970 191.14977
 192.88685 194.99393 197.26900 199.64008 202.09716 204.58924 206.68931 208.54339
 210.18147 211.33854 211.57962 211.81970 211.76877 211.48585 211.13093 210.77301
 210.40208 210.12416 209.94424 209.82031 209.76039 210.10347 210.50155 210.90262
 211.70770 212.89778 214.15985 215.95493 217.89501 219.95009 222.05716 224.15224
 226.22432 228.32039 230.42947 232.54755 234.68862 236.87270 239.14078 241.52286
 244.15593 246.41901 248.43309 250.21016 251.63924 252.77432 253.60840 253.93647
 253.98555 253.77163 253.14370 252.10378 250.72186 248.89493 246.81601 244.66109
 242.46417 240.28024 238.11232 235.96340 233.83547 231.71455 229.75263 227.92171
 226.21678 224.70086 223.34294 222.12701 221.02109 219.99317 219.10925 218.26232
 217.51640 216.70848 215.81855 215.19463 214.65671 214.69150 214.75284 213.98581
 213.14478 211.23943 210.34920 211.99867 215.93710 220.54671 225.87422 230.57423
 234.47392 238.79758 243.14023 247.26888 251.16881 254.99530 258.79886 262.35110
 265.39191 267.92352 270.03906 271.83609 273.45157 274.98434 276.49484 277.82742
 278.92264 279.93250 280.99100 282.07101 283.14676 284.26694 285.33472 286.17639
 286.93338 287.60748 288.19635 288.94681
 354.97500 345.04800 334.58700 324.11500 313.32600 302.53700 291.65000 280.76700
 269.93100 259.19300 248.62200 238.61700 229.08700 220.35500 212.54000 205.53500
 199.46400 194.49300 191.14300 189.19000 188.08900 188.01400 188.72400 189.90600
 191.46900 193.38200 195.40300 197.55600 199.80700 202.06000 204.28800 206.47900
 208.55200 210.37800 212.02500 213.65900 214.99800 216.11800 217.17200 218.25900
 219.49400 220.64500 221.67900 222.61400 223.54500 224.98200 226.57100 228.19000
 229.79700 231.81100 233.86500 235.97200 238.24200 240.55300 242.89900 245.25300
 247.48800 249.53500 251.36600 252.84800 254.09800 255.16700 256.02700 256.25300
 256.09500 255.54300 253.93500 252.56600 251.38400 250.24500 249.05200 247.70100
 246.01600 243.99600 241.78400 239.39300 236.81300 234.22300 231.65800 229.14400
 226.74000 224.47300 222.33500 220.32500 218.44000 216.67700 214.96200 213.47200
 212.20000 211.10800 210.26000 209.63900 209.24400 209.03100 209.05800 209.33300
 209.78400 210.62600 211.33100 212.39100 213.62500 214.84668 217.72949 219.47640
 220.32566 220.86828 220.88710 220.27371 219.43733 218.84250 219.04934 220.86203
 222.60583 225.72206 229.03064 232.61777 236.12270 239.51333 242.70767 245.68587
 248.41061 250.90679 253.19353 254.91714 256.48655 257.94920 259.39966 260.69384
 261.81714 262.77997 263.71679 264.54570 265.26305 265.89772 266.47676 267.00133
 267.47312 267.89325 268.26027 268.72800
