|-------------------------------------------------------------------------|
|   File Name : in_temp.dat
|   Subject   : temperature profiles used for initial guess atmosphere
|   File Type : input of gmtr
|   Data Type : atmospherical data
|   Author/s  : WRF-Chem
|   Date      : Fri Jul 26 15:39:24 2024
|-------------------------------------------------------------------------|

 WRF-Chem temperature
#
 values of T (K)    (8f10.5)
#
 354.97500 345.04800 334.58700 324.11500 313.32600 302.53700 291.65000 280.76700
 269.93100 259.19300 248.62200 238.61700 229.08700 220.35500 212.54000 205.53500
 199.46400 194.49300 191.14300 189.19000 188.08900 188.01400 188.72400 189.90600
 191.46900 193.38200 195.40300 197.55600 199.80700 202.06000 204.28800 206.47900
 208.55200 210.37800 212.02500 213.65900 214.99800 216.11800 217.17200 218.25900
 219.49400 220.64500 221.67900 222.61400 223.54500 224.98200 226.57100 228.19000
 229.79700 231.81100 233.86500 235.97200 238.24200 240.55300 242.89900 245.25300
 247.48800 249.53500 251.36600 252.84800 254.09800 255.16700 256.02700 256.25300
 256.09500 255.54300 253.93500 252.56600 251.38400 250.24500 249.05200 247.70100
 246.01600 243.99600 241.78400 239.39300 236.81300 234.22300 231.65800 229.14400
 226.74000 224.47300 222.33500 220.32500 218.44000 216.67700 214.96200 213.47200
 212.20000 211.10800 210.26000 209.63900 209.24400 209.03100 209.05800 209.33300
 209.78400 210.62600 211.33100 212.39100 213.62500 214.84668 217.72949 219.47640
 220.32566 220.86828 220.88710 220.27371 219.43733 218.84250 219.04934 220.86203
 222.60583 225.72206 229.03064 232.61777 236.12270 239.51333 242.70767 245.68587
 248.41061 250.90679 253.19353 254.91714 256.48655 257.94920 259.39966 260.69384
 261.81714 262.77997 263.71679 264.54570 265.26305 265.89772 266.47676 267.00133
 267.47312 267.89325 268.26027 268.72800
 366.78100 356.33500 345.76700 334.63300 323.03600 311.23000 299.10000 286.90300
 274.61500 262.51200 250.52100 239.82200 229.94400 221.04800 213.23000 206.23200
 200.06600 195.00400 191.58600 189.62800 188.66500 188.72900 189.56400 190.87200
 192.59700 194.69200 196.95500 199.31400 201.75900 204.23900 206.32700 208.16900
 209.79500 210.94000 211.16900 211.39700 211.33400 211.03900 210.67200 210.30200
 209.91900 209.62900 209.43700 209.30100 209.22900 209.56000 209.94600 210.33500
 211.12800 212.30600 213.55600 215.33900 217.26700 219.31000 221.40500 223.48800
 225.54800 227.63200 229.72900 231.83500 233.96400 236.13600 238.39200 240.76200
 243.38300 245.63400 247.63600 249.40100 250.81800 251.94100 252.76300 253.07900
 253.11600 252.89000 252.25000 251.19800 249.80400 247.96500 245.87400 243.70700
 241.49800 239.30200 237.12200 234.96100 232.82100 230.68800 228.71400 226.87100
 225.15400 223.62600 222.25600 221.02800 219.91000 218.87000 217.97400 217.11500
 216.35700 215.53700 214.63500 213.99900 213.44900 212.85855 212.01316 212.61654
 214.26826 216.08686 218.14273 220.53346 223.40855 226.78828 231.49734 235.90155
 239.42278 243.28576 247.23140 251.11907 254.80144 258.23331 261.38913 264.27520
 266.89312 269.26852 271.44504 273.08845 274.58484 275.98591 277.39845 278.65879
 279.75272 280.69038 281.56708 282.34086 283.01050 283.60295 284.14348 284.63317
 285.07358 285.46577 285.80838 286.24500
 381.81900 372.39900 361.20600 349.77600 337.62200 324.85300 311.81000 298.35300
 284.86000 271.32400 258.56100 246.30400 236.08700 226.79600 218.44800 211.29000
 205.52200 200.89400 197.38100 194.84800 193.01500 192.31500 192.25000 192.43100
 192.91200 193.53700 194.13600 194.71200 195.26200 195.83100 196.39300 196.97600
 197.60400 198.14900 198.58400 199.05700 199.69500 200.37800 201.05400 201.70800
 202.31300 202.85700 203.35500 203.86200 204.56900 205.29700 206.02600 206.98700
 208.19300 209.44100 210.96900 212.57600 214.46200 216.51300 218.63000 220.85300
 223.34100 225.96200 228.73900 231.69700 234.70600 237.70600 240.69200 243.65700
 246.73700 249.69900 252.52100 255.06300 257.29000 259.23300 260.63300 261.68000
 262.46100 262.79800 262.69100 262.22400 261.06900 259.52500 257.70700 255.50700
 253.00100 250.30200 247.39800 244.45200 241.65400 239.05400 236.73300 234.59000
 232.59500 230.72500 228.83400 226.82600 224.66600 222.38700 220.10400 217.71500
 215.45900 213.06600 210.54600 208.09300 205.35400 202.08130 196.05959 200.71215
 209.01611 216.90438 223.84126 229.78593 235.00632 240.20838 245.98943 250.68668
 254.32982 257.93487 261.55666 264.96801 268.15192 271.06452 273.76717 276.25691
 278.57680 280.74479 282.77456 284.60533 286.27232 287.81705 289.31715 290.65561
 291.81734 292.81312 293.70701 294.49387 295.17482 295.77730 296.32696 296.82492
 297.27278 297.67160 298.02000 298.46400
 399.33000 389.90700 379.81300 368.66800 357.52200 345.30100 333.07400 320.22700
 307.21600 293.84800 280.37600 267.29600 254.61000 242.98700 232.15100 221.97700
 212.67200 204.28600 197.66900 192.82100 189.48600 187.45200 186.81400 187.08900
 187.78100 189.05400 190.64800 192.54200 194.63000 196.75200 198.67100 200.15800
 201.53500 202.48700 202.97500 203.34000 203.53900 203.49700 203.38500 203.24700
 203.00500 202.78600 202.60300 202.43700 202.42600 202.88800 203.42000 203.95100
 204.89500 205.99200 207.30100 208.95800 210.73800 213.10000 215.56400 218.18000
 220.96600 223.91800 226.96100 230.09200 233.29300 236.55700 239.95500 243.53700
 246.84500 249.39000 251.54200 253.47400 255.19500 256.48400 257.43100 258.05900
 258.21200 258.04000 257.58200 256.64300 255.23900 253.50700 251.40800 249.05600
 246.57600 243.99400 241.38900 238.83000 236.34400 233.98600 231.96900 230.11800
 228.42300 226.89900 225.54800 224.29700 223.10500 221.96500 220.95800 220.11300
 219.49000 218.92000 218.32500 217.88100 217.42300 216.96366 216.35568 216.80261
 217.73415 218.28582 218.64258 219.10077 220.44626 222.53987 226.38451 230.35736
 233.59734 237.39164 241.29814 245.22796 248.98002 252.51130 255.78595 258.80109
 261.54781 264.05210 266.34239 268.04198 269.58951 271.01303 272.35754 273.55718
 274.59842 275.49092 276.28989 276.99307 277.60161 278.14001 278.63122 279.07623
 279.47646 279.83287 280.14422 280.54100
 399.73800 389.78500 379.66200 368.15100 356.64100 344.35000 331.79200 318.88800
 305.72600 292.49300 279.20900 266.73800 254.69600 244.21100 234.45700 225.43300
 217.56900 210.45100 204.30000 199.30600 195.45800 192.57600 191.02700 190.38600
 190.23900 190.53400 191.16600 191.92500 192.79500 193.76600 194.73200 195.31200
 195.80000 196.05200 196.11500 196.11500 196.03900 195.72300 195.34000 194.98900
 194.75100 194.79200 195.13300 195.59800 196.50600 198.13600 199.85800 201.56600
 204.17900 206.82300 209.89300 213.28400 216.82800 220.60500 224.38700 228.20900
 232.03200 235.82500 239.56000 243.25800 246.84500 250.20100 253.70900 257.46800
 261.53000 264.22100 266.60100 268.68100 270.32900 271.74100 272.83600 273.47400
 273.89800 274.00200 273.75700 273.28800 272.37100 271.10000 269.58900 267.77900
 265.81600 263.72100 261.39300 258.91600 256.29800 253.42300 250.33100 247.11400
 243.83700 240.52900 237.24900 233.99900 230.72800 227.51500 224.25400 220.95200
 217.62700 213.65600 210.12100 206.78900 204.01000 201.99491 199.07309 198.76551
 199.40006 200.48994 201.46112 202.31912 203.45100 204.96110 207.47502 210.85391
 213.70530 217.29629 220.99574 224.72316 228.28753 231.64854 234.68024 237.40893
 239.70644 241.60899 243.46854 245.67368 247.68154 249.52395 251.24767 252.78566
 254.12057 255.26479 256.23740 257.09036 257.82852 258.48160 259.07744 259.61723
 260.10271 260.53504 260.91270 261.39400
 399.73800 389.78500 379.66200 368.15100 356.64100 344.35000 331.79200 318.88800
 305.72600 292.49300 279.20900 266.73800 254.69600 244.21100 234.45700 225.43300
 217.56900 210.45100 204.30000 199.30600 195.45800 192.57600 191.02700 190.38600
 190.23900 190.53400 191.16600 191.92500 192.79500 193.76600 194.73200 195.31200
 195.80000 196.05200 196.11500 196.11500 196.03900 195.72300 195.34000 194.98900
 194.75100 194.79200 195.13300 195.59800 196.50600 198.13600 199.85800 201.56600
 204.17900 206.82300 209.89300 213.28400 216.82800 220.60500 224.38700 228.20900
 232.03200 235.82500 239.56000 243.25800 246.84500 250.20100 253.70900 257.46800
 261.53000 264.22100 266.60100 268.68100 270.32900 271.74100 272.83600 273.47400
 273.89800 274.00200 273.75700 273.28800 272.37100 271.10000 269.58900 267.77900
 265.81600 263.72100 261.39300 258.91600 256.29800 253.42300 250.33100 247.11400
 243.83700 240.52900 237.24900 233.99900 230.72800 227.51500 224.25400 220.95200
 217.62700 213.65600 210.12100 206.78900 204.01000 201.99491 199.07309 198.76551
 199.40006 200.48994 201.46112 202.31912 203.45100 204.96110 207.47502 210.85391
 213.70530 217.29629 220.99574 224.72316 228.28753 231.64854 234.68024 237.40893
 239.70644 241.60899 243.46854 245.67368 247.68154 249.52395 251.24767 252.78566
 254.12057 255.26479 256.23740 257.09036 257.82852 258.48160 259.07744 259.61723
 260.10271 260.53504 260.91270 261.39400
 399.33000 389.90700 379.81300 368.66800 357.52200 345.30100 333.07400 320.22700
 307.21600 293.84800 280.37600 267.29600 254.61000 242.98700 232.15100 221.97700
 212.67200 204.28600 197.66900 192.82100 189.48600 187.45200 186.81400 187.08900
 187.78100 189.05400 190.64800 192.54200 194.63000 196.75200 198.67100 200.15800
 201.53500 202.48700 202.97500 203.34000 203.53900 203.49700 203.38500 203.24700
 203.00500 202.78600 202.60300 202.43700 202.42600 202.88800 203.42000 203.95100
 204.89500 205.99200 207.30100 208.95800 210.73800 213.10000 215.56400 218.18000
 220.96600 223.91800 226.96100 230.09200 233.29300 236.55700 239.95500 243.53700
 246.84500 249.39000 251.54200 253.47400 255.19500 256.48400 257.43100 258.05900
 258.21200 258.04000 257.58200 256.64300 255.23900 253.50700 251.40800 249.05600
 246.57600 243.99400 241.38900 238.83000 236.34400 233.98600 231.96900 230.11800
 228.42300 226.89900 225.54800 224.29700 223.10500 221.96500 220.95800 220.11300
 219.49000 218.92000 218.32500 217.88100 217.42300 216.96366 216.35568 216.80261
 217.73415 218.28582 218.64258 219.10077 220.44626 222.53987 226.38451 230.35736
 233.59734 237.39164 241.29814 245.22796 248.98002 252.51130 255.78595 258.80109
 261.54781 264.05210 266.34239 268.04198 269.58951 271.01303 272.35754 273.55718
 274.59842 275.49092 276.28989 276.99307 277.60161 278.14001 278.63122 279.07623
 279.47646 279.83287 280.14422 280.54100
 381.81900 372.39900 361.20600 349.77600 337.62200 324.85300 311.81000 298.35300
 284.86000 271.32400 258.56100 246.30400 236.08700 226.79600 218.44800 211.29000
 205.52200 200.89400 197.38100 194.84800 193.01500 192.31500 192.25000 192.43100
 192.91200 193.53700 194.13600 194.71200 195.26200 195.83100 196.39300 196.97600
 197.60400 198.14900 198.58400 199.05700 199.69500 200.37800 201.05400 201.70800
 202.31300 202.85700 203.35500 203.86200 204.56900 205.29700 206.02600 206.98700
 208.19300 209.44100 210.96900 212.57600 214.46200 216.51300 218.63000 220.85300
 223.34100 225.96200 228.73900 231.69700 234.70600 237.70600 240.69200 243.65700
 246.73700 249.69900 252.52100 255.06300 257.29000 259.23300 260.63300 261.68000
 262.46100 262.79800 262.69100 262.22400 261.06900 259.52500 257.70700 255.50700
 253.00100 250.30200 247.39800 244.45200 241.65400 239.05400 236.73300 234.59000
 232.59500 230.72500 228.83400 226.82600 224.66600 222.38700 220.10400 217.71500
 215.45900 213.06600 210.54600 208.09300 205.35400 202.08130 196.05959 200.71215
 209.01611 216.90438 223.84126 229.78593 235.00632 240.20838 245.98943 250.68668
 254.32982 257.93487 261.55666 264.96801 268.15192 271.06452 273.76717 276.25691
 278.57680 280.74479 282.77456 284.60533 286.27232 287.81705 289.31715 290.65561
 291.81734 292.81312 293.70701 294.49387 295.17482 295.77730 296.32696 296.82492
 297.27278 297.67160 298.02000 298.46400
 366.78100 356.33405 345.76510 334.63016 323.03221 311.22526 299.09431 286.89637
 274.60742 262.50347 250.51152 239.81158 229.93263 221.03568 213.21673 206.21778
 200.05084 194.98789 191.56894 189.60999 188.64605 188.70910 189.54315 190.85020
 192.57426 194.66831 196.93036 199.28841 201.73247 204.21152 206.29857 208.13962
 209.76467 210.90873 211.13678 211.36383 211.29988 211.00394 210.63599 210.26504
 209.88109 209.59015 209.39720 209.26025 209.18730 209.51735 209.90241 210.29046
 211.08251 212.25956 213.50862 215.29067 217.21772 219.25977 221.35383 223.43588
 225.49493 227.57798 229.67404 231.77909 233.90714 236.07819 238.33324 240.70230
 243.32235 245.57240 247.57345 249.33751 250.75356 251.87561 252.69666 253.01172
 253.04777 252.82082 252.17987 251.12692 249.73198 247.89203 245.80008 243.63213
 241.42219 239.22524 237.04429 234.88234 232.74140 230.60745 228.63250 226.78855
 225.07060 223.54166 222.17071 220.94176 219.82281 218.78187 217.88492 217.02497
 216.26602 215.44508 214.54213 213.90518 213.35423 212.95752 212.03427 213.18019
 214.98058 216.76703 217.76860 218.03542 219.08325 222.82149 228.37462 233.12578
 236.88712 240.64452 244.35515 247.96114 251.38434 254.21851 256.73108 259.40707
 262.34338 264.91010 267.07639 269.05487 271.03064 272.99792 274.67258 276.23834
 277.81451 279.44073 280.97491 282.34000 283.52396 284.57550 285.53857 286.41592
 287.20816 287.92368 288.55051 289.38821
 366.78100 356.33378 345.76456 334.62934 323.03112 311.22390 299.09268 286.89446
 274.60524 262.50103 250.50881 239.80859 229.92937 221.03215 213.21293 206.21371
 200.04649 194.98327 191.56405 189.60483 188.64061 188.70339 189.53717 190.84395
 192.56773 194.66151 196.92329 199.28108 201.72486 204.20364 206.29042 208.13120
 209.75598 210.89976 211.12754 211.35432 211.29010 210.99388 210.62566 210.25444
 209.87022 209.57900 209.38578 209.24856 209.17535 209.50513 209.88991 210.27769
 211.06947 212.24625 213.49503 215.27681 217.20359 219.24537 221.33915 223.42093
 225.47971 227.56249 229.65827 231.76305 233.89083 236.06161 238.31640 240.68518
 243.30496 245.55474 247.55552 249.31930 250.73508 251.85686 252.67764 252.99242
 253.02820 252.80098 252.15976 251.10654 249.71132 247.87110 245.77888 243.61066
 241.40045 239.20323 237.02201 234.85979 232.71857 230.58435 228.60913 226.76491
 225.04669 223.51747 222.14625 220.91703 219.79781 218.75659 217.85937 216.99915
 216.23993 215.41872 214.51550 213.87828 213.32706 212.96376 212.11789 213.31067
 215.07973 216.85060 217.84892 218.16513 219.22398 222.83981 228.31516 233.02191
 236.76491 240.52269 244.23915 247.83214 251.18977 253.97704 256.53333 259.30185
 262.19928 264.71045 266.88376 268.90375 270.90591 272.87570 274.54019 276.10333
 277.68237 279.35565 280.89313 282.25693 283.44131 284.49173 285.45670 286.33121
 287.12735 287.83850 288.46545 289.30606
 366.78100 356.33345 345.76390 334.62835 323.02980 311.22225 299.09070 286.89215
 274.60260 262.49805 250.50550 239.80495 229.92540 221.02785 213.20831 206.20876
 200.04121 194.97766 191.55811 189.59856 188.63401 188.69646 189.52991 190.83636
 192.55981 194.65326 196.91471 199.27216 201.71561 204.19406 206.28051 208.12096
 209.74541 210.88886 211.11631 211.34276 211.27821 210.98166 210.61311 210.24156
 209.85701 209.56547 209.37192 209.23437 209.16082 209.49027 209.87472 210.26217
 211.05362 212.23007 213.47852 215.25997 217.18642 219.22787 221.32132 223.40277
 225.46122 227.54367 229.63912 231.74357 233.87102 236.04147 238.29592 240.66437
 243.28382 245.53327 247.53372 249.29717 250.71263 251.83408 252.65453 252.96898
 253.00443 252.77688 252.13533 251.08178 249.68623 247.84568 245.75313 243.58458
 241.37403 239.17648 236.99493 234.83238 232.69083 230.55628 228.58073 226.73618
 225.01763 223.48808 222.11653 220.88698 219.76743 218.72588 217.82833 216.96779
 216.20824 215.38669 214.48314 213.84559 213.29404 212.96896 212.21161 213.43234
 215.17285 216.91734 217.95323 218.29378 219.36095 222.86682 228.27150 232.92284
 236.63998 240.39337 244.11607 247.69682 250.98990 253.73412 256.33707 259.19507
 262.05228 264.50656 266.68292 268.74451 270.77661 272.75046 274.40585 275.96735
 277.56003 279.27090 280.81189 282.17694 283.36148 284.41275 285.37546 286.25076
 287.04562 287.75851 288.38791 289.22659
 366.78100 356.33332 345.76365 334.62797 323.02930 311.22162 299.08995 286.89127
 274.60160 262.49692 250.50425 239.80357 229.92390 221.02622 213.20654 206.20687
 200.03919 194.97552 191.55584 189.59617 188.63149 188.69382 189.52714 190.83347
 192.55679 194.65012 196.91144 199.26877 201.71209 204.19041 206.27674 208.11706
 209.74139 210.88471 211.11204 211.33836 211.27369 210.97701 210.60834 210.23666
 209.85199 209.56031 209.36663 209.22896 209.15528 209.48461 209.86893 210.25626
 211.04758 212.22391 213.47223 215.25356 217.17988 219.22121 221.31453 223.39585
 225.45418 227.53650 229.63183 231.73615 233.86348 236.03380 238.28813 240.65645
 243.27578 245.52510 247.52543 249.28875 250.70408 251.82540 252.64572 252.96005
 252.99537 252.76770 252.12602 251.07235 249.67667 247.83600 245.74332 243.57465
 241.36397 239.16630 236.98462 234.82194 232.68027 230.54559 228.56992 226.72524
 225.00657 223.47689 222.10522 220.87554 219.75587 218.71419 217.81652 216.95584
 216.19617 215.37449 214.47081 213.83314 213.28146 212.98650 212.29868 213.55856
 215.25732 216.97055 218.06017 218.43269 219.50351 222.90329 228.23689 232.82774
 236.51401 240.26373 243.99231 247.55475 250.78149 253.48694 256.13882 259.08243
 261.90186 264.30063 266.47623 268.57831 270.64233 272.62244 274.27167 275.82965
 277.45697 279.18341 280.72757 282.09320 283.27878 284.33063 285.29483 286.17123
 286.96646 287.67929 288.30817 289.14877
 366.78100 356.33330 345.76361 334.62791 323.02921 311.22152 299.08982 286.89112
 274.60142 262.49673 250.50403 239.80333 229.92364 221.02594 213.20624 206.20655
 200.03885 194.97515 191.55546 189.59576 188.63106 188.69337 189.52667 190.83297
 192.55627 194.64958 196.91088 199.26818 201.71149 204.18979 206.27609 208.11640
 209.74070 210.88400 211.11131 211.33761 211.27291 210.97622 210.60752 210.23582
 209.85112 209.55943 209.36573 209.22803 209.15434 209.48364 209.86794 210.25525
 211.04655 212.22285 213.47116 215.25246 217.17876 219.22007 221.31337 223.39467
 225.45297 227.53528 229.63058 231.73488 233.86219 236.03249 238.28679 240.65510
 243.27440 245.52370 247.52401 249.28731 250.70261 251.82392 252.64422 252.95852
 252.99382 252.76613 252.12443 251.07073 249.67504 247.83434 245.74164 243.57295
 241.36225 239.16455 236.98286 234.82016 232.67846 230.54377 228.56807 226.72337
 225.00467 223.47498 222.10328 220.87358 219.75389 218.71219 217.81449 216.95380
 216.19410 215.37240 214.46871 213.83101 213.27931 213.01097 212.38446 213.68428
 215.33133 217.01634 218.16304 218.58112 219.66135 222.94624 228.20543 232.73825
 236.39014 240.13774 243.86835 247.40421 250.56604 253.23865 255.93945 258.96152
 261.74603 264.09225 266.26456 268.40527 270.50366 272.49161 274.13861 275.69443
 277.36105 279.09436 280.64008 282.00623 283.19260 284.24631 285.20889 286.08746
 286.88174 287.59555 288.22589 289.06573
 366.78100 356.33328 345.76355 334.62783 323.02911 311.22139 299.08966 286.89094
 274.60122 262.49649 250.50377 239.80305 229.92332 221.02560 213.20588 206.20616
 200.03843 194.97471 191.55499 189.59526 188.63054 188.69282 189.52609 190.83237
 192.55565 194.64893 196.91020 199.26748 201.71076 204.18903 206.27531 208.11559
 209.73986 210.88314 211.11042 211.33670 211.27197 210.97525 210.60653 210.23480
 209.85008 209.55836 209.36464 209.22691 209.15319 209.48247 209.86674 210.25402
 211.04530 212.22157 213.46985 215.25113 217.17741 219.21868 221.31196 223.39324
 225.45151 227.53379 229.62907 231.73334 233.86062 236.03090 238.28518 240.65345
 243.27273 245.52201 247.52228 249.28556 250.70084 251.82211 252.64239 252.95667
 252.99195 252.76422 252.12250 251.06878 249.67305 247.83233 245.73961 243.57089
 241.36016 239.16244 236.98072 234.81799 232.67627 230.54155 228.56582 226.72110
 225.00238 223.47266 222.10093 220.87121 219.75149 218.70976 217.81204 216.95132
 216.19159 215.36987 214.46615 213.82843 213.27670 213.03690 212.47614 213.80548
 215.39499 217.05785 218.26421 218.73598 219.83434 222.99365 228.17644 232.65482
 236.27365 240.01743 243.74164 247.24480 250.34689 252.99374 255.73912 258.82904
 261.58234 263.88123 266.04883 268.22491 270.36035 272.35989 274.00827 275.56354
 277.26733 279.00491 280.55084 281.91669 283.10297 284.15683 285.12189 285.99783
 286.79321 287.50769 288.13785 288.97809
 366.78100 356.33323 345.76345 334.62768 323.02890 311.22113 299.08935 286.89058
 274.60080 262.49603 250.50325 239.80248 229.92270 221.02493 213.20515 206.20538
 200.03760 194.97383 191.55405 189.59428 188.62950 188.69173 189.52495 190.83118
 192.55440 194.64763 196.90885 199.26608 201.70930 204.18753 206.27375 208.11398
 209.73820 210.88143 211.10866 211.33488 211.27011 210.97333 210.60456 210.23278
 209.84801 209.55623 209.36246 209.22468 209.15091 209.48013 209.86436 210.25158
 211.04281 212.21903 213.46726 215.24848 217.17471 219.21593 221.30916 223.39038
 225.44861 227.53083 229.62606 231.73028 233.85751 236.02773 238.28196 240.65018
 243.26941 245.51863 247.51886 249.28208 250.69731 251.81854 252.63876 252.95299
 252.98821 252.76044 252.11866 251.06489 249.66911 247.82834 245.73556 243.56679
 241.35601 239.15824 236.97646 234.81369 232.67191 230.53714 228.56136 226.71659
 224.99781 223.46804 222.09626 220.86649 219.74671 218.70494 217.80716 216.94639
 216.18661 215.36484 214.46106 213.82329 213.27151 213.06294 212.57423 213.92006
 215.44832 217.09717 218.36839 218.88914 220.01781 223.04514 228.15025 232.57695
 236.16763 239.90508 243.61293 247.07690 250.12317 252.75110 255.53725 258.68423
 261.40930 263.66794 265.83194 268.04251 270.21426 272.22827 273.88419 275.44354
 277.17392 278.91000 280.45581 281.82181 283.00891 284.06259 285.02664 285.90451
 286.69931 287.41400 288.04483 288.88562
 366.78100 356.33315 345.76330 334.62746 323.02861 311.22076 299.08891 286.89006
 274.60022 262.49537 250.50252 239.80167 229.92182 221.02397 213.20413 206.20428
 200.03643 194.97258 191.55273 189.59289 188.62804 188.69019 189.52334 190.82949
 192.55265 194.64580 196.90695 199.26410 201.70725 204.18541 206.27156 208.11171
 209.73586 210.87901 211.10616 211.33232 211.26747 210.97062 210.60177 210.22992
 209.84508 209.55323 209.35938 209.22153 209.14768 209.47684 209.86099 210.24814
 211.03929 212.21544 213.46360 215.24475 217.17090 219.21205 221.30520 223.38635
 225.44451 227.52666 229.62181 231.72596 233.85311 236.02327 238.27742 240.64557
 243.26472 245.51387 247.51403 249.27718 250.69233 251.81348 252.63363 252.94779
 252.98294 252.75509 252.11324 251.05939 249.66354 247.82270 245.72985 243.56100
 241.35015 239.15230 236.97046 234.80761 232.66576 230.53091 228.55506 226.71022
 224.99137 223.46152 222.08967 220.85982 219.73998 218.69813 217.80028 216.93943
 216.17958 215.35773 214.45389 213.81604 213.26419 213.08888 212.67705 214.02859
 215.49158 217.13795 218.47949 219.03700 220.20833 223.10046 228.12746 232.50166
 236.06850 239.80154 243.48715 246.90445 249.89522 252.51035 255.33430 258.52606
 261.22647 263.45355 265.61813 267.86194 270.06894 272.09888 273.76813 275.33835
 277.07510 278.81073 280.35577 281.72113 282.90894 283.96341 284.92725 285.80527
 286.60132 287.31619 287.94696 288.78937
 366.78100 356.33305 345.76309 334.62714 323.02818 311.22023 299.08827 286.88932
 274.59937 262.49441 250.50146 239.80050 229.92055 221.02259 213.20264 206.20269
 200.03473 194.97078 191.55082 189.59087 188.62591 188.68796 189.52101 190.82705
 192.55010 194.64314 196.90419 199.26123 201.70428 204.18233 206.26837 208.10842
 209.73246 210.87551 211.10255 211.32860 211.26365 210.96669 210.59774 210.22578
 209.84083 209.54887 209.35492 209.21697 209.14301 209.47206 209.85610 210.24315
 211.03419 212.21024 213.45829 215.23933 217.16538 219.20642 221.29947 223.38051
 225.43856 227.52061 229.61565 231.71970 233.84674 236.01679 238.27083 240.63888
 243.25793 245.50697 247.50702 249.27006 250.68511 251.80615 252.62620 252.94025
 252.97529 252.74734 252.10538 251.05143 249.65547 247.81452 245.72157 243.55261
 241.34166 239.14370 236.96175 234.79879 232.65684 230.52188 228.54593 226.70098
 224.98202 223.45207 222.08011 220.85016 219.73020 218.68825 217.79030 216.92934
 216.16939 215.34743 214.44348 213.80552 213.25357 213.11395 212.78484 214.13126
 215.52477 217.18170 218.59764 219.18004 220.40094 223.16296 228.10379 232.43410
 235.97469 239.70502 243.36426 246.72612 249.66138 252.27054 255.13019 258.35635
 261.03708 263.23938 265.40894 267.68481 269.92685 271.97623 273.66425 275.24863
 276.97366 278.70764 280.25168 281.61874 282.80582 283.85989 284.82489 285.70325
 286.50095 287.21576 287.84769 288.69034
 366.78100 356.33295 345.76291 334.62686 323.02781 311.21976 299.08772 286.88867
 274.59862 262.49358 250.50053 239.79948 229.91944 221.02139 213.20134 206.20129
 200.03325 194.96920 191.54915 189.58911 188.62406 188.68601 189.51896 190.82492
 192.54787 194.64082 196.90178 199.25873 201.70168 204.17964 206.26559 208.10554
 209.72949 210.87245 211.09940 211.32535 211.26031 210.96326 210.59421 210.22216
 209.83712 209.54507 209.35102 209.21298 209.13893 209.46788 209.85183 210.23879
 211.02974 212.20569 213.45365 215.23460 217.16055 219.20151 221.29446 223.37541
 225.43336 227.51532 229.61027 231.71422 233.84118 236.01113 238.26508 240.63303
 243.25199 245.50094 247.50089 249.26385 250.67880 251.79975 252.61971 252.93366
 252.96861 252.74056 252.09852 251.04447 249.64842 247.80738 245.71433 243.54528
 241.33423 239.13619 236.95414 234.79109 232.64905 230.51400 228.53795 226.69291
 224.97386 223.44381 222.07176 220.84172 219.72167 218.67962 217.78158 216.92053
 216.16048 215.33843 214.43439 213.79634 213.24429 213.14043 212.89507 214.23186
 215.55222 217.22319 218.72359 219.32257 220.60072 223.22043 228.08276 232.37009
 235.88084 239.61212 243.24553 246.54735 249.42667 252.03224 254.92290 258.17221
 260.83490 263.02219 265.20657 267.51636 269.79355 271.86536 273.57599 275.17737
 276.86905 278.60168 280.14743 281.51257 282.70071 283.75546 284.72144 285.60013
 286.39758 287.11389 287.74747 288.59009
 366.78100 356.33296 345.76292 334.62689 323.02785 311.21981 299.08777 286.88874
 274.59870 262.49366 250.50062 239.79959 229.91955 221.02151 213.20147 206.20144
 200.03340 194.96936 191.54932 189.58929 188.62425 188.68621 189.51917 190.82514
 192.54810 194.64106 196.90202 199.25898 201.70195 204.17991 206.26587 208.10583
 209.72980 210.87276 211.09972 211.32568 211.26065 210.96361 210.59457 210.22253
 209.83750 209.54546 209.35142 209.21338 209.13935 209.46831 209.85227 210.23923
 211.03019 212.20616 213.45412 215.23508 217.16104 219.20201 221.29497 223.37593
 225.43389 227.51586 229.61082 231.71478 233.84174 236.01171 238.26567 240.63363
 243.25259 245.50156 247.50152 249.26448 250.67944 251.80041 252.62037 252.93433
 252.96929 252.74125 252.09922 251.04518 249.64914 247.80810 245.71507 243.54603
 241.33499 239.13695 236.95492 234.79188 232.64984 230.51480 228.53877 226.69373
 224.97469 223.44465 222.07262 220.84258 219.72254 218.68050 217.78246 216.92143
 216.16139 215.33935 214.43531 213.79728 213.24524 213.17235 213.00014 214.33772
 215.57573 217.26245 218.84300 219.46867 220.78966 223.29660 228.05724 232.31012
 235.79948 239.53061 243.13205 246.36337 249.18126 251.78459 254.70627 257.97134
 260.62225 262.81201 265.02161 267.36282 269.67072 271.76511 273.50034 275.11490
 276.77054 278.49628 280.04114 281.40707 282.59381 283.65057 284.61523 285.49567
 286.29449 287.01126 287.64453 288.49042
 366.78100 356.33306 345.76312 334.62718 323.02824 311.22030 299.08836 286.88942
 274.59948 262.49454 250.50160 239.80066 229.92072 221.02277 213.20283 206.20289
 200.03495 194.97101 191.55107 189.59113 188.62619 188.68825 189.52131 190.82737
 192.55043 194.64349 196.90455 199.26161 201.70467 204.18273 206.26879 208.10885
 209.73291 210.87597 211.10303 211.32909 211.26415 210.96720 210.59826 210.22632
 209.84138 209.54944 209.35550 209.21756 209.14362 209.47268 209.85674 210.24380
 211.03486 212.21092 213.45898 215.24004 217.16610 219.20716 221.30022 223.38128
 225.43934 227.52140 229.61646 231.72052 233.84758 236.01764 238.27169 240.63975
 243.25881 245.50787 247.50793 249.27099 250.68605 251.80711 252.62717 252.94123
 252.97629 252.74835 252.10641 251.05247 249.65653 247.81559 245.72265 243.55371
 241.34277 239.14483 236.96289 234.79995 232.65801 230.52307 228.54712 226.70218
 224.98324 223.45330 222.08136 220.85142 219.73148 218.68954 217.79160 216.93066
 216.17072 215.34878 214.44484 213.80690 213.25496 213.20844 213.09851 214.45183
 215.60132 217.27153 218.97319 219.61212 221.02380 223.34926 228.04008 232.26758
 235.72797 239.45044 243.01012 246.16455 248.92346 251.53120 254.48607 257.76340
 260.41418 262.61954 264.85309 267.22049 269.55530 271.67075 273.42838 275.04889
 276.67752 278.39636 279.93967 281.30536 282.49356 283.54849 284.51465 285.39554
 286.19464 286.91241 287.54523 288.39545
 366.78100 356.33308 345.76315 334.62723 323.02831 311.22039 299.08846 286.88954
 274.59962 262.49470 250.50177 239.80085 229.92093 221.02300 213.20308 206.20316
 200.03524 194.97131 191.55139 189.59147 188.62655 188.68862 189.52170 190.82778
 192.55085 194.64393 196.90501 199.26209 201.70516 204.18324 206.26932 208.10940
 209.73347 210.87655 211.10363 211.32971 211.26478 210.96786 210.59894 210.22701
 209.84209 209.55017 209.35625 209.21832 209.14440 209.47348 209.85756 210.24463
 211.03571 212.21179 213.45986 215.24094 217.16702 219.20810 221.30117 223.38225
 225.44033 227.52241 229.61748 231.72156 233.84864 236.01871 238.27279 240.64087
 243.25995 245.50902 247.50910 249.27218 250.68726 251.80833 252.62841 252.94249
 252.97756 252.74964 252.10772 251.05380 249.65787 247.81695 245.72403 243.55511
 241.34418 239.14626 236.96434 234.80142 232.65949 230.52457 228.54865 226.70372
 224.98480 223.45488 222.08296 220.85303 219.73311 218.69119 217.79327 216.93234
 216.17242 215.35050 214.44657 213.80865 213.25673 213.24054 213.20230 214.54344
 215.68645 217.25191 218.99063 219.84108 221.22150 223.55688 228.02440 232.17865
 235.62991 239.35028 242.86948 245.94965 248.65388 251.27220 254.26334 257.55261
 260.21143 262.43729 264.69754 267.08917 269.44769 271.58478 273.36713 274.99207
 276.59143 278.29785 279.83954 281.20572 282.39359 283.44891 284.41696 285.29727
 286.09595 286.81650 287.44977 288.30014
 366.78100 356.33278 345.76257 334.62635 323.02713 311.21892 299.08670 286.88748
 274.59727 262.49205 250.49883 239.79762 229.91740 221.01918 213.19897 206.19875
 200.03053 194.96632 191.54610 189.58588 188.62067 188.68245 189.51523 190.82102
 192.54380 194.63659 196.89737 199.25415 201.69694 204.17472 206.26050 208.10029
 209.72407 210.86685 211.09364 211.31942 211.25420 210.95699 210.58777 210.21555
 209.83034 209.53812 209.34390 209.20569 209.13147 209.46025 209.84404 210.23082
 211.02160 212.19739 213.44517 215.22595 217.15174 219.19252 221.28530 223.36609
 225.42387 227.50565 229.60044 231.70422 233.83100 236.00079 238.25457 240.62235
 243.24114 245.48992 247.48970 249.25249 250.66727 251.78806 252.60784 252.92162
 252.95641 252.72819 252.08597 251.03176 249.63554 247.79432 245.70111 243.53189
 241.32067 239.12246 236.94024 234.77702 232.63481 230.49959 228.52337 226.67816
 224.95894 223.42872 222.05651 220.82629 219.70607 218.66386 217.76564 216.90442
 216.14421 215.32199 214.41777 213.77956 213.22734 213.25734 213.32822 214.62700
 215.73323 217.27199 219.03778 220.05716 221.38580 223.72983 228.00179 232.08578
 235.53812 239.26138 242.73624 245.73564 248.38217 251.01323 254.04193 257.34305
 260.01541 262.26746 264.55487 266.97086 269.35162 271.51044 273.31729 274.94781
 276.51205 278.20596 279.74622 281.11108 282.30020 283.35519 284.32227 285.20349
 286.00671 286.72556 287.35983 288.21292
 366.78100 356.33260 345.76221 334.62581 323.02641 311.21801 299.08562 286.88622
 274.59582 262.49042 250.49703 239.79563 229.91523 221.01684 213.19644 206.19604
 200.02764 194.96325 191.54285 189.58245 188.61705 188.67866 189.51126 190.81686
 192.53947 194.63207 196.89267 199.24927 201.69188 204.16948 206.25508 208.09469
 209.71829 210.86089 211.08749 211.31310 211.24770 210.95030 210.58090 210.20851
 209.82311 209.53071 209.33632 209.19792 209.12352 209.45212 209.83573 210.22233
 211.01293 212.18853 213.43614 215.21674 217.14234 219.18295 221.27555 223.35615
 225.41375 227.49536 229.58996 231.69356 233.82016 235.98977 238.24337 240.61097
 243.22958 245.47818 247.47778 249.24038 250.65499 251.77559 252.59519 252.90879
 252.94340 252.71500 252.07260 251.01821 249.62181 247.78041 245.68701 243.51762
 241.30622 239.10782 236.92542 234.76203 232.61963 230.48423 228.50784 226.66244
 224.94304 223.41264 222.04025 220.80985 219.68945 218.64706 217.74866 216.88726
 216.12686 215.30447 214.40007 213.76167 213.20927 213.27867 213.44263 214.72107
 215.78313 217.30548 219.11288 220.25816 221.53378 223.86752 227.97136 232.00584
 235.46008 239.17738 242.59346 245.50317 248.09810 250.75217 253.82446 257.13586
 259.82840 262.11249 264.43115 266.86880 269.26886 271.44867 273.27930 274.91684
 276.45151 278.11514 279.65091 281.01779 282.20593 283.26083 284.22800 285.10895
 285.91028 286.63129 287.26627 288.11975
 366.78100 356.33245 345.76191 334.62536 323.02581 311.21727 299.08472 286.88517
 274.59463 262.48908 250.49553 239.79399 229.91344 221.01489 213.19435 206.19380
 200.02525 194.96071 191.54016 189.57961 188.61407 188.67552 189.50797 190.81343
 192.53588 194.62833 196.88879 199.24524 201.68769 204.16515 206.25060 208.09005
 209.71351 210.85596 211.08241 211.30787 211.24232 210.94477 210.57523 210.20268
 209.81713 209.52459 209.33004 209.19149 209.11695 209.44540 209.82885 210.21531
 211.00576 212.18121 213.42867 215.20912 217.13457 219.17503 221.26748 223.34793
 225.40539 227.48684 229.58129 231.68475 233.81120 235.98065 238.23411 240.60156
 243.22001 245.46847 247.46792 249.23038 250.64483 251.76528 252.58474 252.89819
 252.93264 252.70410 252.06155 251.00700 249.61046 247.76891 245.67536 243.50582
 241.29427 239.09572 236.91318 234.74963 232.60708 230.47154 228.49499 226.64944
 224.92990 223.39935 222.02680 220.79626 219.67571 218.63316 217.73462 216.87307
 216.11252 215.28998 214.38543 213.74688 213.19434 213.30023 213.55045 214.82486
 215.84184 217.35107 219.20038 220.44832 221.69203 223.98082 227.93941 231.93591
 235.38176 239.07642 242.42203 245.24744 247.80536 250.49156 253.61003 256.93027
 259.64734 261.96982 264.32187 266.78030 269.19617 271.39636 273.25140 274.90027
 276.39474 278.04315 279.57605 280.94073 282.12875 283.18613 284.15506 285.04126
 285.85239 286.58057 287.22223 288.07031
 366.78100 356.33219 345.76137 334.62456 323.02474 311.21593 299.08312 286.88330
 274.59249 262.48668 250.49286 239.79105 229.91023 221.01142 213.19061 206.18979
 200.02098 194.95617 191.53535 189.57454 188.60872 188.66991 189.50210 190.80728
 192.52947 194.62165 196.88184 199.23803 201.68021 204.15740 206.24259 208.08177
 209.70496 210.84714 211.07333 211.29852 211.23270 210.93489 210.56507 210.19226
 209.80645 209.51363 209.31882 209.18001 209.10519 209.43338 209.81656 210.20275
 210.99294 212.16812 213.41531 215.19550 217.12068 219.16087 221.25305 223.33324
 225.39043 227.47161 229.56580 231.66898 233.79517 235.96436 238.21754 240.58473
 243.20292 245.45110 247.45029 249.21247 250.62666 251.74685 252.56603 252.87922
 252.91340 252.68459 252.04178 250.98696 249.59015 247.74834 245.65452 243.48471
 241.27289 239.07408 236.89127 234.72745 232.58464 230.44883 228.47201 226.62620
 224.90638 223.37557 222.00276 220.77194 219.65113 218.60831 217.70950 216.84769
 216.08687 215.26406 214.35925 213.72043 213.16762 213.31403 213.65993 214.93349
 215.90175 217.41400 219.29848 220.62801 221.86308 224.08141 227.91658 231.86520
 235.28981 238.94725 242.22198 244.97736 247.50987 250.23112 253.39787 256.72861
 259.47601 261.84250 264.22916 266.70493 269.13400 271.34824 273.22421 274.88586
 276.35992 277.98233 279.51251 280.87732 282.06635 283.12396 284.09464 284.98541
 285.79739 286.52737 287.17026 288.02209
 366.78100 356.33173 345.76046 334.62318 323.02291 311.21364 299.08037 286.88009
 274.58882 262.48255 250.48828 239.78601 229.90473 221.00546 213.18419 206.18292
 200.01364 194.94837 191.52710 189.56583 188.59956 188.66028 189.49201 190.79674
 192.51847 194.61020 196.86992 199.22565 201.66738 204.14411 206.22883 208.06756
 209.69029 210.83202 211.05775 211.28247 211.21620 210.91793 210.54766 210.17438
 209.78811 209.49484 209.29957 209.16030 209.08502 209.41275 209.79548 210.18121
 210.97093 212.14566 213.39239 215.17212 217.09685 219.13657 221.22830 223.30803
 225.36476 227.44548 229.53921 231.64194 233.76767 235.93640 238.18912 240.55585
 243.17358 245.42131 247.42004 249.18176 250.59549 251.71522 252.53395 252.84667
 252.88040 252.65113 252.00786 250.95259 249.55531 247.71304 245.61877 243.44850
 241.23622 239.03695 236.85368 234.68941 232.54614 230.40986 228.43259 226.58632
 224.86605 223.33477 221.96150 220.73023 219.60896 218.56569 217.66641 216.80414
 216.04287 215.21960 214.31432 213.67505 213.12178 213.31586 213.77438 215.04369
 215.96536 217.49110 219.40726 220.79436 222.03871 224.18004 227.90524 231.78674
 235.18323 238.79410 241.99695 244.69121 247.20663 249.96899 253.18817 256.53278
 259.31339 261.72549 264.15012 266.64706 269.08673 271.31552 273.21158 274.88275
 276.36765 277.91229 279.43762 280.80688 281.99701 283.05701 284.02924 284.91974
 285.73401 286.46619 287.10950 287.96274
 366.78100 356.33106 345.75911 334.62117 323.02023 311.21028 299.07634 286.87539
 274.58345 262.47651 250.48156 239.77862 229.89668 220.99673 213.17479 206.17285
 200.00290 194.93696 191.51502 189.55307 188.58613 188.64618 189.47724 190.78130
 192.50235 194.59341 196.85247 199.20752 201.64858 204.12464 206.20869 208.04675
 209.66881 210.80986 211.03492 211.25897 211.19203 210.89309 210.52214 210.14820
 209.76126 209.46731 209.27137 209.13143 209.05548 209.38254 209.76460 210.14965
 210.93871 212.11276 213.35882 215.13788 217.06193 219.10099 221.19205 223.27110
 225.32716 227.40722 229.50027 231.60233 233.72739 235.89544 238.14750 240.51355
 243.13061 245.37767 247.37572 249.13678 250.54984 251.66889 252.48695 252.79901
 252.83206 252.60212 251.95817 250.90223 249.50429 247.66134 245.56640 243.39546
 241.18251 238.98257 236.79863 234.63368 232.48974 230.35280 228.37485 226.52791
 224.80696 223.27502 221.90108 220.66913 219.54719 218.50325 217.60330 216.74036
 215.97842 215.15447 214.24853 213.60859 213.05464 213.30426 213.89401 215.15825
 216.03897 217.57423 219.52014 220.94847 222.21423 224.27835 227.90028 231.70570
 235.06903 238.62292 241.74629 244.38322 246.89427 249.70941 252.98592 256.34866
 259.16382 261.61978 264.07922 266.59491 269.04376 271.28403 273.19897 274.88828
 276.38821 277.86829 279.38535 280.75452 281.94543 283.00516 283.97769 284.86774
 285.68018 286.41315 287.05643 287.90924
 366.78100 356.33023 345.75745 334.61868 323.01690 311.20613 299.07135 286.86958
 274.57681 262.46903 250.47326 239.76948 229.88671 220.98593 213.16316 206.16039
 199.98961 194.92284 191.50006 189.53729 188.56951 188.62874 189.45897 190.76219
 192.48242 194.57264 196.83087 199.18509 201.62532 204.10055 206.18377 208.02100
 209.64222 210.78245 211.00667 211.22990 211.16213 210.86235 210.49058 210.11580
 209.72803 209.43325 209.23648 209.09571 209.01893 209.34516 209.72638 210.11061
 210.89883 212.07206 213.31729 215.09551 217.01874 219.05696 221.14719 223.22542
 225.28064 227.35987 229.45209 231.55332 233.67754 235.84477 238.09600 240.46122
 243.07745 245.32367 247.32090 249.08112 250.49335 251.61158 252.42880 252.74003
 252.77225 252.54148 251.89670 250.83993 249.44116 247.59738 245.50161 243.32983
 241.11606 238.91528 236.73051 234.56474 232.41996 230.28219 228.30341 226.45564
 224.73386 223.20109 221.82632 220.59354 219.47077 218.42599 217.52522 216.66144
 215.89867 215.07390 214.16712 213.52635 212.97157 213.28221 214.01613 215.28070
 216.12794 217.66478 219.63029 221.09531 222.39143 224.37717 227.89865 231.62990
 234.94923 238.42644 241.45596 244.03859 246.56270 249.44717 252.78960 256.17929
 259.03094 261.53085 264.02191 266.55133 269.00198 271.24420 273.16885 274.87000
 276.38205 277.85178 279.36758 280.73700 281.92780 282.98804 283.96121 284.85178
 285.66663 286.40222 287.04547 287.89941
 366.78100 356.32895 345.75489 334.61484 323.01178 311.19973 299.06367 286.86062
 274.56656 262.45751 250.46045 239.75540 229.87134 220.96929 213.14523 206.14118
 199.96912 194.90107 191.47701 189.51296 188.54390 188.60185 189.43079 190.73274
 192.45168 194.54063 196.79757 199.15052 201.58946 204.06341 206.14535 207.98130
 209.60124 210.74019 210.96313 211.18508 211.11602 210.81497 210.44191 210.06586
 209.67680 209.38075 209.18269 209.04064 208.96258 209.28753 209.66747 210.05042
 210.83736 212.00931 213.25325 215.03020 216.95214 218.98909 221.07803 223.15498
 225.20892 227.28687 229.37781 231.47776 233.60070 235.76665 238.01659 240.38054
 242.99548 245.24043 247.23637 248.99532 250.40626 251.52321 252.33915 252.64910
 252.68004 252.44799 251.80193 250.74388 249.34382 247.49877 245.40171 243.22866
 241.01360 238.81155 236.62549 234.45844 232.31238 230.17333 228.19328 226.34422
 224.62117 223.08711 221.71106 220.47700 219.35295 218.30689 217.40484 216.53978
 215.77573 214.94967 214.04162 213.39956 212.84351 213.23441 214.15794 215.42476
 216.22061 217.74518 219.72456 221.23177 222.57545 224.49043 227.90955 231.58450
 234.83925 238.21504 241.13971 243.67561 246.22830 249.19014 252.59871 256.01370
 258.90112 261.44629 263.97153 266.51767 268.96790 271.20297 273.12457 274.82089
 276.24841 277.87476 279.39612 280.75894 281.94751 283.00717 283.97910 284.87076
 285.68875 286.42514 287.07199 287.92563
 366.78100 356.32845 345.75390 334.61334 323.00979 311.19724 299.06069 286.85713
 274.56258 262.45303 250.45548 239.74992 229.86537 220.96282 213.13827 206.13371
 199.96116 194.89261 191.46806 189.50350 188.53395 188.59140 189.41985 190.72130
 192.43974 194.52819 196.78464 199.13709 201.57553 204.04898 206.13043 207.96588
 209.58532 210.72377 210.94622 211.16767 211.09811 210.79656 210.42301 210.04646
 209.65690 209.36035 209.16180 209.01925 208.94070 209.26514 209.64459 210.02704
 210.81349 211.98493 213.22838 215.00483 216.92628 218.96272 221.05117 223.12762
 225.18107 227.25851 229.34896 231.44841 233.57086 235.73630 237.98575 240.34920
 242.96365 245.20810 247.20354 248.96199 250.37244 251.48889 252.30433 252.61378
 252.64423 252.41168 251.76512 250.70657 249.30602 247.46047 245.36291 243.18936
 240.97381 238.77126 236.58471 234.41715 232.27060 230.13105 228.15050 226.30094
 224.57739 223.04284 221.66629 220.43173 219.30718 218.26063 217.35808 216.49252
 215.72797 214.90142 213.99287 213.35031 212.79376 213.22649 214.25040 215.56915
 216.37488 217.84633 219.79703 221.31262 222.70169 224.55551 227.87326 231.52954
 234.70921 237.96088 240.75945 243.25627 245.85818 248.91437 252.40933 255.90372
 258.86096 261.40607 263.93536 266.49112 268.93906 271.15823 273.06442 274.72034
 276.15527 277.89987 279.43536 280.79834 281.98654 283.04538 284.01770 284.91364
 285.73569 286.47662 287.14767 288.00644
 366.78100 356.32986 345.75671 334.61757 323.01542 311.20428 299.06913 286.86699
 274.57385 262.46570 250.46956 239.76541 229.88227 220.98112 213.15798 206.15484
 199.98369 194.91655 191.49340 189.53026 188.56211 188.62097 189.45083 190.75368
 192.47354 194.56339 196.82125 199.17510 201.61496 204.08982 206.17267 208.00953
 209.63038 210.77024 210.99409 211.21695 211.14881 210.84866 210.47652 210.10137
 209.71323 209.41808 209.22094 209.07980 209.00265 209.32851 209.70936 210.09322
 210.88107 212.05393 213.29879 215.07664 216.99950 219.03735 221.12721 223.20506
 225.25992 227.33878 229.43063 231.53149 233.65534 235.82220 238.07305 240.43791
 243.05376 245.29962 247.29648 249.05633 250.46819 251.58604 252.40290 252.71375
 252.74561 252.51447 251.86932 250.81218 249.41303 247.56889 245.47274 243.30060
 241.08646 238.88531 236.70017 234.53402 232.38888 230.25073 228.27159 226.42345
 224.70130 223.16816 221.79301 220.55987 219.43672 218.39158 217.49044 216.62629
 215.86315 215.03800 214.13086 213.48971 212.93457 213.32452 214.26312 215.62201
 216.58896 218.01088 219.89180 221.39317 222.81418 224.59360 227.77831 231.47472
 234.55295 237.67633 240.32738 242.78329 245.45355 248.63739 252.22479 255.66408
 258.74957 261.52261 264.07776 266.58893 268.96695 271.11938 273.00894 274.62119
 276.16052 277.74539 279.27951 280.64786 281.83701 282.89441 283.86682 284.76846
 285.61911 286.40866 287.09839 287.97736
 366.78100 356.32992 345.75685 334.61777 323.01569 311.20462 299.06954 286.86746
 274.57439 262.46631 250.47023 239.76615 229.88308 220.98200 213.15892 206.15585
 199.98477 194.91769 191.49462 189.53154 188.56346 188.62239 189.45231 190.75523
 192.47516 194.56508 196.82300 199.17692 201.61685 204.09177 206.17469 208.01162
 209.63254 210.77246 210.99639 211.21931 211.15123 210.85116 210.47908 210.10400
 209.71593 209.42085 209.22377 209.08270 209.00562 209.33154 209.71246 210.09639
 210.88431 212.05723 213.30216 215.08008 217.00300 219.04093 221.13085 223.20877
 225.26370 227.34262 229.43454 231.53547 233.65939 235.82631 238.07724 240.44216
 243.05808 245.30400 247.30093 249.06085 250.47277 251.59070 252.40762 252.71854
 252.75047 252.51939 251.87431 250.81724 249.41816 247.57408 245.47801 243.30593
 241.09185 238.89077 236.70570 234.53962 232.39454 230.25647 228.27739 226.42931
 224.70724 223.17416 221.79908 220.56601 219.44293 218.39785 217.49678 216.63270
 215.86962 215.04455 214.13747 213.49639 212.94131 213.35745 214.37250 215.68549
 216.64392 218.05663 219.92728 221.49051 222.99937 224.79512 227.82925 231.47884
 234.40050 237.35661 239.91846 242.39862 245.17567 248.45094 252.07288 255.57913
 258.71002 261.52618 264.09982 266.60025 268.96332 271.09232 272.96536 274.58313
 276.14825 277.71515 279.24942 280.62192 281.81909 282.89844 283.90045 284.87415
 285.74988 286.52972 287.21100 288.07919
 366.78100 356.32777 345.75253 334.61130 323.00706 311.19383 299.05659 286.85236
 274.55712 262.44689 250.44866 239.74242 229.85719 220.95395 213.12872 206.12348
 199.95025 194.88101 191.45578 189.49055 188.52031 188.57708 189.40484 190.70561
 192.42337 194.51114 196.76690 199.11867 201.55644 204.02920 206.10997 207.94473
 209.56350 210.70126 210.92303 211.14379 211.07356 210.77133 210.39709 210.01986
 209.62962 209.33239 209.13315 208.98992 208.91068 209.23445 209.61322 209.99498
 210.78075 211.95151 213.19428 214.97004 216.89081 218.92657 221.01434 223.09011
 225.14287 227.21964 229.30940 231.40817 233.52993 235.69470 237.94346 240.30623
 242.92000 245.16376 247.15853 248.91629 250.32606 251.44182 252.25659 252.56535
 252.59512 252.36189 251.71465 250.65542 249.25418 247.40795 245.30971 243.13548
 240.91924 238.71601 236.52878 234.36054 232.21331 230.07307 228.09184 226.24160
 224.51737 222.98213 221.60490 220.36967 219.24443 218.19720 217.29396 216.42773
 215.66249 214.83526 213.92602 213.28279 212.72556 213.26962 214.57162 215.76631
 216.62531 218.09840 220.03046 221.63831 223.17609 225.00085 227.95856 231.50659
 234.31062 237.10304 239.53706 242.00485 244.84575 248.19049 251.94901 255.55162
 258.66644 261.44165 264.04010 266.57965 268.95978 271.08456 272.93997 274.60428
 276.18103 277.73538 279.28766 280.66446 281.87274 282.95923 284.00470 284.99521
 285.88605 286.67935 287.37238 288.25555
 366.78100 356.32608 345.74916 334.60625 323.00033 311.18541 299.04649 286.84058
 274.54366 262.43174 250.43182 239.72390 229.83699 220.93207 213.10515 206.09823
 199.92332 194.85240 191.42548 189.45856 188.48664 188.54173 189.36781 190.66689
 192.38297 194.46906 196.72314 199.07322 201.50930 203.98038 206.05947 207.89255
 209.50963 210.64571 210.86579 211.08488 211.01296 210.70904 210.33312 209.95421
 209.56229 209.26337 209.06245 208.91753 208.83662 209.15870 209.53578 209.91586
 210.69995 211.86903 213.11011 214.88419 216.80327 218.83736 220.92344 222.99752
 225.04860 227.12369 229.21177 231.30885 233.42893 235.59201 237.83910 240.20018
 242.81226 245.05434 247.04743 248.80351 250.21159 251.32567 252.13875 252.44584
 252.47392 252.23900 251.59008 250.52917 249.12625 247.27833 245.17841 243.00249
 240.78458 238.57966 236.39074 234.22082 232.07191 229.92999 227.94707 226.09515
 224.36923 222.83232 221.45340 220.21648 219.08956 218.04065 217.13573 216.26781
 215.50089 214.67197 213.76106 213.11614 212.55722 213.20245 214.72708 215.82628
 216.74406 218.17459 220.03589 221.73616 223.41882 225.25879 228.08931 231.56129
 234.21768 236.79274 239.07675 241.54776 244.47554 247.93405 251.81847 255.44728
 258.62115 261.40558 264.00403 266.56351 268.94153 271.03406 272.89532 274.58206
 276.14246 277.67868 279.23132 280.60861 281.81680 282.90582 283.95401 284.94110
 285.82889 286.61945 287.31009 288.19022
 366.78100 356.32682 345.75064 334.60846 323.00328 311.18910 299.05092 286.84574
 274.54955 262.43837 250.43919 239.73201 229.84583 220.94165 213.11547 206.10929
 199.93511 194.86493 191.43875 189.47257 188.50139 188.55721 189.38403 190.68385
 192.40066 194.48748 196.74230 199.09312 201.52994 204.00176 206.08158 207.91540
 209.53322 210.67004 210.89086 211.11068 211.03950 210.73632 210.36114 209.98295
 209.59177 209.29359 209.09341 208.94923 208.86905 209.19187 209.56969 209.95051
 210.73533 211.90515 213.14697 214.92179 216.84161 218.87643 220.96325 223.03806
 225.08988 227.16570 229.25452 231.35234 233.47316 235.63698 237.88480 240.24662
 242.85944 245.10226 247.09608 248.85290 250.26172 251.37654 252.19035 252.49817
 252.52699 252.29281 251.64463 250.58445 249.18227 247.33509 245.23591 243.06073
 240.84355 238.63937 236.45119 234.28201 232.13383 229.99265 228.01046 226.15928
 224.43410 222.89792 221.51974 220.28356 219.15738 218.10920 217.20502 216.33784
 215.57166 214.74348 213.83330 213.18912 212.63094 213.26117 214.76402 215.96684
 216.89371 218.35057 220.26869 222.00928 223.65205 225.46101 228.23135 231.52457
 234.00920 236.40990 238.61514 241.09860 244.11806 247.71196 251.65508 255.39986
 258.53281 261.37653 264.02701 266.59769 268.97467 271.07153 272.95593 274.61902
 276.16614 277.68607 279.23383 280.63062 281.88608 283.09558 284.20630 285.21255
 286.11755 286.92346 287.62747 288.52469
 366.78100 356.32812 345.75324 334.61235 323.00847 311.19559 299.05871 286.85483
 274.55994 262.45006 250.45218 239.74630 229.86142 220.95853 213.13365 206.12877
 199.95589 194.88701 191.46212 189.49724 188.52736 188.58448 189.41260 190.71371
 192.43183 194.51995 196.77607 199.12819 201.56630 204.03942 206.12054 207.95566
 209.57478 210.71290 210.93501 211.15613 211.08625 210.78437 210.41049 210.03360
 209.64372 209.34684 209.14796 209.00508 208.92619 209.25031 209.62943 210.01155
 210.79767 211.96878 213.21190 214.98802 216.90914 218.94526 221.03337 223.10949
 225.16261 227.23973 229.32985 231.42896 233.55108 235.71620 237.96532 240.32844
 242.94255 245.18667 247.18179 248.93991 250.35003 251.46614 252.28126 252.59038
 252.62050 252.38762 251.74073 250.68185 249.28097 247.43509 245.33721 243.16332
 240.94744 238.74456 236.55768 234.38980 232.24291 230.10303 228.12215 226.27227
 224.54839 223.01350 221.63662 220.40174 219.27686 218.22998 217.32710 216.46121
 215.69633 214.86945 213.96057 213.31769 212.76080 213.34451 214.77136 216.11221
 217.06004 218.62505 220.56113 222.21057 223.75569 225.58344 228.39255 231.43407
 233.81659 236.07687 238.17661 240.61464 243.73508 247.48933 251.48433 255.19211
 258.33032 261.30084 264.09518 266.70554 269.09070 271.19205 273.05765 274.73291
 276.23672 278.01028 279.60312 281.07123 282.48187 283.73288 284.87421 285.90820
 286.83817 287.66629 288.38971 289.31165
 366.78100 356.32766 345.75233 334.61099 323.00665 311.19331 299.05598 286.85164
 274.55630 262.44597 250.44763 239.74129 229.85595 220.95262 213.12728 206.12194
 199.94861 194.87927 191.45393 189.48859 188.51826 188.57492 189.40258 190.70325
 192.42091 194.50857 196.76423 199.11590 201.55356 204.02622 206.10689 207.94155
 209.56021 210.69787 210.91954 211.14020 211.06986 210.76753 210.39319 210.01585
 209.62551 209.32818 209.12884 208.98550 208.90617 209.22983 209.60849 209.99015
 210.77582 211.94648 213.18914 214.96481 216.88547 218.92113 221.00879 223.08446
 225.13712 227.21378 229.30345 231.40211 233.52377 235.68843 237.93710 240.29976
 242.91342 245.15709 247.15175 248.90941 250.31907 251.43474 252.24940 252.55806
 252.58773 252.35439 251.70705 250.64771 249.24638 247.40004 245.30170 243.12737
 240.91103 238.70769 236.52035 234.35202 232.20468 230.06434 228.08301 226.23267
 224.50833 222.97299 221.59566 220.36032 219.23498 218.18765 217.28431 216.41797
 215.65263 214.82530 213.91596 213.27262 212.71529 213.32811 214.82957 216.27231
 217.19104 218.81822 220.64806 222.21500 223.76338 225.68700 228.49345 231.39906
 233.72813 235.82964 237.75816 240.16475 243.41032 247.28087 251.28842 254.97279
 258.16165 261.19272 264.02789 266.68463 269.10971 271.23276 273.10806 274.79269
 276.47928 278.25238 279.84308 281.28793 282.66437 283.91217 285.05063 286.08197
 287.00955 287.83557 288.55716 289.47675
 366.78100 356.32670 345.75040 334.60810 323.00281 311.18851 299.05021 286.84491
 274.54861 262.43731 250.43802 239.73072 229.84442 220.94012 213.11382 206.10752
 199.93322 194.86293 191.43663 189.47033 188.49903 188.55473 189.38143 190.68114
 192.39784 194.48454 196.73924 199.08994 201.52664 203.99835 206.07805 207.91175
 209.52945 210.66615 210.88685 211.10655 211.03526 210.73196 210.35666 209.97836
 209.58706 209.28876 209.08847 208.94417 208.86387 209.18657 209.56427 209.94497
 210.72967 211.89938 213.14108 214.91578 216.83548 218.87018 220.95688 223.03159
 225.08329 227.15899 229.24769 231.34539 233.46609 235.62980 237.87750 240.23920
 242.85190 245.09460 247.08830 248.84500 250.25371 251.36841 252.18211 252.48981
 252.51851 252.28421 251.63592 250.57562 249.17332 247.32602 245.22672 243.05142
 240.83412 238.62983 236.44153 234.27223 232.12393 229.98263 228.00033 226.14904
 224.42374 222.88744 221.50914 220.27284 219.14654 218.09824 217.19395 216.32665
 215.56035 214.73205 213.82175 213.17745 212.61916 213.28061 214.88631 216.42722
 217.31122 218.87347 220.67091 222.23701 223.79105 225.71208 228.51578 231.30644
 233.56181 235.50391 237.31171 239.77084 243.16093 247.14427 251.19939 254.91707
 258.16302 261.17563 263.98138 266.63840 269.04892 271.15231 273.03894 274.78799
 276.48950 278.25345 279.82639 281.23297 282.48447 283.69409 284.81653 285.83337
 286.74792 287.56235 288.27380 289.18045
 366.78100 356.32718 345.75136 334.60954 323.00472 311.19090 299.05308 286.84826
 274.55244 262.44162 250.44280 239.73598 229.85016 220.94634 213.12052 206.11470
 199.94088 194.87106 191.44524 189.47942 188.50860 188.56478 189.39196 190.69215
 192.40933 194.49651 196.75169 199.10287 201.54005 204.01223 206.09241 207.92659
 209.54477 210.68195 210.90313 211.12331 211.05249 210.74967 210.37485 209.99703
 209.60621 209.30839 209.10857 208.96475 208.88493 209.20811 209.58629 209.96747
 210.75265 211.92283 213.16501 214.94019 216.86037 218.89555 220.98273 223.05791
 225.11009 227.18627 229.27545 231.37363 233.49481 235.65899 237.90717 240.26935
 242.88253 245.12571 247.11989 248.87708 250.28626 251.40144 252.21562 252.52380
 252.55298 252.31916 251.67134 250.61152 249.20970 247.36288 245.26406 243.08924
 240.87242 238.66860 236.48078 234.31196 232.16414 230.02332 228.04150 226.19068
 224.46586 222.93004 221.55222 220.31640 219.19058 218.14276 217.23894 216.37212
 215.60630 214.77848 213.86866 213.22484 212.66702 213.31497 214.88811 216.49727
 217.47154 218.95546 220.75859 222.40601 223.95714 225.79736 228.51477 231.23222
 233.36072 235.11855 236.81779 239.34666 242.89502 247.01900 251.13901 254.90561
 258.19952 261.22845 264.02182 266.69550 269.11368 271.19177 273.04068 274.76031
 276.46552 278.17548 279.74338 281.13715 282.36819 283.51010 284.62689 285.63864
 286.54858 287.35889 288.06677 288.96887
 366.78100 356.32409 345.74518 334.60027 322.99235 311.17544 299.03453 286.82662
 274.52771 262.41380 250.41188 239.70197 229.81306 220.90615 213.07724 206.06833
 199.89141 194.81850 191.38959 189.42068 188.44677 188.49986 189.32394 190.62103
 192.33512 194.41921 196.67130 199.01939 201.45347 203.92256 205.99965 207.83074
 209.44583 210.57992 210.79800 211.01509 210.94118 210.63527 210.25736 209.87645
 209.48253 209.18162 208.97871 208.83180 208.74889 209.06898 209.44406 209.82215
 210.60424 211.77133 213.01042 214.78251 216.69959 218.73168 220.81577 222.88786
 224.93695 227.01004 229.09612 231.19121 233.30930 235.47039 237.71548 240.07457
 242.68465 244.92474 246.91583 248.66992 250.07601 251.18810 251.99918 252.30427
 252.33036 252.09345 251.44254 250.37963 248.97471 247.12480 245.02289 242.84498
 240.62507 238.41816 236.22724 234.05533 231.90442 229.76051 227.77560 225.92169
 224.19377 222.65486 221.27395 220.03504 218.90613 217.85522 216.94830 216.07839
 215.30948 214.47857 213.56566 212.91875 212.35783 213.16985 215.09764 216.58208
 217.33765 218.89835 220.84117 222.58392 224.16566 225.98178 228.66872 231.32375
 233.33028 234.87123 236.40712 238.94879 242.60973 246.85599 250.98889 254.73244
 258.06888 261.14331 264.02664 266.77139 269.25839 271.38580 273.25409 274.96518
 276.57669 278.13770 279.68289 281.06366 282.27798 283.38052 284.46478 285.48282
 286.39844 287.21381 287.92609 288.83383
 366.78100 356.32198 345.74096 334.59394 322.98392 311.16490 299.02188 286.81186
 274.51084 262.39482 250.39080 239.67878 229.78776 220.87874 213.04772 206.03670
 199.85768 194.78266 191.35164 189.38061 188.40459 188.45557 189.27755 190.57253
 192.28451 194.36649 196.61647 198.96245 201.39443 203.86141 205.93639 207.76537
 209.37835 210.51033 210.72631 210.94129 210.86527 210.55725 210.17723 209.79421
 209.39819 209.09517 208.89015 208.74113 208.65611 208.97409 209.34707 209.72305
 210.50303 211.66801 212.90499 214.67497 216.58995 218.61993 220.70191 222.77188
 224.81886 226.88984 228.97382 231.06680 233.18278 235.34176 237.58474 239.94172
 242.54970 244.78768 246.77666 248.52864 249.93262 251.04260 251.85158 252.15456
 252.17854 251.93952 251.28650 250.22148 248.81446 246.96244 244.85842 242.67840
 240.45638 238.24736 236.05434 233.88032 231.72730 229.58128 227.59426 225.73824
 224.00822 222.46720 221.08418 219.84316 218.71213 217.65911 216.75009 215.87807
 215.10705 214.27403 213.35901 212.70999 212.14697 213.05692 215.20920 216.89192
 217.41718 218.87144 220.92805 222.69823 224.28250 226.14622 228.93970 231.39253
 233.29028 234.64700 236.06874 238.61096 242.37805 246.68880 250.81532 254.56000
 257.92029 261.01791 263.96826 266.72833 269.23853 271.43362 273.37753 275.14291
 276.77203 278.25916 279.63623 280.98480 282.17883 283.25482 284.25079 285.14688
 285.95438 286.72519 287.39856 288.25668
 366.78100 356.32184 345.74069 334.59353 322.98338 311.16422 299.02106 286.81091
 274.50975 262.39360 250.38944 239.67728 229.78613 220.87697 213.04582 206.03466
 199.85551 194.78035 191.34919 189.37804 188.40188 188.45273 189.27457 190.56941
 192.28126 194.36310 196.61295 198.95879 201.39063 203.85748 205.93232 207.76117
 209.37401 210.50585 210.72170 210.93654 210.86039 210.55223 210.17207 209.78892
 209.39276 209.08961 208.88445 208.73530 208.65014 208.96798 209.34083 209.71667
 210.49652 211.66136 212.89820 214.66805 216.58289 218.61274 220.69458 222.76442
 224.81127 226.88211 228.96596 231.05880 233.17464 235.33349 237.57633 239.93318
 242.54102 244.77886 246.76771 248.51955 249.92340 251.03324 251.84209 252.14493
 252.16877 251.92962 251.27646 250.21131 248.80415 246.95199 244.84784 242.66768
 240.44553 238.23637 236.04321 233.86906 231.71590 229.56975 227.58259 225.72643
 223.99628 222.45512 221.07197 219.83081 218.69965 217.64650 216.73734 215.86519
 215.09403 214.26088 213.34572 212.69656 212.13341 213.04939 215.21349 217.05348
 217.76717 219.12515 221.04990 222.72054 224.25584 226.14542 228.95804 231.25673
 232.96794 234.29614 235.77448 238.42661 242.32726 246.63101 250.76651 254.56866
 257.95456 261.03314 263.93887 266.66705 269.12866 271.28134 273.19907 274.97717
 276.66852 278.21280 279.59753 280.93228 282.11539 283.17398 284.15109 285.03662
 285.81790 286.51431 287.12622 287.95657
 366.78100 356.32116 345.73932 334.59147 322.98063 311.16079 299.01695 286.80611
 274.50427 262.38742 250.38258 239.66974 229.77790 220.86806 213.03621 206.02437
 199.84453 194.76869 191.33685 189.36501 188.38816 188.43832 189.25948 190.55364
 192.26480 194.34595 196.59511 198.94027 201.37143 203.83759 205.91175 207.73990
 209.35206 210.48322 210.69838 210.91254 210.83569 210.52685 210.14601 209.76217
 209.36533 209.06149 208.85564 208.70580 208.61996 208.93712 209.30928 209.68444
 210.46359 211.62775 212.86391 214.63307 216.54723 218.57638 220.65754 222.72670
 224.77286 226.84302 228.92618 231.01833 233.13349 235.29165 237.53381 239.88997
 242.49712 244.73428 246.72244 248.47360 249.87676 250.98592 251.79407 252.09623
 252.11939 251.87955 251.22571 250.15986 248.75202 246.89918 244.79434 242.61350
 240.39066 238.18081 235.98697 233.81213 231.65829 229.51145 227.52360 225.66676
 223.93592 222.39408 221.01024 219.76840 218.63655 217.58271 216.67287 215.80003
 215.02819 214.19434 213.27850 212.62866 212.06482 213.01981 215.27606 217.14926
 217.97163 219.29726 221.16675 222.78203 224.27414 226.12527 228.89882 231.12341
 232.68771 233.90785 235.41406 238.20924 242.25034 246.59464 250.76215 254.62256
 258.04022 261.10663 263.96841 266.65561 269.07242 271.17612 273.03302 274.78021
 276.50296 278.09012 279.53586 280.89008 282.07709 283.13644 284.11206 284.99448
 285.77423 286.47247 287.08682 287.91571
 366.78100 356.31957 345.73613 334.58670 322.97426 311.15283 299.00740 286.79496
 274.49153 262.37309 250.36666 239.65223 229.75879 220.84736 213.01392 206.00049
 199.81906 194.74162 191.30819 189.33475 188.35632 188.40488 189.22445 190.51702
 192.22658 194.30615 196.55371 198.89728 201.32685 203.79141 205.86398 207.69054
 209.30111 210.43068 210.64424 210.85681 210.77837 210.46794 210.08551 209.70007
 209.30164 208.99620 208.78877 208.63734 208.54990 208.86547 209.23603 209.60960
 210.38717 211.54973 212.78430 214.55186 216.46443 218.49199 220.57156 222.63913
 224.68369 226.75226 228.83382 230.92439 233.03796 235.19452 237.43509 239.78965
 242.39522 244.63079 246.61735 248.36692 249.76848 250.87605 251.68262 251.98318
 252.00475 251.76331 251.10788 250.04045 248.63101 246.77658 244.67014 242.48771
 240.26328 238.05184 235.85641 233.67997 231.52454 229.37610 227.38667 225.52824
 223.79580 222.25237 220.86693 219.62350 218.49007 217.43463 216.52320 215.64876
 214.87533 214.03990 213.12246 212.47103 211.90559 212.94365 215.39618 217.27129
 218.12518 219.39810 221.20627 222.83734 224.37311 226.20250 228.88351 231.05748
 232.45105 233.52365 235.06523 238.02696 242.15553 246.51111 250.71611 254.61951
 258.06357 261.13498 263.98233 266.64868 269.04758 271.13397 272.95200 274.67075
 276.41025 278.00116 279.51749 280.88126 282.06924 283.12823 284.10526 284.98538
 285.77087 286.46780 287.08383 287.91946
 366.78100 356.31820 345.73340 334.58260 322.96880 311.14601 298.99921 286.78541
 274.48061 262.36081 250.35301 239.63721 229.74241 220.82962 212.99482 205.98002
 199.79722 194.71842 191.28362 189.30882 188.32902 188.37623 189.19443 190.48563
 192.19383 194.27203 196.51823 198.86043 201.28863 203.75183 205.82304 207.64824
 209.25744 210.38564 210.59784 210.80904 210.72924 210.41744 210.03365 209.64685
 209.24705 208.94025 208.73145 208.57865 208.48985 208.80405 209.17325 209.54546
 210.32166 211.48286 212.71606 214.48226 216.39346 218.41966 220.49786 222.56407
 224.60727 226.67447 228.75467 230.84387 232.95607 235.11127 237.35047 239.70368
 242.30788 244.54208 246.52728 248.27548 249.67568 250.78188 251.58708 251.88628
 251.90649 251.66369 251.00689 249.93809 248.52729 246.67149 244.56369 242.37989
 240.15410 237.94130 235.74450 233.56670 231.40990 229.26010 227.26930 225.40950
 223.67570 222.13091 220.74411 219.49931 218.36451 217.30771 216.39491 215.51911
 214.74431 213.90752 212.98872 212.33592 211.76912 212.87634 215.49226 217.42674
 218.25687 219.49606 221.24860 222.88844 224.48174 226.28000 228.87576 231.00436
 232.20627 233.10895 234.72113 237.86293 242.05070 246.42731 250.65530 254.58420
 258.05347 261.14194 263.98618 266.64597 269.05112 271.15558 272.95752 274.63553
 276.35648 277.94379 279.44418 280.80157 281.98279 283.02914 283.98117 284.86121
 285.68762 286.39316 287.01260 287.85745
 366.78100 356.31755 345.73211 334.58066 322.96622 311.14277 298.99533 286.78088
 274.47543 262.35499 250.34654 239.63010 229.73465 220.82121 212.98576 205.97032
 199.78687 194.70742 191.27198 189.29653 188.31609 188.36264 189.18020 190.47075
 192.17830 194.25586 196.50141 198.84297 201.27052 203.73308 205.80363 207.62819
 209.23674 210.36429 210.57585 210.78640 210.70596 210.39351 210.00907 209.62162
 209.22117 208.91373 208.70428 208.55084 208.46139 208.77495 209.14350 209.51506
 210.29061 211.45116 212.68372 214.44927 216.35983 218.38538 220.46294 222.52849
 224.57104 226.63760 228.71715 230.80571 232.91726 235.07182 237.31037 239.66293
 242.26648 244.50003 246.48459 248.23214 249.63170 250.73725 251.54181 251.84036
 251.85991 251.61647 250.95902 249.88958 248.47813 246.62169 244.51324 242.32880
 240.10235 237.88890 235.69146 233.51301 231.35557 229.20512 227.21368 225.35323
 223.61878 222.07334 220.68589 219.44045 218.30500 217.24756 216.33411 215.45767
 214.68222 213.84477 212.92533 212.27188 211.70444 212.84703 215.54651 217.58095
 218.38399 219.60123 221.33968 222.96684 224.56537 226.32521 228.87267 230.91472
 231.93684 232.70877 234.43306 237.71074 241.93353 246.35289 250.60060 254.55063
 258.04495 261.15408 263.99533 266.64514 269.05508 271.17706 272.95663 274.58676
 276.28174 277.86969 279.38638 280.74841 281.93048 282.97952 283.93369 284.81433
 285.63373 286.35120 286.97202 287.82382
 366.78100 356.31767 345.73235 334.58102 322.96670 311.14337 298.99605 286.78172
 274.47639 262.35607 250.34774 239.63142 229.73609 220.82277 212.98744 205.97211
 199.78879 194.70946 191.27414 189.29881 188.31849 188.36516 189.18283 190.47351
 192.18118 194.25886 196.50453 198.84621 201.27388 203.73655 205.80723 207.63190
 209.24058 210.36825 210.57993 210.79060 210.71028 210.39795 210.01362 209.62630
 209.22597 208.91865 208.70932 208.55600 208.46667 208.78034 209.14902 209.52069
 210.29637 211.45704 212.68972 214.45539 216.36606 218.39174 220.46941 222.53509
 224.57776 226.64444 228.72411 230.81278 232.92446 235.07913 237.31781 239.67048
 242.27416 244.50783 246.49250 248.24018 249.63985 250.74553 251.55020 251.84888
 251.86855 251.62522 250.96790 249.89857 248.48725 246.63092 244.52260 242.33827
 240.11194 237.89862 235.70129 233.52297 231.36564 229.21532 227.22399 225.36366
 223.62934 222.08401 220.69669 219.45136 218.31604 217.25871 216.34538 215.46906
 214.69373 213.85641 212.93708 212.28376 211.71643 212.86197 215.56847 217.68967
 218.56543 219.72115 221.42976 223.02966 224.66661 226.41159 228.89230 230.73131
 231.60017 232.31093 234.11220 237.54347 241.84311 246.30832 250.57121 254.53331
 258.04953 261.17163 264.00497 266.63492 269.03690 271.16248 272.91476 274.51080
 276.19629 277.83142 279.36496 280.72995 281.91620 282.96780 283.92548 284.80521
 285.62259 286.34711 286.97263 287.82471
 366.78100 356.31762 345.73224 334.58086 322.96648 311.14311 298.99573 286.78135
 274.47597 262.35559 250.34721 239.63083 229.73545 220.82207 212.98669 205.97132
 199.78794 194.70856 191.27318 189.29780 188.31742 188.36404 189.18166 190.47228
 192.17991 194.25753 196.50315 198.84477 201.27239 203.73501 205.80563 207.63025
 209.23887 210.36649 210.57812 210.78874 210.70836 210.39598 210.01160 209.62422
 209.22384 208.91646 208.70708 208.55371 208.46433 208.77795 209.14657 209.51819
 210.29381 211.45443 212.68705 214.45267 216.36329 218.38892 220.46654 222.53216
 224.57478 226.64140 228.72102 230.80964 232.92126 235.07588 237.31451 239.66713
 242.27075 244.50437 246.48899 248.23661 249.63623 250.74185 251.54647 251.84509
 251.86472 251.62134 250.96396 249.89458 248.48320 246.62682 244.51844 242.33406
 240.10768 237.89431 235.69693 233.51855 231.36117 229.21079 227.21941 225.35903
 223.62465 222.07927 220.69189 219.44652 218.31114 217.25376 216.34038 215.46400
 214.68862 213.85124 212.93186 212.27848 211.71111 212.87259 215.61676 217.75255
 218.65842 220.02707 221.63673 223.06921 224.65953 226.39607 228.90471 230.64554
 231.20401 231.73289 233.83876 237.46169 241.81490 246.29015 250.55338 254.51990
 258.05209 261.18567 264.01154 266.61221 268.99918 271.13025 272.86484 274.44540
 276.10083 277.82629 279.37085 280.73404 281.92014 282.97324 283.93326 284.81570
 285.63199 286.36609 286.99176 287.85361
 366.78100 356.31783 345.73265 334.58148 322.96731 311.14414 298.99696 286.78279
 274.47762 262.35745 250.34927 239.63310 229.73793 220.82476 212.98958 205.97441
 199.79124 194.71206 191.27689 189.30172 188.32155 188.36837 189.18620 190.47703
 192.18486 194.26268 196.50851 198.85034 201.27817 203.74099 205.81182 207.63665
 209.24548 210.37330 210.58513 210.79596 210.71578 210.40361 210.01944 209.63227
 209.23209 208.92492 208.71575 208.56258 208.47340 208.78723 209.15606 209.52789
 210.30371 211.46454 212.69737 214.46319 216.37402 218.39985 220.47768 222.54350
 224.58633 226.65316 228.73299 230.82181 232.93364 235.08847 237.32730 239.68012
 242.28395 244.51778 246.50261 248.25043 249.65026 250.75609 251.56091 251.85974
 251.87957 251.63640 250.97922 249.91005 248.49888 246.64271 244.53453 242.35036
 240.12419 237.91102 235.71384 233.53567 231.37850 229.22832 227.23715 225.37698
 223.64281 222.09763 220.71046 219.46529 218.33012 217.27294 216.35977 215.48360
 214.70843 213.87125 212.95208 212.29891 211.73174 212.89647 215.64825 217.84506
 218.75952 220.22519 221.84506 223.21896 224.64340 226.31802 228.87558 230.56813
 230.85249 231.21318 233.62053 237.40779 241.79022 246.26491 250.52704 254.50000
 258.04861 261.19370 264.01462 266.58328 268.95789 271.10178 272.82681 274.39624
 276.06647 277.80948 279.36087 280.72797 281.91586 282.97089 283.93497 284.81674
 285.63245 286.36948 286.99847 287.86707
 366.78100 356.31803 345.73306 334.58210 322.96813 311.14516 298.99819 286.78422
 274.47925 262.35929 250.35132 239.63535 229.74038 220.82741 212.99244 205.97748
 199.79451 194.71554 191.28057 189.30560 188.32563 188.37267 189.19070 190.48173
 192.18976 194.26779 196.51382 198.85586 201.28389 203.74692 205.81795 207.64298
 209.25201 210.38005 210.59208 210.80311 210.72314 210.41117 210.02720 209.64024
 209.24027 208.93330 208.72433 208.57136 208.48239 208.79643 209.16546 209.53749
 210.31352 211.47455 212.70758 214.47362 216.38465 218.41068 220.48871 222.55474
 224.59777 226.66481 228.74484 230.83387 232.94590 235.10093 237.33996 239.69300
 242.29703 244.53106 246.51609 248.26412 249.66415 250.77019 251.57522 251.87425
 251.89428 251.65131 250.99434 249.92538 248.51441 246.65844 244.55047 242.36650
 240.14053 237.92757 235.73060 233.55263 231.39566 229.24569 227.25472 225.39476
 223.66079 222.11582 220.72885 219.48388 218.34891 217.29195 216.37898 215.50301
 214.72804 213.89107 212.97210 212.31914 211.75217 212.91946 215.67737 217.94508
 218.88565 220.34798 222.00249 223.41380 224.72177 226.27293 228.78424 230.39348
 230.52328 230.80141 233.42482 237.34737 241.75282 246.23404 250.49529 254.47356
 258.03757 261.19574 264.01505 266.55627 268.92551 271.09012 272.80783 274.36481
 276.04254 277.78876 279.34250 280.71121 281.90018 282.95697 283.92191 284.80679
 285.62100 286.35873 286.99600 287.86899
 366.78100 356.31800 345.73300 334.58199 322.96799 311.14499 298.99799 286.78399
 274.47899 262.35898 250.35098 239.63498 229.73998 220.82698 212.99198 205.97697
 199.79397 194.71497 191.27997 189.30497 188.32497 188.37196 189.18996 190.48096
 192.18896 194.26696 196.51295 198.85495 201.28295 203.74595 205.81695 207.64195
 209.25094 210.37894 210.59094 210.80194 210.72194 210.40994 210.02593 209.63893
 209.23893 208.93193 208.72293 208.56992 208.48092 208.79492 209.16392 209.53592
 210.31192 211.47291 212.70591 214.47191 216.38291 218.40891 220.48691 222.55290
 224.59590 226.66290 228.74290 230.83190 232.94390 235.09889 237.33789 239.69089
 242.29489 244.52889 246.51388 248.26188 249.66188 250.76788 251.57288 251.87188
 251.89187 251.64887 250.99187 249.92287 248.51187 246.65587 244.54786 242.36386
 240.13786 237.92486 235.72786 233.54985 231.39285 229.24285 227.25185 225.39185
 223.65785 222.11284 220.72584 219.48084 218.34584 217.28884 216.37584 215.49983
 214.72483 213.88783 212.96883 212.31583 211.74883 212.93079 215.72328 218.02962
 219.02289 220.45915 222.10507 223.58591 224.86685 226.28514 228.66585 230.13388
 230.20000 230.48680 233.23701 237.26910 241.71396 246.20584 250.46181 254.44092
 258.01831 261.19061 264.01254 266.52988 268.89795 271.08124 272.79254 274.34378
 276.02533 277.77585 279.33279 280.70264 281.89514 282.95425 283.92426 284.81342
 285.63193 286.37201 287.02676 287.92563
 366.78100 356.31796 345.73293 334.58189 322.96785 311.14481 298.99778 286.78374
 274.47870 262.35866 250.35063 239.63459 229.73955 220.82652 212.99148 205.97644
 199.79340 194.71437 191.27933 189.30429 188.32425 188.37122 189.18918 190.48014
 192.18810 194.26607 196.51203 198.85399 201.28196 203.74492 205.81588 207.64084
 209.24981 210.37777 210.58973 210.80069 210.72066 210.40862 210.02458 209.63755
 209.23751 208.93047 208.72143 208.56840 208.47936 208.79332 209.16228 209.53425
 210.31021 211.47117 212.70413 214.47010 216.38106 218.40702 220.48499 222.55095
 224.59391 226.66087 228.74084 230.82980 232.94176 235.09672 237.33569 239.68865
 242.29261 244.52658 246.51154 248.25950 249.65946 250.76543 251.57039 251.86935
 251.88931 251.64628 250.98924 249.92020 248.50917 246.65313 244.54509 242.36105
 240.13502 237.92198 235.72494 233.54690 231.38987 229.23983 227.24879 225.38875
 223.65472 222.10968 220.72264 219.47761 218.34257 217.28553 216.37249 215.49646
 214.72142 213.88438 212.96534 212.31231 211.74527 212.94366 215.77504 218.10382
 219.15010 220.58473 222.19212 223.72064 225.01350 226.33064 228.55812 229.85175
 229.87894 230.22537 233.05128 237.18613 241.67947 246.17537 250.42407 254.40291
 257.99188 261.17987 264.01001 266.51050 268.88019 271.08102 272.78442 274.28781
 276.02371 277.78268 279.33926 280.70996 281.90112 282.96219 283.93216 284.82242
 285.63934 286.38199 287.03497 287.94257
 366.78100 356.31811 345.73322 334.58233 322.96844 311.14555 298.99866 286.78477
 274.47988 262.35999 250.35210 239.63621 229.74132 220.82843 212.99354 205.97865
 199.79576 194.71687 191.28198 189.30709 188.32721 188.37432 189.19243 190.48354
 192.19165 194.26976 196.51587 198.85798 201.28609 203.74920 205.82031 207.64542
 209.25453 210.38264 210.59475 210.80586 210.72597 210.41408 210.03019 209.64330
 209.24341 208.93652 208.72763 208.57474 208.48585 208.79996 209.16907 209.54118
 210.31729 211.47840 212.71151 214.47762 216.38873 218.41484 220.49295 222.55906
 224.60217 226.66928 228.74939 230.83850 232.95062 235.10573 237.34484 239.69795
 242.30206 244.53617 246.52128 248.26939 249.66950 250.77561 251.58072 251.87983
 251.89994 251.65705 251.00016 249.93127 248.52038 246.66449 244.55660 242.37271
 240.14682 237.93393 235.73704 233.55915 231.40226 229.25237 227.26148 225.40159
 223.66770 222.12281 220.73592 219.49103 218.35614 217.29925 216.38636 215.51047
 214.73558 213.89869 212.97980 212.32691 211.76003 212.96747 215.82019 218.17566
 219.26123 220.71445 222.29182 223.82736 225.12976 226.38249 228.46584 229.58385
 229.56378 229.98776 232.87517 237.10542 241.64973 246.14212 250.38419 254.36383
 257.96393 261.16602 264.00354 266.48810 268.85721 271.06250 272.75790 274.32199
 276.01154 277.76624 279.32477 280.69650 281.89139 282.95212 283.92438 284.81433
 285.63141 286.36908 287.02490 287.93607
 366.78100 356.31839 345.73378 334.58316 322.96955 311.14694 299.00033 286.78672
 274.48210 262.36249 250.35488 239.63927 229.74466 220.83205 212.99743 205.98282
 199.80021 194.72160 191.28699 189.31237 188.33276 188.38015 189.19854 190.48993
 192.19831 194.27670 196.52309 198.86548 201.29387 203.75726 205.82864 207.65403
 209.26342 210.39181 210.60420 210.81558 210.73597 210.42436 210.04075 209.65414
 209.25452 208.94791 208.73930 208.58669 208.49808 208.81247 209.18185 209.55424
 210.33063 211.49202 212.72541 214.49179 216.40318 218.42957 220.50796 222.57435
 224.61773 226.68512 228.76551 230.85490 232.96729 235.12267 237.36206 239.71545
 242.31984 244.55423 246.53962 248.28800 249.68839 250.79478 251.60017 251.89956
 251.91994 251.67733 251.02072 249.95211 248.54150 246.68588 244.57827 242.39466
 240.16905 237.95644 235.75983 233.58221 231.42560 229.27599 227.28538 225.42577
 223.69215 222.14754 220.76093 219.51632 218.38171 217.32509 216.41248 215.53687
 214.76226 213.92565 213.00704 212.35442 211.78781 212.99934 215.86171 218.24329
 219.36761 220.84012 222.41112 223.92584 225.22212 226.42879 228.38025 229.32849
 229.25215 229.76572 232.71596 237.03288 241.61926 246.10503 250.34264 254.32358
 257.93475 261.15359 264.00204 266.47751 268.84821 271.06381 272.75299 274.17606
 276.04788 277.80325 279.34030 280.70343 281.89230 282.95026 283.91812 284.80594
 285.61880 286.35394 287.00897 287.92123
 366.78100 356.31873 345.73446 334.58419 322.97093 311.14866 299.00239 286.78912
 274.48485 262.36558 250.35832 239.64305 229.74878 220.83651 213.00224 205.98797
 199.80571 194.72744 191.29317 189.31890 188.33963 188.38736 189.20609 190.49783
 192.20656 194.28529 196.53202 198.87475 201.30348 203.76722 205.83895 207.66468
 209.27441 210.40314 210.61587 210.82761 210.74834 210.43707 210.05380 209.66753
 209.26826 208.96200 208.75373 208.60146 208.51319 208.82792 209.19765 209.57038
 210.34712 211.50885 212.74258 214.50931 216.42104 218.44777 220.52651 222.59324
 224.63697 226.70470 228.78543 230.87516 232.98790 235.14363 237.38336 239.73709
 242.34182 244.57655 246.56228 248.31102 249.71175 250.81848 251.62421 251.92394
 251.94467 251.70241 251.04614 249.97787 248.56760 246.71233 244.60506 242.42180
 240.19653 237.98426 235.78799 233.61072 231.45445 229.30518 227.31492 225.45565
 223.72238 222.17811 220.79184 219.54757 218.41331 217.35704 216.44477 215.56950
 214.79523 213.95896 213.04070 212.38843 211.82216 213.03571 215.90283 218.30191
 219.46980 220.96127 222.54308 224.02422 225.30247 226.46442 228.29631 229.07889
 228.94882 229.56931 232.57950 236.96570 241.58388 246.06589 250.30029 254.27878
 257.89676 261.13217 263.99219 266.46457 268.83630 271.05130 272.74207 274.23206
 276.05164 277.76462 279.31363 280.68478 281.87701 282.93689 283.90836 284.79703
 285.60968 286.34653 286.99936 287.91748
 366.78100 356.31912 345.73525 334.58537 322.97249 311.15062 299.00474 286.79187
 274.48799 262.36911 250.36224 239.64736 229.75348 220.84161 213.00773 205.99386
 199.81198 194.73410 191.30023 189.32635 188.34747 188.39560 189.21472 190.50685
 192.21597 194.29509 196.54222 198.88534 201.31446 203.77859 205.85071 207.67684
 209.28696 210.41608 210.62921 210.84133 210.76245 210.45158 210.06870 209.68283
 209.28395 208.97807 208.77020 208.61832 208.53044 208.84557 209.21569 209.58882
 210.36594 211.52806 212.76219 214.52931 216.44143 218.46856 220.54768 222.61481
 224.65893 226.72705 228.80818 230.89830 233.01142 235.16755 237.40767 239.76180
 242.36692 244.60204 246.58817 248.33729 249.73841 250.84554 251.65166 251.95179
 251.97291 251.73103 251.07516 250.00728 248.59740 246.74253 244.63565 242.45278
 240.22790 238.01602 235.82015 233.64327 231.48739 229.33852 227.34864 225.48977
 223.75689 222.21301 220.82714 219.58326 218.44938 217.39351 216.48163 215.60676
 214.83288 213.99700 213.07913 212.42725 211.86137 213.07579 215.94499 218.35390
 219.56577 221.08182 222.67844 224.12686 225.37589 226.49104 228.21379 228.82518
 228.65337 229.40224 232.46245 236.89833 241.54309 246.02661 250.25984 254.23239
 257.85242 261.10223 263.97757 266.45483 268.83118 271.04584 272.74832 274.28619
 276.00336 277.75800 279.31451 280.68524 281.87793 282.93835 283.91153 284.79919
 285.61441 286.35208 287.00558 287.93079
 366.78100 356.31960 345.73621 334.58681 322.97442 311.15302 299.00762 286.79523
 274.49183 262.37344 250.36704 239.65264 229.75925 220.84785 213.01446 206.00106
 199.81966 194.74227 191.30887 189.33547 188.35708 188.40568 189.22529 190.51789
 192.22749 194.30710 196.55470 198.89831 201.32791 203.79251 205.86512 207.69172
 209.30233 210.43193 210.64553 210.85814 210.77974 210.46935 210.08695 209.70155
 209.30316 208.99776 208.79037 208.63897 208.55157 208.86718 209.23778 209.61138
 210.38899 211.55159 212.78620 214.55380 216.46640 218.49401 220.57361 222.64122
 224.68582 226.75442 228.83603 230.92663 233.04024 235.19684 237.43744 239.79205
 242.39765 244.63326 246.61986 248.36946 249.77107 250.87867 251.68528 251.98588
 252.00748 251.76609 251.11069 250.04329 248.63390 246.77950 244.67311 242.49071
 240.26631 238.05492 235.85952 233.68313 231.52773 229.37933 227.38994 225.53154
 223.79915 222.25575 220.87035 219.62696 218.49356 217.43817 216.52677 215.65237
 214.87898 214.04358 213.12619 212.47479 211.90939 213.12010 215.98051 218.40004
 219.65648 221.20424 222.80969 224.22856 225.44109 226.50830 228.12923 228.56267
 228.36467 229.25903 232.35994 236.83102 241.50023 245.98778 250.22215 254.19011
 257.80945 261.07193 263.96402 266.45334 268.83148 271.03989 272.74417 274.20990
 276.03403 277.79901 279.34970 280.71771 281.90784 282.96667 283.93784 284.82614
 285.64075 286.38086 287.03592 287.95847
 366.78100 356.32025 345.73750 334.58874 322.97699 311.15624 299.01149 286.79973
 274.49698 262.37923 250.37348 239.65972 229.76697 220.85622 213.02347 206.01071
 199.82996 194.75321 191.32046 189.34770 188.36995 188.41920 189.23945 190.53269
 192.24294 194.32319 196.57144 198.91568 201.34593 203.81118 205.88443 207.71167
 209.32292 210.45317 210.66742 210.88066 210.80291 210.49316 210.11141 209.72665
 209.32890 209.02415 208.81740 208.66664 208.57989 208.89614 209.26739 209.64163
 210.41988 211.58313 212.81838 214.58662 216.49987 218.52812 220.60837 222.67662
 224.72186 226.79111 228.87336 230.96461 233.07885 235.23610 237.47735 239.83260
 242.43884 244.67509 246.66234 248.41259 249.81483 250.92308 251.73033 252.03158
 252.05382 251.81307 251.15832 250.09157 248.68281 246.82906 244.72331 242.54156
 240.31780 238.10705 235.91230 233.73655 231.58179 229.43404 227.44529 225.58754
 223.85578 222.31303 220.92828 219.68553 218.55277 217.49802 216.58727 215.71352
 214.94076 214.10601 213.18926 212.53851 211.97375 213.17419 216.01039 218.43771
 219.75346 221.33542 222.93883 224.33469 225.49828 226.52596 228.04480 228.29326
 228.08649 229.13531 232.27014 236.76463 241.45421 245.94678 250.18535 254.14944
 257.76672 261.03992 263.95001 266.45612 268.83136 271.01892 272.71768 274.29498
 276.03638 277.79614 279.35306 280.72263 281.91492 282.97604 283.94785 284.83829
 285.65302 286.39572 287.04843 287.97919
 366.78100 356.32114 345.73927 334.59141 322.98055 311.16068 299.01682 286.80596
 274.50409 262.38723 250.38237 239.66950 229.77764 220.86777 213.03591 206.02405
 199.84418 194.76832 191.33646 189.36459 188.38773 188.43787 189.25900 190.55314
 192.26428 194.34541 196.59455 198.93969 201.37082 203.83696 205.91110 207.73923
 209.35137 210.48251 210.69764 210.91178 210.83491 210.52605 210.14519 209.76132
 209.36446 209.06060 208.85473 208.70487 208.61901 208.93614 209.30828 209.68342
 210.46255 211.62669 212.86283 214.63196 216.54610 218.57524 220.65637 222.72551
 224.77165 226.84178 228.92492 231.01706 233.13219 235.29033 237.53246 239.88860
 242.49574 244.73287 246.72101 248.47215 249.87528 250.98442 251.79256 252.09469
 252.11783 251.87797 251.22410 250.15824 248.75038 246.89751 244.79265 242.61179
 240.38892 238.17906 235.98520 233.81033 231.65647 229.50960 227.52174 225.66488
 223.93401 222.39215 221.00829 219.76642 218.63456 217.58070 216.67083 215.79797
 215.02611 214.19224 213.27638 212.62652 212.06265 213.24261 216.03043 218.47363
 219.84964 221.46725 223.07404 224.44717 225.55537 226.54185 227.95421 228.02563
 227.81912 229.02313 232.18965 236.70026 241.40739 245.90671 250.15031 254.11189
 257.72772 261.01019 263.93936 266.46777 268.83914 271.00922 272.70428 274.15570
 276.09662 277.86353 279.40302 280.76471 281.95163 283.00922 283.97922 284.86807
 285.68365 286.42349 287.07904 288.00824
 366.78100 356.32192 345.74084 334.59376 322.98367 311.16459 299.02151 286.81143
 274.51035 262.39427 250.39019 239.67810 229.78702 220.87794 213.04686 206.03578
 199.85670 194.78162 191.35053 189.37945 188.40337 188.45429 189.27621 190.57113
 192.28304 194.36496 196.61488 198.96080 201.39272 203.85964 205.93456 207.76347
 209.37639 210.50831 210.72423 210.93915 210.86307 210.55499 210.17490 209.79182
 209.39574 209.09266 208.88758 208.73850 208.65342 208.97133 209.34425 209.72017
 210.50009 211.66501 212.90193 214.67185 216.58676 218.61668 220.69860 222.76852
 224.81544 226.88636 228.97028 231.06319 233.17911 235.33803 237.58095 239.93787
 242.54579 244.78371 246.77262 248.52454 249.92846 251.03838 251.84730 252.15022
 252.17413 251.93505 251.28197 250.21689 248.80981 246.95773 244.85365 242.67356
 240.45148 238.24240 236.04932 233.87524 231.72216 229.57608 227.58899 225.73291
 224.00283 222.46175 221.07867 219.83759 218.70651 217.65342 216.74434 215.87226
 215.10118 214.26810 213.35302 212.70394 212.14085 213.30602 216.05879 218.49478
 219.94606 221.59711 223.20993 224.56796 225.61346 226.56131 227.85928 227.76700
 227.56429 228.91322 232.11958 236.63976 241.35544 245.85886 250.10831 254.06898
 257.68259 260.97076 263.91852 266.47198 268.83813 270.98795 272.70065 274.21237
 276.10651 277.88525 279.43869 280.80603 281.99536 283.05289 284.02243 284.90948
 285.72278 286.46201 287.11386 288.04538
 366.78100 356.32256 345.74212 334.59569 322.98625 311.16781 299.02537 286.81593
 274.51549 262.40006 250.39662 239.68518 229.79474 220.88630 213.05587 206.04543
 199.86699 194.79255 191.36211 189.39168 188.41624 188.46780 189.29036 190.58592
 192.29848 194.38105 196.63161 198.97817 201.41073 203.87829 205.95386 207.78342
 209.39698 210.52954 210.74610 210.96166 210.88623 210.57879 210.19935 209.81691
 209.42147 209.11904 208.91460 208.76616 208.68172 209.00028 209.37385 209.75041
 210.53097 211.69653 212.93409 214.70465 216.62022 218.65078 220.73334 222.80390
 224.85146 226.92303 229.00759 231.10115 233.21771 235.37727 237.62083 239.97840
 242.58696 244.82552 246.81508 248.56764 249.97221 251.08277 251.89233 252.19589
 252.22045 251.98202 251.32958 250.26514 248.85870 247.00726 244.90382 242.72439
 240.50295 238.29451 236.10207 233.92863 231.77620 229.63076 227.64432 225.78888
 224.05944 222.51900 221.13657 219.89613 218.76569 217.71325 216.80481 215.93338
 215.16294 214.33050 213.41606 212.76762 212.20518 213.36069 216.09070 218.50990
 220.02690 221.72104 223.34239 224.67853 225.68576 226.60881 227.77513 227.48965
 227.29355 228.82602 232.06050 236.57332 241.29468 245.80476 250.06372 254.02452
 257.63559 260.92978 263.89380 266.47299 268.82913 270.94449 272.60562 274.19504
 276.11588 277.90448 279.46393 280.83551 282.02820 283.08881 284.05954 284.94736
 285.76114 286.49881 287.15063 288.08081
 366.78100 356.32342 345.74383 334.59825 322.98966 311.17208 299.03049 286.82191
 274.52232 262.40774 250.40515 239.69457 229.80498 220.89740 213.06781 206.05823
 199.88064 194.80706 191.37747 189.40789 188.43331 188.48572 189.30914 190.60555
 192.31897 194.40238 196.65380 199.00121 201.43463 203.90304 205.97946 207.80987
 209.42429 210.55770 210.77512 210.99153 210.91695 210.61037 210.23178 209.85020
 209.45561 209.15403 208.95044 208.80286 208.71927 209.03869 209.41310 209.79052
 210.57193 211.73835 212.97676 214.74818 216.66459 218.69601 220.77942 222.85084
 224.89926 226.97167 229.05709 231.15150 233.26892 235.42933 237.67375 240.03216
 242.64158 244.88099 246.87141 248.62482 250.03024 251.14165 251.95207 252.25648
 252.28190 252.04431 251.39273 250.32915 248.92356 247.07298 244.97039 242.79181
 240.57122 238.36364 236.17205 233.99947 231.84788 229.70330 227.71771 225.86313
 224.13454 222.59496 221.21337 219.97379 218.84421 217.79262 216.88504 216.01445
 215.24487 214.41328 213.49970 212.85211 212.29053 213.42525 216.10611 218.53633
 220.09163 221.85646 223.50049 224.80464 225.72658 226.61729 227.69261 227.31786
 227.07489 228.65115 231.99565 236.53477 241.25121 245.76982 250.03529 253.99162
 257.59546 260.89169 263.87137 266.47760 268.82285 270.90768 272.60574 274.31845
 276.13046 277.91364 279.47937 280.85559 282.05060 283.11328 284.08398 284.97073
 285.78336 286.52118 287.16891 288.10080
 366.78100 356.32446 345.74593 334.60139 322.99385 311.17732 299.03678 286.82924
 274.53070 262.41717 250.41563 239.70609 229.81756 220.91102 213.08248 206.07395
 199.89741 194.82487 191.39634 189.42780 188.45426 188.50772 189.33219 190.62965
 192.34411 194.42858 196.68104 199.02950 201.46397 203.93343 206.01089 207.84236
 209.45782 210.59228 210.81075 211.02821 210.95467 210.64913 210.27160 209.89106
 209.49752 209.19699 208.99445 208.84791 208.76538 209.08584 209.46130 209.83977
 210.62223 211.78969 213.02915 214.80162 216.71908 218.75154 220.83601 222.90847
 224.95793 227.03140 229.11786 231.21332 233.33179 235.49325 237.73871 240.09817
 242.70864 244.94910 246.94056 248.69503 250.10149 251.21395 252.02542 252.33088
 252.35734 252.12081 251.47027 250.40773 249.00320 247.15366 245.05212 242.87458
 240.65505 238.44851 236.25797 234.08644 231.93590 229.79236 227.80783 225.95429
 224.22675 222.68822 221.30768 220.06914 218.94060 217.89007 216.98353 216.11399
 215.34546 214.51492 213.60238 212.95585 212.39531 213.49956 216.10843 218.56612
 220.16394 221.96208 223.63852 224.93141 225.77695 226.61002 227.59369 227.17657
 226.90636 228.50725 231.94093 236.49966 241.20973 245.73387 250.00294 253.95392
 257.55103 260.84836 263.84314 266.47763 268.81573 270.87625 272.58444 274.33765
 276.13373 277.91901 279.48969 280.86807 282.06558 283.12756 284.10016 284.98877
 285.80099 286.53552 287.18475 288.11700
 366.78100 356.32548 345.74797 334.60445 322.99794 311.18242 299.04291 286.83639
 274.53888 262.42636 250.42585 239.71733 229.82982 220.92430 213.09679 206.08927
 199.91376 194.84224 191.41473 189.44721 188.47470 188.52918 189.35467 190.65315
 192.36864 194.45412 196.70761 199.05709 201.49258 203.96306 206.04155 207.87403
 209.49052 210.62600 210.84549 211.06397 210.99146 210.68694 210.31043 209.93091
 209.53840 209.23888 209.03737 208.89185 208.81034 209.13182 209.50831 209.88779
 210.67128 211.83976 213.08025 214.85373 216.77222 218.80570 220.89119 222.96467
 225.01516 227.08964 229.17713 231.27361 233.39310 235.55558 237.80207 240.16255
 242.77404 245.01552 247.00801 248.76349 250.17098 251.28446 252.09695 252.40343
 252.43092 252.19540 251.54589 250.48437 249.08086 247.23234 245.13183 242.95531
 240.73680 238.53128 236.34177 234.17125 232.02174 229.87922 227.89571 226.04319
 224.31668 222.77916 221.39965 220.16213 219.03462 217.98510 217.07959 216.21107
 215.44356 214.61404 213.70253 213.05701 212.49750 213.57317 216.11456 218.58215
 220.26593 222.04375 223.75221 225.06665 225.85780 226.61899 227.48369 227.01115
 226.73357 228.39053 231.89931 236.46587 241.16753 245.69298 249.96533 253.91443
 257.50732 260.80725 263.81744 266.47977 268.80603 270.83365 272.54568 274.33704
 276.13821 277.92438 279.49689 280.87650 282.07449 283.13898 284.10999 284.99899
 285.80927 286.54471 287.19632 288.12607
 366.78100 356.32638 345.74975 334.60713 323.00151 311.18688 299.04826 286.84264
 274.54601 262.43439 250.43477 239.72714 229.84052 220.93590 213.10927 206.10265
 199.92803 194.85740 191.43078 189.46416 188.49253 188.54791 189.37429 190.67366
 192.39004 194.47642 196.73079 199.08117 201.51755 203.98892 206.06830 207.90168
 209.51905 210.65543 210.87581 211.09518 211.02356 210.71994 210.34431 209.96569
 209.57407 209.27544 209.07482 208.93020 208.84957 209.17195 209.54933 209.92970
 210.71408 211.88346 213.12483 214.89921 216.81859 218.85297 220.93934 223.01372
 225.06510 227.14047 229.22885 231.32623 233.44660 235.60998 237.85736 240.21873
 242.83111 245.07349 247.06686 248.82324 250.23162 251.34599 252.15937 252.46675
 252.49512 252.26050 251.61188 250.55125 249.14863 247.30101 245.20138 243.02576
 240.80814 238.60351 236.41489 234.24527 232.09664 229.95502 227.97240 226.12077
 224.39515 222.85853 221.47990 220.24328 219.11666 218.06803 217.16341 216.29579
 215.52916 214.70054 213.78992 213.14529 212.58667 213.63918 216.12585 218.58522
 220.37189 222.13148 223.83850 225.18927 225.96544 226.65990 227.37598 226.84354
 226.57266 228.29346 231.86954 236.43378 241.12277 245.64731 249.92232 253.86916
 257.45676 260.75702 263.78012 266.46832 268.78186 270.77527 272.50778 274.35318
 276.14413 277.92819 279.50156 280.88165 282.08023 283.14450 284.11649 285.00519
 285.81406 286.54614 287.19632 288.12830
 366.78100 356.32709 345.75118 334.60927 323.00435 311.19044 299.05253 286.84762
 274.55171 262.44080 250.44188 239.73497 229.84906 220.94515 213.11924 206.11333
 199.93941 194.86950 191.44359 189.47768 188.50677 188.56286 189.38994 190.69003
 192.40712 194.49421 196.74930 199.10039 201.53747 204.00956 206.08965 207.92374
 209.54183 210.67892 210.90000 211.12009 211.04918 210.74627 210.37136 209.99345
 209.60253 209.30462 209.10471 208.96080 208.88089 209.20398 209.58206 209.96315
 210.74824 211.91833 213.16042 214.93551 216.85560 218.89068 220.97777 223.05286
 225.10495 227.18104 229.27013 231.36821 233.48930 235.65339 237.90148 240.26357
 242.87666 245.11974 247.11383 248.87092 250.28001 251.39510 252.20919 252.51727
 252.54636 252.31245 251.66454 250.60463 249.20272 247.35580 245.25689 243.08198
 240.86507 238.66116 236.47325 234.30433 232.15642 230.01551 228.03360 226.18269
 224.45778 222.92186 221.54395 220.30804 219.18213 218.13422 217.23031 216.36340
 215.59748 214.76957 213.85966 213.21575 212.65784 213.69374 216.14117 218.60121
 220.45451 222.22426 223.90007 225.27277 226.07790 226.72888 227.27954 226.70219
 226.44481 228.20930 231.84464 236.40291 241.07721 245.60072 249.87746 253.82069
 257.39948 260.69647 263.72977 266.44031 268.74265 270.71051 272.46140 274.37366
 276.13614 277.92157 279.49774 280.87946 282.07825 283.14316 284.11484 285.00067
 285.81049 286.54465 287.18936 288.12119
 366.78100 356.32773 345.75247 334.61120 323.00694 311.19367 299.05641 286.85214
 274.55688 262.44661 250.44835 239.74208 229.85682 220.95355 213.12829 206.12302
 199.94976 194.88049 191.45523 189.48996 188.51969 188.57643 189.40416 190.70490
 192.42263 194.51037 196.76610 199.11784 201.55557 204.02831 206.10904 207.94378
 209.56251 210.70025 210.92198 211.14272 211.07245 210.77019 210.39592 210.01865
 209.62839 209.33112 209.13186 208.98859 208.90933 209.23306 209.61180 209.99353
 210.77927 211.95000 213.19274 214.96847 216.88921 218.92494 221.01268 223.08841
 225.14114 227.21788 229.30761 231.40635 233.52808 235.69282 237.94155 240.30429
 242.91802 245.16176 247.15649 248.91423 250.32396 251.43970 252.25443 252.56317
 252.59290 252.35964 251.71237 250.65310 249.25184 247.40557 245.30731 243.13304
 240.91678 238.71351 236.52625 234.35798 232.21072 230.07045 228.08919 226.23892
 224.51466 222.97939 221.60213 220.36686 219.24160 218.19433 217.29106 216.42480
 215.65953 214.83227 213.92300 213.27974 212.72247 213.74277 216.15331 218.63080
 220.52696 222.31642 223.95065 225.31647 226.17299 226.80408 227.19141 226.58167
 226.34097 228.13339 231.82343 236.37830 241.03937 245.56296 249.84184 253.78296
 257.35507 260.64557 263.68536 266.41745 268.71121 270.65280 272.38794 274.29776
 276.14001 277.91888 279.48703 280.86465 282.06134 283.12488 284.09610 284.98288
 285.79147 286.52475 287.17178 288.10031
 366.78100 356.32853 345.75406 334.61359 323.01011 311.19764 299.06117 286.85770
 274.56323 262.45376 250.45629 239.75082 229.86634 220.96387 213.13940 206.13493
 199.96246 194.89399 191.46952 189.50504 188.53557 188.59310 189.42163 190.72316
 192.44169 194.53022 196.78674 199.13927 201.57780 204.05133 206.13286 207.96839
 209.58792 210.72645 210.94897 211.17050 211.10103 210.79956 210.42609 210.04962
 209.66015 209.36367 209.16520 209.02273 208.94426 209.26879 209.64832 210.03085
 210.81738 211.98890 213.23243 215.00896 216.93049 218.96702 221.05555 223.13208
 225.18560 227.26313 229.35366 231.45319 233.57572 235.74125 237.99078 240.35430
 242.96883 245.21336 247.20889 248.96742 250.37795 251.49448 252.31001 252.61953
 252.65006 252.41759 251.77112 250.71265 249.31218 247.46671 245.36923 243.19576
 240.98029 238.77782 236.59135 234.42388 232.27741 230.13793 228.15746 226.30799
 224.58452 223.05005 221.67358 220.43911 219.31464 218.26816 217.36569 216.50022
 215.73575 214.90928 214.00081 213.35834 212.80186 213.79979 216.15747 218.65526
 220.61566 222.41725 224.00665 225.34366 226.25111 226.87569 227.11833 226.47400
 226.24214 228.05595 231.79918 236.35632 241.00626 245.52899 249.80927 253.74716
 257.31140 260.59393 263.63583 266.38504 268.67239 270.58698 272.18262 274.21970
 276.14487 277.91989 279.47833 280.84973 282.04208 283.10382 284.07358 284.96008
 285.76785 286.50137 287.15103 288.07574
 366.78100 356.32942 345.75585 334.61627 323.01370 311.20212 299.06654 286.86397
 274.57039 262.46181 250.46524 239.76066 229.87709 220.97551 213.15193 206.14836
 199.97678 194.90921 191.48563 189.52205 188.55348 188.61190 189.44133 190.74375
 192.46317 194.55260 196.81002 199.16344 201.60287 204.07729 206.15972 207.99614
 209.61656 210.75599 210.97941 211.20184 211.13326 210.83268 210.46011 210.08453
 209.69596 209.40038 209.20280 209.06123 208.98365 209.30907 209.68950 210.07292
 210.86035 212.03277 213.27719 215.05462 216.97704 219.01447 221.10389 223.18131
 225.23574 227.31416 229.40559 231.50601 233.62943 235.79586 238.04628 240.41070
 243.02613 245.27155 247.26798 249.02740 250.43882 251.55625 252.37267 252.68310
 252.71452 252.48294 251.83737 250.77979 249.38021 247.53564 245.43906 243.26649
 241.05191 238.85033 236.66476 234.49818 232.35261 230.21403 228.23445 226.38588
 224.66330 223.12973 221.75415 220.52057 219.39700 218.35142 217.44984 216.58527
 215.82169 214.99612 214.08854 213.44696 212.89139 213.86324 216.15935 218.66499
 220.71036 222.51796 224.06496 225.36903 226.32190 226.94476 227.06467 226.36427
 226.12746 227.97165 231.77107 236.33578 240.97658 245.49496 249.77437 253.71025
 257.26886 260.54517 263.58896 266.35736 268.64539 270.53656 272.06583 274.14645
 276.14261 277.91373 279.46539 280.83218 282.02094 283.07858 284.04672 284.93250
 285.73987 286.47433 287.12323 288.04709
 366.78100 356.33022 345.75743 334.61865 323.01686 311.20608 299.07129 286.86951
 274.57672 262.46894 250.47316 239.76937 229.88659 220.98580 213.16302 206.16023
 199.98945 194.92266 191.49988 189.53709 188.56931 188.62853 189.45874 190.76196
 192.48217 194.57239 196.83060 199.18482 201.62503 204.10025 206.18347 208.02068
 209.64190 210.78211 211.00633 211.22954 211.16176 210.86197 210.49019 210.11540
 209.72762 209.43284 209.23605 209.09527 209.01848 209.34470 209.72591 210.11013
 210.89834 212.07156 213.31678 215.09499 217.01821 219.05642 221.14664 223.22485
 225.28007 227.35928 229.45150 231.55271 233.67693 235.84415 238.09536 240.46058
 243.07679 245.32301 247.32022 249.08044 250.49265 251.61087 252.42809 252.73930
 252.77152 252.54073 251.89595 250.83916 249.44038 247.59659 245.50081 243.32902
 241.11524 238.91446 236.72967 234.56389 232.41910 230.28132 228.30253 226.45475
 224.73296 223.20018 221.82540 220.59261 219.46983 218.42504 217.52426 216.66047
 215.89769 215.07290 214.16612 213.52534 212.97055 213.91960 216.16182 218.66875
 220.80000 222.60596 224.11462 225.39452 226.38982 227.02072 227.04753 226.27885
 226.02072 227.89339 231.74242 236.31534 240.94659 245.45651 249.72882 253.65823
 257.20663 260.47375 263.51883 266.30624 268.60056 270.47177 272.00546 274.09784
 276.11356 277.87399 279.42068 280.78629 281.97455 283.03271 284.00098 284.88580
 285.69516 286.43069 287.08115 288.00662
 366.78100 356.33094 345.75888 334.62081 323.01975 311.20969 299.07563 286.87457
 274.58251 262.47544 250.48038 239.77732 229.89526 220.99520 213.17313 206.17107
 200.00101 194.93495 191.51289 189.55083 188.58376 188.64370 189.47464 190.77858
 192.49952 194.59045 196.84939 199.20433 201.64527 204.12121 206.20514 208.04308
 209.66502 210.80596 211.03090 211.25484 211.18777 210.88871 210.51765 210.14359
 209.75653 209.46246 209.26640 209.12634 209.05028 209.37722 209.75916 210.14409
 210.93303 212.10697 213.35291 215.13185 217.05578 219.09472 221.18566 223.26460
 225.32054 227.40048 229.49341 231.59535 233.72029 235.88823 238.14017 240.50610
 243.12304 245.36998 247.36792 249.12886 250.54179 251.66073 252.47867 252.79061
 252.82355 252.59349 251.94942 250.89336 249.49530 247.65224 245.55718 243.38611
 241.17305 238.97299 236.78893 234.62387 232.47981 230.34274 228.36468 226.51762
 224.79656 223.26450 221.89043 220.65837 219.53631 218.49225 217.59219 216.72913
 215.96706 215.14300 214.23694 213.59688 213.04282 213.97107 216.16420 218.68260
 220.88112 222.67941 224.14731 225.40482 226.44435 227.09940 227.06134 226.22110
 225.93152 227.82747 231.71854 236.29919 240.91960 245.41628 249.67683 253.59427
 257.12924 260.38348 263.42688 266.23090 268.53494 270.40405 271.93307 274.08713
 276.04263 277.79944 279.34943 280.71628 281.90652 282.96506 283.93475 284.82132
 285.63162 286.36850 287.01990 287.94055
 366.78100 356.33158 345.76016 334.62275 323.02233 311.21291 299.07949 286.87907
 274.58765 262.48124 250.48682 239.78440 229.90298 221.00356 213.18214 206.18073
 200.01131 194.94589 191.52447 189.56305 188.59664 188.65722 189.48880 190.79338
 192.51496 194.60654 196.86613 199.22171 201.66329 204.13987 206.22445 208.06304
 209.68562 210.82720 211.05278 211.27736 211.21094 210.91253 210.54211 210.16869
 209.78227 209.48885 209.29343 209.15402 209.07860 209.40618 209.78876 210.17434
 210.96393 212.13851 213.38509 215.16467 217.08925 219.12883 221.22042 223.30000
 225.35658 227.43716 229.53074 231.63332 233.75891 235.92749 238.18007 240.54665
 243.16423 245.41182 247.41040 249.17198 250.58556 251.70514 252.52372 252.83631
 252.86989 252.64047 251.99705 250.94163 249.54422 247.70180 245.60738 243.43696
 241.22454 239.02512 236.84171 234.67729 232.53387 230.39745 228.42003 226.57361
 224.85320 223.32178 221.94836 220.71694 219.59552 218.55211 217.65269 216.79027
 216.02885 215.20543 214.30001 213.66060 213.10718 214.01854 216.17172 218.70319
 220.96655 222.74091 224.17015 225.40788 226.48314 227.17389 227.08980 226.17003
 225.84363 227.76740 231.69756 236.28732 240.89786 245.37888 249.62547 253.53075
 257.05188 260.29199 263.33179 266.15195 268.46536 270.33224 272.02460 274.03613
 276.00192 277.73163 279.27588 280.64203 281.83200 282.89120 283.86017 284.74600
 285.55759 286.29630 286.94678 287.86603
 366.78100 356.33215 345.76131 334.62446 323.02462 311.21577 299.08292 286.88308
 274.59223 262.48639 250.49254 239.79069 229.90985 221.01100 213.19016 206.18931
 200.02046 194.95562 191.53477 189.57393 188.60808 188.66923 189.50139 190.80654
 192.52870 194.62085 196.88100 199.23716 201.67931 204.15647 206.24162 208.08077
 209.70393 210.84608 211.07224 211.29739 211.23154 210.93370 210.56385 210.19101
 209.80516 209.51231 209.31747 209.17862 209.10378 209.43193 209.81508 210.20124
 210.99139 212.16655 213.41370 215.19385 217.11901 219.15916 221.25132 223.33147
 225.38862 227.46978 229.56393 231.66708 233.79324 235.96239 238.21555 240.58270
 243.20085 245.44901 247.44816 249.21032 250.62447 251.74462 252.56378 252.87693
 252.91109 252.68224 252.03939 250.98455 249.58770 247.74586 245.65201 243.48216
 241.27032 239.07147 236.88863 234.72478 232.58193 230.44609 228.46924 226.62340
 224.90355 223.37270 221.99986 220.76901 219.64817 218.60532 217.70647 216.84463
 216.08378 215.26094 214.35609 213.71724 213.16440 214.06006 216.17616 218.72951
 221.04721 222.80391 224.17508 225.39470 226.51640 227.24948 227.12766 226.14224
 225.78108 227.72102 231.68137 236.28215 240.88219 245.34424 249.57391 253.46489
 256.96841 260.18945 263.22302 266.05698 268.37930 270.23993 271.98099 273.97092
 275.90598 277.64642 279.19363 280.56192 281.75247 282.81039 283.78061 284.66867
 285.47986 286.21860 286.86880 287.78845
 366.78100 356.33292 345.76284 334.62677 323.02769 311.21961 299.08753 286.88845
 274.59837 262.49330 250.50022 239.79914 229.91906 221.02098 213.20091 206.20083
 200.03275 194.96867 191.54859 189.58851 188.62344 188.68536 189.51828 190.82420
 192.54712 194.64005 196.90097 199.25789 201.70081 204.17873 206.26465 208.10458
 209.72850 210.87142 211.09834 211.32426 211.25918 210.96211 210.59303 210.22095
 209.83587 209.54379 209.34972 209.21164 209.13756 209.46648 209.85040 210.23732
 211.02825 212.20417 213.45209 215.23301 217.15893 219.19986 221.29278 223.37370
 225.43162 227.51354 229.60846 231.71239 233.83931 236.00923 238.26315 240.63107
 243.25000 245.49892 247.49884 249.26176 250.67668 251.79760 252.61753 252.93145
 252.96637 252.73829 252.09621 251.04214 249.64606 247.80498 245.71190 243.54282
 241.33174 239.13367 236.95159 234.78851 232.64643 230.51135 228.53528 226.69020
 224.97112 223.44104 222.06896 220.83888 219.71881 218.67673 217.77865 216.91757
 216.15749 215.33542 214.43134 213.79326 213.24118 214.10980 216.16203 218.77434
 221.13379 222.84042 224.18375 225.37769 226.52072 227.31570 227.17676 226.12119
 225.72289 227.68025 231.66820 236.28238 240.87262 245.31479 249.52814 253.40718
 256.89539 260.09555 263.11835 265.96634 268.30441 270.18182 271.88809 273.87976
 275.78201 277.54358 279.09625 280.46548 281.65756 282.71780 283.68945 284.57526
 285.38818 286.12671 286.77731 287.69336
 366.78100 356.33351 345.76402 334.62854 323.03005 311.22256 299.09107 286.89259
 274.60310 262.49861 250.50612 239.80564 229.92615 221.02866 213.20917 206.20968
 200.04220 194.97871 191.55922 189.59973 188.63525 188.69776 189.53127 190.83778
 192.56130 194.65481 196.91632 199.27383 201.71734 204.19586 206.28237 208.12288
 209.74739 210.89091 211.11842 211.34493 211.28044 210.98396 210.61547 210.24398
 209.85949 209.56801 209.37452 209.23703 209.16354 209.49305 209.87757 210.26508
 211.05659 212.23310 213.48162 215.26313 217.18964 219.23115 221.32467 223.40618
 225.46469 227.54720 229.64271 231.74723 233.87474 236.04525 238.29976 240.66828
 243.28779 245.53730 247.53781 249.30133 250.71684 251.83835 252.65886 252.97337
 253.00889 252.78140 252.13991 251.08642 249.69094 247.85045 245.75796 243.58947
 241.37899 239.18150 237.00001 234.83752 232.69603 230.56155 228.58606 226.74157
 225.02308 223.49360 222.12211 220.89262 219.77313 218.73165 217.83416 216.97367
 216.21418 215.39269 214.48921 213.85172 213.30023 214.15076 216.16019 218.80089
 221.25174 222.88690 224.12866 225.35002 226.56038 227.38840 227.21298 226.09979
 225.67366 227.64828 231.65796 236.28732 240.86969 245.29021 249.48621 253.35242
 256.82333 260.00107 263.01068 265.87070 268.22180 270.10736 271.86905 273.79950
 275.67258 277.43567 278.98981 280.36090 281.55228 282.61392 283.58392 284.47144
 285.28180 286.02167 286.67181 287.58475
 366.78100 356.33387 345.76474 334.62961 323.03149 311.22436 299.09323 286.89510
 274.60597 262.50184 250.50972 239.80959 229.93046 221.03333 213.21420 206.21507
 200.04794 194.98482 191.56569 189.60656 188.64243 188.70530 189.53917 190.84604
 192.56992 194.66379 196.92566 199.28353 201.72740 204.20627 206.29315 208.13402
 209.75889 210.90276 211.13063 211.35750 211.29337 210.99725 210.62912 210.25799
 209.87386 209.58273 209.38960 209.25247 209.17935 209.50922 209.89409 210.28196
 211.07383 212.25070 213.49958 215.28145 217.20832 219.25019 221.34406 223.42593
 225.48480 227.56768 229.66355 231.76842 233.89629 236.06716 238.32203 240.69091
 243.31078 245.56065 247.56152 249.32539 250.74126 251.86313 252.68401 252.99888
 253.03475 252.80762 252.16649 251.11336 249.71823 247.87811 245.78598 243.61785
 241.40772 239.21059 237.02946 234.86734 232.72621 230.59208 228.61695 226.77282
 225.05469 223.52556 222.15444 220.92531 219.80618 218.76505 217.86792 217.00779
 216.24867 215.42754 214.52441 213.88728 213.33615 214.17923 216.17110 218.81648
 221.35698 222.96437 224.09576 225.31653 226.56979 227.41315 227.22038 226.10213
 225.66708 227.63559 231.65298 236.29814 240.87305 245.26947 249.44594 253.29805
 256.75198 259.90585 262.90210 265.77399 268.13800 270.02701 271.83432 273.69537
 275.57385 277.33334 278.88492 280.25470 281.44601 282.50821 283.47757 284.36728
 285.17737 285.91824 286.57022 287.47690
 366.78100 356.33430 345.76561 334.63091 323.03322 311.22652 299.09582 286.89813
 274.60943 262.50574 250.51404 239.81434 229.93565 221.03895 213.22026 206.22156
 200.05486 194.99217 191.57347 189.61477 188.65108 188.71438 189.54869 190.85599
 192.58029 194.67460 196.93690 199.29521 201.73951 204.21881 206.30612 208.14742
 209.77273 210.91703 211.14533 211.37264 211.30894 211.01325 210.64555 210.27485
 209.89116 209.60046 209.40777 209.27107 209.19837 209.52868 209.91398 210.30229
 211.09459 212.27189 213.52120 215.30350 217.23081 219.27311 221.36741 223.44972
 225.50902 227.59232 229.68863 231.79393 233.92224 236.09354 238.34884 240.71815
 243.33845 245.58876 247.59006 249.35436 250.77067 251.89297 252.71428 253.02958
 253.06588 252.83919 252.19849 251.14580 249.75110 247.91140 245.81971 243.65201
 241.44232 239.24562 237.06492 234.90323 232.76253 230.62884 228.65414 226.81044
 225.09275 223.56405 222.19336 220.96466 219.84596 218.80527 217.90857 217.04887
 216.29018 215.46948 214.56679 213.93009 213.37939 214.21027 216.17328 218.84964
 221.44159 223.03528 224.09444 225.28651 226.54205 227.39684 227.21857 226.13487
 225.69893 227.63647 231.65117 236.31248 240.88016 245.25143 249.40855 253.24959
 256.68729 259.81699 262.79761 265.67892 268.05524 269.95905 271.71973 273.66559
 275.48636 277.23279 278.78308 280.15048 281.34290 282.40189 283.37231 284.25900
 285.07092 285.81088 286.46353 287.36481
 366.78100 356.33482 345.76664 334.63246 323.03528 311.22910 299.09892 286.90174
 274.61356 262.51038 250.51920 239.82002 229.94184 221.04566 213.22748 206.22930
 200.06312 195.00094 191.58276 189.62458 188.66140 188.72522 189.56004 190.86786
 192.59268 194.68750 196.95032 199.30914 201.75396 204.23378 206.32160 208.16342
 209.78924 210.93406 211.16289 211.39071 211.32753 211.03235 210.66517 210.29499
 209.91181 209.62163 209.42945 209.29327 209.22109 209.55191 209.93773 210.32655
 211.11937 212.29719 213.54701 215.32983 217.25765 219.30047 221.39529 223.47811
 225.53793 227.62175 229.71857 231.82439 233.95321 236.12503 238.38085 240.75067
 243.37149 245.62231 247.62413 249.38895 250.80577 251.92859 252.75041 253.06623
 253.10305 252.87687 252.23669 251.18451 249.79033 247.95115 245.85997 243.69279
 241.48361 239.28743 237.10725 234.94607 232.80589 230.67271 228.69853 226.85535
 225.13817 223.60999 222.23981 221.01163 219.89345 218.85327 217.95709 217.09791
 216.33973 215.51955 214.61737 213.98119 213.43102 214.24466 216.16698 218.89256
 221.52350 223.09494 224.10072 225.25182 226.49260 227.36224 227.21698 226.18097
 225.74599 227.64206 231.64957 236.32819 240.88998 245.23796 249.37807 253.21046
 256.63370 259.73862 262.69965 265.58740 267.98508 269.92261 271.60251 273.58762
 275.39661 277.13193 278.67642 280.04276 281.23077 282.29022 283.26001 284.14569
 284.95441 285.69510 286.34348 287.24127
 366.78100 356.33536 345.76772 334.63409 323.03745 311.23181 299.10217 286.90554
 274.61790 262.51526 250.52462 239.82599 229.94835 221.05271 213.23507 206.23743
 200.07180 195.01016 191.59252 189.63488 188.67225 188.73661 189.57197 190.88033
 192.60570 194.70106 196.96442 199.32378 201.76914 204.24951 206.33787 208.18023
 209.80659 210.95196 211.18132 211.40968 211.34704 211.05240 210.68577 210.31613
 209.93349 209.64385 209.45222 209.31658 209.24494 209.57630 209.96267 210.35203
 211.14539 212.32375 213.57411 215.35748 217.28584 219.32920 221.42456 223.50793
 225.56829 227.65265 229.75001 231.85638 233.98574 236.15810 238.41446 240.78482
 243.40619 245.65755 247.65991 249.42527 250.84264 251.96600 252.78836 253.10472
 253.14209 252.91645 252.27681 251.22517 249.83153 247.99290 245.90226 243.73562
 241.52698 239.33135 237.15171 234.99107 232.85143 230.71880 228.74516 226.90252
 225.18588 223.65824 222.28861 221.06097 219.94333 218.90369 218.00806 217.14942
 216.39178 215.57214 214.67050 214.03487 213.48523 214.28056 216.15959 218.92949
 221.61385 223.15982 224.10654 225.20886 226.43369 227.31805 227.20688 226.22023
 225.79280 227.65175 231.64919 236.34503 240.90480 245.23283 249.35823 253.18439
 256.59344 259.67038 262.60886 265.50290 267.91989 269.88760 271.61398 273.49246
 275.32150 277.02356 278.55411 279.91739 281.10596 282.16241 283.13068 284.01730
 284.82318 285.56033 286.21439 287.09659
 366.78100 356.33589 345.76879 334.63568 323.03957 311.23447 299.10536 286.90925
 274.62215 262.52004 250.52993 239.83182 229.95472 221.05961 213.24250 206.24540
 200.08029 195.01918 191.60208 189.64497 188.68286 188.74776 189.58365 190.89254
 192.61844 194.71433 196.97822 199.33812 201.78401 204.26490 206.35379 208.19669
 209.82358 210.96947 211.19937 211.42826 211.36615 211.07205 210.70594 210.33683
 209.95473 209.66562 209.47451 209.33941 209.26830 209.60019 209.98708 210.37698
 211.17087 212.34976 213.60066 215.38455 217.31344 219.35734 221.45323 223.53712
 225.59802 227.68291 229.78080 231.88770 234.01759 236.19048 238.44738 240.81827
 243.44016 245.69205 247.69495 249.46084 250.87873 252.00263 252.82552 253.14241
 253.18031 252.95520 252.31609 251.26499 249.87188 248.03377 245.94367 243.77756
 241.56945 239.37435 237.19524 235.03513 232.89602 230.76392 228.79081 226.94870
 225.23260 223.70549 222.33638 221.10928 219.99217 218.95306 218.05796 217.19985
 216.44274 215.62364 214.72253 214.08742 213.53831 214.31654 216.15520 218.95438
 221.70461 223.23523 224.12012 225.16505 226.37160 227.25975 227.17873 226.25125
 225.84137 227.66400 231.64864 236.36275 240.92560 245.23709 249.34982 253.17169
 256.57040 259.62167 262.53568 265.43277 267.86102 269.83868 271.62018 273.38870
 275.23520 276.90933 278.43024 279.79236 280.97879 282.03513 283.00287 283.88675
 284.69321 285.42819 286.07773 286.95813
 366.78100 356.33636 345.76971 334.63707 323.04143 311.23679 299.10814 286.91250
 274.62586 262.52422 250.53457 239.83693 229.96029 221.06565 213.24900 206.25236
 200.08772 195.02707 191.61043 189.65379 188.69215 188.75750 189.59386 190.90322
 192.62958 194.72593 196.99029 199.35065 201.79700 204.27836 206.36772 208.21108
 209.83843 210.98479 211.21515 211.44451 211.38286 211.08922 210.72358 210.35494
 209.97329 209.68465 209.49401 209.35936 209.28872 209.62108 210.00844 210.39879
 211.19315 212.37251 213.62387 215.40822 217.33758 219.38194 221.47830 223.56265
 225.62401 227.70937 229.80772 231.91508 234.04544 236.21880 238.47615 240.84751
 243.46987 245.72223 247.72558 249.49194 250.91030 252.03466 252.85801 253.17537
 253.21373 252.98908 252.35044 251.29980 249.90716 248.06951 245.97987 243.81423
 241.60659 239.41194 237.23330 235.07366 232.93501 230.80337 228.83073 226.98909
 225.27344 223.74680 222.37816 221.15152 220.03487 218.99623 218.10159 217.24395
 216.48730 215.66866 214.76802 214.13337 213.58473 214.34904 216.15482 218.97452
 221.78743 223.31340 224.14227 225.13017 226.31299 227.19078 227.12872 226.25864
 225.88144 227.68478 231.65242 236.38126 240.95146 245.25082 249.35219 253.17157
 256.56232 259.59259 262.48239 265.38458 267.82764 269.80942 271.59409 273.26770
 275.13287 276.78958 278.30069 279.65942 280.84421 281.89874 282.86374 283.74680
 284.54926 285.28302 285.92856 286.80240
 366.78100 356.33694 345.77088 334.63882 323.04376 311.23970 299.11164 286.91658
 274.63052 262.52946 250.54040 239.84334 229.96728 221.07322 213.25716 206.26110
 200.09704 195.03698 191.62092 189.66486 188.70380 188.76974 189.60668 190.91662
 192.64356 194.74050 197.00544 199.36638 201.81332 204.29526 206.38520 208.22914
 209.85708 211.00402 211.23496 211.46490 211.40384 211.11078 210.74572 210.37766
 209.99660 209.70854 209.51848 209.38442 209.31436 209.64730 210.03524 210.42618
 211.22112 212.40106 213.65300 215.43794 217.36788 219.41282 221.50976 223.59470
 225.65664 227.74258 229.84152 231.94946 234.08040 236.25434 238.51228 240.88422
 243.50716 245.76010 247.76404 249.53098 250.94992 252.07486 252.89880 253.21674
 253.25568 253.03162 252.39356 251.34350 249.95144 248.11438 246.02532 243.86026
 241.65320 239.45914 237.28108 235.12202 232.98396 230.85290 228.88084 227.03978
 225.32472 223.79866 222.43060 221.20454 220.08848 219.05042 218.15637 217.29931
 216.54325 215.72519 214.82513 214.19107 213.64301 214.38867 216.15038 218.98988
 221.87199 223.39941 224.16914 225.08977 226.24144 227.10422 227.06693 226.27214
 225.92633 227.69923 231.65424 236.40086 240.98174 245.27232 249.36440 253.18333
 256.57040 259.57828 262.43808 265.33371 267.78580 269.76614 271.55020 273.28732
 275.04291 276.67834 278.18710 279.54510 280.72906 281.78281 282.74854 283.62973
 284.43579 285.17212 285.82263 286.69070
 366.78100 356.33777 345.77253 334.64130 323.04707 311.24383 299.11660 286.92237
 274.63713 262.53690 250.54867 239.85243 229.97720 221.08397 213.26873 206.27350
 200.11027 195.05104 191.63580 189.68057 188.72034 188.78710 189.62487 190.93564
 192.66340 194.76117 197.02694 199.38870 201.83647 204.31924 206.41000 208.25477
 209.88354 211.03130 211.26307 211.49384 211.43360 211.14137 210.77714 210.40990
 210.02967 209.74244 209.55320 209.41997 209.35074 209.68450 210.07327 210.46504
 211.26081 212.44157 213.69434 215.48011 217.41087 219.45664 221.55441 223.64017
 225.70294 227.78971 229.88947 231.99824 234.13001 236.30477 238.56354 240.93631
 243.56007 245.81384 247.81861 249.58637 251.00614 252.13191 252.95667 253.27544
 253.31521 253.09197 252.45474 251.40551 250.01427 248.17804 246.08981 243.92558
 241.71934 239.52611 237.34888 235.19064 233.05341 230.92318 228.95194 227.11171
 225.39748 223.87224 222.50501 221.27978 220.16454 219.12731 218.23408 217.37784
 216.62261 215.80538 214.90614 214.27291 213.72568 214.44438 216.14236 218.98184
 221.95935 223.50664 224.22160 225.07324 226.15800 226.97063 226.96063 226.24071
 225.97260 227.76265 231.68059 236.42554 241.01933 245.30786 249.39290 253.20682
 256.58429 259.57413 262.41858 265.30731 267.74100 269.71356 271.50354 273.25073
 274.97144 276.58838 278.08051 279.42987 280.60931 281.65802 282.61691 283.49677
 284.30969 285.06198 285.70520 286.55453
 366.78100 356.33797 345.77294 334.64191 323.04788 311.24485 299.11782 286.92379
 274.63876 262.53872 250.55069 239.85466 229.97963 221.08660 213.27157 206.27654
 200.11351 195.05448 191.63945 189.68442 188.72439 188.79136 189.62933 190.94030
 192.66827 194.76624 197.03220 199.39417 201.84214 204.32511 206.41608 208.26105
 209.89002 211.03799 211.26996 211.50093 211.44090 211.14887 210.78484 210.41781
 210.03778 209.75075 209.56172 209.42868 209.35965 209.69362 210.08259 210.47456
 211.27053 212.45150 213.70447 215.49044 217.42141 219.46738 221.56535 223.65132
 225.71429 227.80126 229.90123 232.01020 234.14216 236.31713 238.57610 240.94907
 243.57304 245.82701 247.83198 249.59995 251.01992 252.14589 252.97086 253.28983
 253.32980 253.10677 252.46974 251.42071 250.02968 248.19364 246.10561 243.94158
 241.73555 239.54252 237.36549 235.20746 233.07043 230.94040 228.96937 227.12934
 225.41531 223.89028 222.52325 221.29822 220.18319 219.14616 218.25312 217.39709
 216.64206 215.82503 214.92600 214.29297 213.74594 214.47038 216.18196 218.93198
 222.00404 223.61455 224.26659 225.05391 226.11423 226.88876 226.83061 226.20050
 225.94934 227.72522 231.68108 236.47055 241.10526 245.40117 249.47829 253.31187
 256.71909 259.67792 262.40500 265.24924 267.72272 269.65292 271.36029 273.09189
 274.76620 276.46362 278.00424 279.37350 280.56882 281.63379 282.61630 283.51880
 284.33310 285.05490 285.70325 286.55389
 366.78100 356.33813 345.77327 334.64240 323.04853 311.24567 299.11880 286.92493
 274.64007 262.54020 250.55233 239.85647 229.98160 221.08873 213.27387 206.27900
 200.11614 195.05727 191.64240 189.68754 188.72767 188.79480 189.63294 190.94407
 192.67220 194.77034 197.03647 199.39860 201.84674 204.32987 206.42100 208.26614
 209.89527 211.04340 211.27554 211.50667 211.44680 211.15494 210.79107 210.42420
 210.04434 209.75747 209.56860 209.43574 209.36687 209.70100 210.09014 210.48227
 211.27841 212.45954 213.71267 215.49881 217.42994 219.47607 221.57421 223.66034
 225.72347 227.81061 229.91074 232.01987 234.15201 236.32714 238.58627 240.95941
 243.58354 245.83767 247.84281 249.61094 251.03107 252.15721 252.98234 253.30147
 253.34161 253.11874 252.48187 251.43301 250.04214 248.20628 246.11841 243.95454
 241.74868 239.55581 237.37894 235.22108 233.08421 230.95434 228.98348 227.14361
 225.42974 223.90488 222.53801 221.31314 220.19828 219.16141 218.26854 217.41268
 216.65781 215.84094 214.94208 214.30921 213.76234 214.49821 216.30176 218.94118
 221.74034 223.22363 224.15492 225.16306 226.37479 227.13606 226.69797 226.27753
 225.48161 227.52295 231.58324 236.42317 241.09660 245.48436 249.60339 253.43800
 256.86981 259.86301 262.63019 265.31650 267.63763 269.55099 271.26276 273.09097
 274.74741 276.32565 277.59302 278.85336 280.02924 281.09094 282.11545 283.05948
 283.90857 284.66467 285.32516 286.16693
 366.78100 356.33569 345.76839 334.63508 323.03877 311.23347 299.10416 286.90785
 274.62055 262.51824 250.52793 239.82963 229.95232 221.05701 213.23971 206.24240
 200.07709 195.01579 191.59848 189.64117 188.67887 188.74356 189.57925 190.88794
 192.61364 194.70933 196.97302 199.33272 201.77841 204.25910 206.34780 208.19049
 209.81718 210.96288 211.19257 211.42126 211.35896 211.06465 210.69834 210.32904
 209.94673 209.65742 209.46612 209.33081 209.25950 209.59120 209.97789 210.36758
 211.16128 212.33997 213.59066 215.37436 217.30305 219.34674 221.44244 223.52613
 225.58682 227.67152 229.76921 231.87590 234.00560 236.17829 238.43498 240.80568
 243.42737 245.67906 247.68176 249.44745 250.86514 251.98883 252.81153 253.12822
 253.16591 252.94061 252.30130 251.24999 249.85669 248.01838 245.92807 243.76177
 241.55346 239.35815 237.17885 235.01854 232.87923 230.74693 228.77362 226.93131
 225.21501 223.68770 222.31839 221.09109 219.97378 218.93447 218.03917 217.18086
 216.42355 215.60425 214.70294 214.06763 213.51833 214.39349 216.53284 218.92345
 221.58954 223.40878 224.42313 225.35985 226.45209 227.15305 226.80272 226.18080
 225.56433 227.50003 231.55646 236.41237 241.12120 245.48154 249.61646 253.49265
 256.96265 259.95325 262.75903 265.49866 267.89282 269.73651 271.33197 273.04785
 274.74545 276.06674 277.38821 278.77161 280.12378 281.38361 282.53302 283.57431
 284.51083 285.34479 286.07333 287.00177
 366.78100 356.33554 345.76808 334.63462 323.03816 311.23270 299.10323 286.90677
 274.61931 262.51685 250.52639 239.82793 229.95047 221.05501 213.23755 206.24009
 200.07463 195.01317 191.59570 189.63824 188.67578 188.74032 189.57586 190.88440
 192.60994 194.70548 196.96902 199.32856 201.77410 204.25464 206.34317 208.18571
 209.81225 210.95779 211.18733 211.41587 211.35341 211.05895 210.69249 210.32303
 209.94057 209.65110 209.45964 209.32418 209.25272 209.58426 209.97080 210.36034
 211.15388 212.33242 213.58296 215.36650 217.29504 219.33857 221.43411 223.51765
 225.57819 227.66273 229.76027 231.86681 233.99635 236.16889 238.42543 240.79597
 243.41751 245.66904 247.67158 249.43712 250.85466 251.97820 252.80074 253.11728
 253.15482 252.92936 252.28990 251.23844 249.84497 248.00651 245.91605 243.74959
 241.54113 239.34567 237.16621 235.00575 232.86629 230.73383 228.76037 226.91791
 225.20144 223.67398 222.30452 221.07706 219.95960 218.92014 218.02468 217.16622
 216.40876 215.58930 214.68784 214.05238 213.50291 214.37335 216.46877 219.10231
 221.50571 223.30096 224.35667 225.25533 226.29710 227.04816 227.04292 226.03638
 225.55232 227.33421 231.44432 236.29741 241.02631 245.38531 249.49399 253.32771
 256.75916 259.83752 262.72491 265.47672 267.90067 269.89679 271.58572 273.25296
 274.90039 276.37790 277.62949 278.83157 279.98618 281.06497 282.09235 283.05215
 283.91565 284.68460 285.35635 286.21240
 366.78100 356.33863 345.77426 334.64388 323.05051 311.24814 299.12177 286.92839
 274.64402 262.54465 250.55728 239.86191 229.98753 221.09516 213.28079 206.28642
 200.12405 195.06567 191.65130 189.69693 188.73756 188.80518 189.64381 190.95544
 192.68407 194.78270 197.04932 199.41195 201.86058 204.34421 206.43583 208.28146
 209.91109 211.05972 211.29235 211.52397 211.46460 211.17323 210.80986 210.44349
 210.06411 209.77774 209.58937 209.45700 209.38862 209.72325 210.11288 210.50551
 211.30214 212.48376 213.73739 215.52402 217.45565 219.50227 221.60090 223.68753
 225.75116 227.83879 229.93941 232.04904 234.18167 236.35730 238.61693 240.99055
 243.61518 245.86981 247.87544 249.64406 251.06469 252.19132 253.01695 253.33658
 253.37720 253.15483 252.51846 251.47009 250.07971 248.24434 246.15697 243.99360
 241.78823 239.59585 237.41948 235.26211 233.12574 230.99637 229.02599 227.18662
 225.47325 223.94888 222.58250 221.35813 220.24376 219.20739 218.31502 217.45964
 216.70527 215.88890 214.99053 214.35816 213.81178 214.54103 216.26987 219.15746
 221.84456 223.52510 224.44226 225.17056 225.98552 226.66144 226.97685 226.16476
 225.84088 227.59915 231.52554 236.31087 241.06883 245.40456 249.54326 253.34842
 256.71994 259.68671 262.50272 265.24994 267.65201 269.60950 271.36740 273.07019
 274.68903 276.16830 277.45728 278.64084 279.79919 280.84329 281.77945 282.63052
 283.42621 284.15741 284.79620 285.61026
 366.78100 356.33829 345.77358 334.64287 323.04916 311.24645 299.11974 286.92603
 274.64132 262.54160 250.55389 239.85818 229.98347 221.09076 213.27605 206.28134
 200.11863 195.05992 191.64521 189.69050 188.73079 188.79808 189.63637 190.94766
 192.67595 194.77423 197.04052 199.40281 201.85110 204.33439 206.42568 208.27097
 209.90026 211.04855 211.28084 211.51213 211.45242 211.16071 210.79700 210.43029
 210.05058 209.76386 209.57515 209.44244 209.37373 209.70802 210.09731 210.48960
 211.28589 212.46718 213.72047 215.50676 217.43805 219.48434 221.58263 223.66892
 225.73221 227.81950 229.91978 232.02907 234.16136 236.33665 238.59594 240.96923
 243.59352 245.84781 247.85310 249.62139 251.04168 252.16797 252.99326 253.31255
 253.35284 253.13013 252.49341 251.44470 250.05399 248.21828 246.13057 243.96686
 241.76115 239.56844 237.39173 235.23402 233.09731 230.96760 228.99689 227.15718
 225.44347 223.91876 222.55204 221.32733 220.21262 219.17591 218.28320 217.42749
 216.67278 215.85607 214.95736 214.32465 213.77794 214.54497 216.40930 219.04828
 221.80168 223.42152 224.33708 224.99782 225.85091 226.78191 227.00832 226.36638
 225.64572 227.49286 231.52350 236.31851 241.04590 245.41028 249.56854 253.38887
 256.76416 259.75104 262.56064 265.23486 267.54507 269.47269 271.19977 272.95007
 274.59674 276.05969 277.33118 278.51880 279.64282 280.69211 281.70105 282.67438
 283.54977 284.32932 285.01031 285.87814
 366.78100 356.33677 345.77055 334.63832 323.04309 311.23886 299.11064 286.91541
 274.62918 262.52796 250.53873 239.84150 229.96528 221.07105 213.25482 206.25859
 200.09437 195.03414 191.61791 189.66169 188.70046 188.76623 189.60301 190.91278
 192.63955 194.73632 197.00110 199.36187 201.80864 204.29042 206.38019 208.22396
 209.85174 210.99851 211.22928 211.45905 211.39783 211.10460 210.73937 210.37115
 209.98992 209.70169 209.51146 209.37724 209.30701 209.63978 210.02756 210.41833
 211.21310 212.39288 213.64465 215.42942 217.35919 219.40397 221.50074 223.58551
 225.64729 227.73306 229.83183 231.93961 234.07038 236.24415 238.50192 240.87370
 243.49647 245.74924 247.75302 249.51979 250.93856 252.06333 252.88711 253.20488
 253.24365 253.01943 252.38120 251.33097 249.93875 248.10152 246.01229 243.84706
 241.63984 239.44561 237.26738 235.10816 232.96993 230.83870 228.86648 227.02525
 225.31002 223.78379 222.41557 221.18934 220.07311 219.03489 218.14066 217.28343
 216.52721 215.70898 214.80875 214.17452 213.62630 214.47604 216.53906 219.07077
 221.74963 223.21005 224.22853 225.14995 226.08278 227.10187 227.03268 226.31691
 225.51718 227.47234 231.53363 236.32083 241.01587 245.40781 249.58218 253.41740
 256.81723 259.80307 262.59503 265.30405 267.63303 269.52625 271.23920 272.92679
 274.55243 275.98633 277.12393 278.41391 279.60300 280.69113 281.79694 282.79987
 283.70190 284.50516 285.20688 286.10114
 366.78100 356.33787 345.77275 334.64162 323.04750 311.24437 299.11725 286.92312
 274.63800 262.53787 250.54975 239.85362 229.97850 221.08537 213.27025 206.27512
 200.11200 195.05287 191.63775 189.68262 188.72250 188.78937 189.62725 190.93812
 192.66600 194.76387 197.02975 199.39162 201.83950 204.32237 206.41325 208.25812
 209.88700 211.03487 211.26675 211.49762 211.43750 211.14537 210.78125 210.41412
 210.03400 209.74687 209.55775 209.42462 209.35550 209.68937 210.07825 210.47012
 211.26600 212.44687 213.69975 215.48562 217.41650 219.46237 221.56025 223.64612
 225.70900 227.79587 229.89575 232.00462 234.13650 236.31137 238.57025 240.94312
 243.56700 245.82087 247.82575 249.59362 251.01350 252.13937 252.96425 253.28312
 253.32300 253.09987 252.46275 251.41362 250.02250 248.18637 246.09825 243.93412
 241.72800 239.53487 237.35775 235.19962 233.06250 230.93237 228.96125 227.12112
 225.40700 223.88187 222.51475 221.28962 220.17450 219.13737 218.24425 217.38812
 216.63300 215.81587 214.91675 214.28362 213.73650 214.54991 216.56989 219.11905
 221.75241 223.29230 224.50485 225.34050 226.13474 226.90782 226.77014 226.20816
 225.79578 227.71245 231.57436 236.30901 241.03981 245.48752 249.64375 253.47911
 256.78564 259.80948 262.59549 265.25327 267.57898 269.46136 271.14810 272.71573
 274.25787 275.51764 276.71143 278.10574 279.46640 280.70160 281.82855 282.84946
 283.76767 284.58536 285.29965 286.20993
 366.78100 356.34015 345.77730 334.64844 323.05659 311.25574 299.13089 286.93904
 274.65618 262.55833 250.57248 239.87863 230.00578 221.11492 213.30207 206.30922
 200.14837 195.09152 191.67867 189.72581 188.76796 188.83711 189.67726 190.99041
 192.72055 194.82070 197.08885 199.45300 201.90315 204.38829 206.48144 208.32859
 209.95974 211.10989 211.34403 211.57718 211.51933 211.22948 210.86763 210.50277
 210.12492 209.84007 209.65322 209.52237 209.45551 209.79166 210.18281 210.57696
 211.37511 212.55826 213.81340 215.60155 217.53470 219.58285 221.68300 223.77114
 225.83629 227.92544 230.02759 232.13874 234.27288 236.45003 238.71118 241.08633
 243.71248 245.96862 247.97577 249.74592 251.16807 252.29622 253.12336 253.44451
 253.48666 253.26581 252.63096 251.58410 250.19525 248.36140 246.27555 244.11370
 241.90984 239.71899 237.54414 235.38829 233.25344 231.12559 229.15673 227.31888
 225.60703 224.08418 222.71933 221.49647 220.38362 219.34877 218.45792 217.60407
 216.85121 216.03636 215.13951 214.50866 213.96381 214.70335 216.62871 219.12849
 221.74597 223.64955 224.82489 225.38223 226.07928 226.43509 226.86890 225.69464
 225.77579 227.90747 231.76755 236.40439 241.09955 245.57965 249.77437 253.55687
 256.90060 259.87021 262.60782 265.12274 267.26428 269.04239 270.78372 272.74933
 274.15869 276.06003 277.80563 279.33841 280.66489 281.83850 282.90924 283.87924
 284.75165 285.52856 286.20721 287.07211
 366.78100 356.34063 345.77827 334.64990 323.05853 311.25817 299.13380 286.94243
 274.66007 262.56270 250.57733 239.88396 230.01160 221.12123 213.30886 206.31650
 200.15613 195.09976 191.68740 189.73503 188.77766 188.84730 189.68793 191.00156
 192.73220 194.83283 197.10146 199.46609 201.91673 204.40236 206.49599 208.34363
 209.97526 211.12589 211.36053 211.59416 211.53679 211.24743 210.88606 210.52169
 210.14433 209.85996 209.67359 209.54322 209.47686 209.81349 210.20512 210.59976
 211.39839 212.58202 213.83766 215.62629 217.55992 219.60856 221.70919 223.79782
 225.86346 227.95309 230.05572 232.16736 234.30199 236.47962 238.74125 241.11689
 243.74352 246.00015 248.00779 249.77842 251.20105 252.32969 253.15732 253.47895
 253.52159 253.30122 252.66685 251.62049 250.23212 248.39875 246.31338 244.15202
 241.94865 239.75828 237.58392 235.42855 233.29418 231.16682 229.19845 227.36108
 225.64972 224.12735 222.76298 221.54062 220.42825 219.39388 218.50352 217.65015
 216.89778 216.08341 215.18705 214.55668 214.01231 214.74934 216.67955 219.08519
 221.69794 223.80504 224.88548 225.30331 225.95215 226.50211 227.05757 225.59819
 225.73260 227.86568 231.79536 236.46651 241.18039 245.68129 249.89339 253.72856
 257.09811 260.07416 262.85556 265.49292 267.73959 269.50787 270.85153 272.65793
 275.13956 277.50571 279.55322 281.35107 282.90698 284.28354 285.53946 286.67722
 287.70053 288.61179 289.40784 290.42230
 366.78100 356.33996 345.77693 334.64789 323.05586 311.25482 299.12978 286.93775
 274.65471 262.55667 250.57064 239.87660 230.00357 221.11253 213.29949 206.30646
 200.14542 195.08839 191.67535 189.72231 188.76428 188.83324 189.67321 190.98617
 192.71613 194.81610 197.08406 199.44802 201.89799 204.38295 206.47592 208.32288
 209.95384 211.10381 211.33777 211.57074 211.51270 211.22266 210.86063 210.49559
 210.11756 209.83252 209.64548 209.51445 209.44741 209.78337 210.17434 210.56830
 211.36627 212.54923 213.80419 215.59216 217.52512 219.57309 221.67305 223.76101
 225.82598 227.91494 230.01691 232.12787 234.26183 236.43880 238.69976 241.07472
 243.70069 245.95665 247.96362 249.73358 251.15554 252.28351 253.11047 253.43144
 253.47340 253.25236 252.61733 251.57029 250.18126 248.34722 246.26118 244.09915
 241.89511 239.70407 237.52904 235.37300 233.23797 231.10993 229.14089 227.30286
 225.59082 224.06779 222.70275 221.47971 220.36668 219.33164 218.44061 217.58657
 216.83353 216.01850 215.12146 214.49042 213.94539 214.71449 216.68436 219.10646
 221.57622 223.74477 224.94463 225.36826 225.88556 226.53922 226.45526 225.53510
 225.70554 227.87828 231.79936 236.43652 241.15224 245.62206 249.79396 253.59042
 256.95676 259.98965 262.82938 265.48169 267.85635 269.91202 271.71326 273.20114
 274.96140 276.85852 278.93170 280.83585 282.48373 283.94165 285.27182 286.47684
 287.56061 288.52573 289.36884 290.44330
 366.78100 356.33940 345.77581 334.64621 323.05362 311.25202 299.12643 286.93383
 274.65024 262.55164 250.56505 239.87045 229.99686 221.10526 213.29167 206.29807
 200.13648 195.07888 191.66529 189.71169 188.75310 188.82150 189.66091 190.97331
 192.70272 194.80212 197.06953 199.43293 201.88234 204.36674 206.45915 208.30555
 209.93596 211.08536 211.31877 211.55117 211.49258 211.20198 210.83939 210.47379
 210.09520 209.80960 209.62201 209.49041 209.42282 209.75822 210.14863 210.54203
 211.33944 212.52184 213.77625 215.56365 217.49606 219.54346 221.64287 223.73027
 225.79468 227.88308 229.98449 232.09489 234.22830 236.40470 238.66511 241.03951
 243.66492 245.92032 247.92673 249.69613 251.11754 252.24494 253.07135 253.39175
 253.43316 253.21156 252.57597 251.52837 250.13878 248.30418 246.21759 244.05499
 241.85040 239.65880 237.48321 235.32661 233.19102 231.06242 229.09283 227.25423
 225.54164 224.01804 222.65245 221.42885 220.31526 219.27966 218.38807 217.53347
 216.77988 215.96428 215.06669 214.43509 213.88950 214.69646 216.72748 219.11136
 221.56184 223.59180 224.98161 225.54950 225.93529 226.50279 226.36874 225.33110
 225.56224 227.87119 231.86223 236.51196 241.23645 245.73773 249.91226 253.68987
 257.00272 259.83801 262.64627 265.27676 267.63922 269.59195 271.30823 272.91437
 274.75189 276.60107 278.37589 279.99844 281.40265 282.64499 283.77844 284.80527
 285.72879 286.55118 287.26959 288.18515
 366.78100 356.33994 345.77689 334.64783 323.05578 311.25472 299.12966 286.93761
 274.65455 262.55650 250.57044 239.87638 230.00333 221.11227 213.29922 206.30616
 200.14510 195.08805 191.67499 189.72194 188.76388 188.83283 189.67277 190.98571
 192.71566 194.81560 197.08355 199.44749 201.89743 204.38238 206.47532 208.32227
 209.95321 211.10315 211.33710 211.57004 211.51199 211.22193 210.85987 210.49482
 210.11676 209.83171 209.64465 209.51359 209.44654 209.78248 210.17343 210.56737
 211.36531 212.54826 213.80320 215.59115 217.52409 219.57203 221.67198 223.75992
 225.82487 227.91381 230.01575 232.12670 234.26064 236.43759 238.69853 241.07348
 243.69942 245.95536 247.96231 249.73225 251.15420 252.28214 253.10908 253.43003
 253.47197 253.25092 252.61586 251.56880 250.17975 248.34569 246.25964 244.09758
 241.89352 239.70247 237.52741 235.37136 233.23630 231.10824 229.13919 227.30113
 225.58908 224.06602 222.70096 221.47791 220.36485 219.32980 218.43874 217.58468
 216.83163 216.01657 215.11952 214.48846 213.94341 214.74530 216.79326 219.13264
 221.55072 223.59514 225.02184 225.58348 226.00583 226.51558 226.67331 225.15056
 225.29408 227.73929 231.85272 236.55501 241.30542 245.86061 250.10085 253.91843
 257.24136 260.15790 262.78622 265.25143 267.42953 269.24457 270.90271 272.88763
 275.17789 277.37778 279.28140 280.95294 282.39951 283.67935 284.84702 285.90485
 286.85623 287.70346 288.44357 289.38675
 366.78100 356.34099 345.77898 334.65097 323.05997 311.25996 299.13595 286.94494
 274.66293 262.56592 250.58091 239.88791 230.01590 221.12589 213.31388 206.32187
 200.16186 195.10585 191.69385 189.74184 188.78483 188.85482 189.69581 191.00980
 192.74079 194.84179 197.11078 199.47577 201.92676 204.41275 206.50674 208.35473
 209.98673 211.13772 211.37271 211.60670 211.54969 211.26068 210.89967 210.53567
 210.15866 209.87465 209.68864 209.55863 209.49262 209.82961 210.22161 210.61660
 211.41559 212.59958 213.85557 215.64456 217.57855 219.62754 221.72854 223.81753
 225.88352 227.97351 230.07650 232.18849 234.32348 236.50148 238.76347 241.13946
 243.76645 246.02344 248.03143 249.80242 251.22542 252.35441 253.18240 253.50439
 253.54738 253.32737 252.69336 251.64736 250.25935 248.42634 246.34133 244.18032
 241.97731 239.78730 237.61330 235.45829 233.32428 231.19727 229.22926 227.39225
 225.68124 224.15924 222.79523 221.57322 220.46121 219.42720 218.53719 217.68418
 216.93218 216.11817 215.22216 214.59215 214.04814 214.81247 216.79053 219.13095
 221.55811 223.59909 224.96167 225.48297 225.83600 226.58977 226.94981 225.38568
 225.26939 227.51093 231.69081 236.43779 241.18941 245.76256 250.04915 253.91197
 257.30292 260.28925 263.01425 265.54703 267.72241 269.49237 271.10907 273.39816
 275.81674 278.18167 280.22812 282.02509 283.58017 284.95602 286.21130 287.34848
 288.37125 289.28204 290.07767 291.09164
 366.78100 356.34081 345.77862 334.65043 323.05924 311.25904 299.13485 286.94366
 274.66147 262.56428 250.57909 239.88590 230.01371 221.12351 213.31132 206.31913
 200.15894 195.10275 191.69056 189.73837 188.78118 188.85098 189.69179 191.00560
 192.73641 194.83722 197.10603 199.47084 201.92165 204.40745 206.50126 208.34907
 209.98088 211.13169 211.36650 211.60031 211.54312 211.25392 210.89273 210.52854
 210.15135 209.86716 209.68097 209.55078 209.48459 209.82139 210.21320 210.60801
 211.40682 212.59063 213.84644 215.63525 217.56906 219.61786 221.71867 223.80748
 225.87329 227.96310 230.06591 232.17772 234.31253 236.49033 238.75214 241.12795
 243.75476 246.01157 248.01938 249.79019 251.21300 252.34180 253.16961 253.49142
 253.53423 253.31404 252.67985 251.63366 250.24547 248.41228 246.32708 244.16589
 241.96270 239.77251 237.59832 235.44313 233.30894 231.18175 229.21355 227.37636
 225.66517 224.14298 222.77879 221.55660 220.44441 219.41022 218.52002 217.66683
 216.91464 216.10045 215.20426 214.57407 214.02988 214.81279 216.79416 219.08859
 221.46948 223.70198 225.12267 225.46722 225.58717 226.17947 226.36084 225.72057
 225.70151 227.70164 231.71507 236.39090 241.08435 245.57185 249.74083 253.50909
 256.89880 260.01660 262.91617 265.54297 267.82571 269.74738 271.53281 273.41562
 275.47134 277.38098 279.28619 280.97742 282.44104 283.73599 284.91742 285.98770
 286.95032 287.80753 288.55637 289.51068
 366.78100 356.34011 345.77721 334.64832 323.05643 311.25554 299.13064 286.93875
 274.65586 262.55796 250.57207 239.87818 230.00529 221.11439 213.30150 206.30861
 200.14771 195.09082 191.67793 189.72504 188.76714 188.83625 189.67636 190.98946
 192.71957 194.81968 197.08779 199.45189 201.90200 204.38711 206.48022 208.32732
 209.95843 211.10854 211.34264 211.57575 211.51786 211.22797 210.86607 210.50118
 210.12329 209.83839 209.65150 209.52061 209.45372 209.78982 210.18093 210.57504
 211.37314 212.55625 213.81136 215.59947 217.53257 219.58068 221.68079 223.76889
 225.83400 227.92311 230.02522 232.13632 234.27043 236.44754 238.70864 241.08375
 243.70986 245.96597 247.97307 249.74318 251.16529 252.29339 253.12050 253.44161
 253.48372 253.26282 252.62793 251.58104 250.19214 248.35825 246.27236 244.11047
 241.90657 239.71568 237.54079 235.38489 233.25000 231.12211 229.15322 227.31532
 225.60343 224.08054 222.71565 221.49275 220.37986 219.34497 218.45407 217.60018
 216.84729 216.03240 215.13550 214.50461 213.95972 214.79547 216.88000 219.07469
 221.40636 223.69803 225.32240 225.65466 225.49156 225.96138 226.19269 225.39601
 225.64960 227.77687 231.78583 236.46317 241.19424 245.71614 249.90344 253.67038
 256.97064 259.88403 262.63025 265.22507 267.52802 269.48538 271.25922 273.25305
 275.39618 277.39743 279.19958 280.78201 282.15146 283.36310 284.46851 285.46994
 286.37061 287.17267 287.87335 288.76627
 366.78100 356.34010 345.77720 334.64830 323.05640 311.25550 299.13060 286.93870
 274.65580 262.55790 250.57200 239.87810 230.00520 221.11430 213.30140 206.30850
 200.14760 195.09071 191.67781 189.72491 188.76701 188.83611 189.67621 190.98931
 192.71941 194.81951 197.08761 199.45171 201.90181 204.38691 206.48001 208.32711
 209.95821 211.10831 211.34241 211.57551 211.51761 211.22771 210.86581 210.50091
 210.12301 209.83811 209.65121 209.52031 209.45341 209.78951 210.18061 210.57471
 211.37281 212.55591 213.81102 215.59912 217.53222 219.58032 221.68042 223.76852
 225.83362 227.92272 230.02482 232.13592 234.27002 236.44712 238.70822 241.08332
 243.70942 245.96552 247.97262 249.74272 251.16482 252.29292 253.12002 253.44112
 253.48322 253.26232 252.62742 251.58052 250.19162 248.35772 246.27182 244.10992
 241.90602 239.71512 237.54022 235.38433 233.24943 231.12153 229.15263 227.31473
 225.60283 224.07993 222.71503 221.49213 220.37923 219.34433 218.45343 217.59953
 216.84663 216.03173 215.13483 214.50393 213.95903 214.81795 216.96906 219.08336
 221.31195 223.55908 225.30762 225.77557 225.58148 225.95456 226.36282 225.30122
 225.69086 227.94586 231.83916 236.48668 241.24881 245.81934 250.06409 253.87769
 257.17853 260.08124 262.71591 265.12210 267.27893 269.24380 271.42825 274.27490
 276.91791 279.18338 281.14377 282.86511 284.35480 285.67279 286.87527 287.96463
 288.94437 289.81683 290.57901 291.55032
 366.78100 356.34182 345.78064 334.65346 323.06328 311.26410 299.14092 286.95074
 274.66956 262.57338 250.58920 239.89702 230.02584 221.13666 213.32548 206.33430
 200.17512 195.11994 191.70876 189.75758 188.80140 188.87222 189.71404 191.02886
 192.76068 194.86250 197.13232 199.49814 201.94996 204.43678 206.53160 208.38042
 210.01324 211.16506 211.40088 211.63570 211.57952 211.29134 210.93116 210.56798
 210.19180 209.90862 209.72345 209.59427 209.52909 209.86691 210.25973 210.65555
 211.45537 212.64019 213.89701 215.68683 217.62165 219.67147 221.77329 223.86311
 225.92993 228.02075 230.12457 232.23739 234.37321 236.55203 238.81485 241.19167
 243.81949 246.07731 248.08613 249.85795 251.28177 252.41159 253.24041 253.56323
 253.60705 253.38787 252.75469 251.70951 250.32233 248.49015 246.40597 244.24579
 242.04361 239.85443 237.68125 235.52707 233.39389 231.26771 229.30053 227.46435
 225.75417 224.23299 222.86981 221.64863 220.53745 219.50427 218.61509 217.76291
 217.01173 216.19855 215.30337 214.67419 214.13101 214.90242 216.92140 219.16101
 221.25537 223.40872 225.27861 225.75006 225.50917 226.11781 226.35677 225.60446
 225.74664 227.78319 231.71370 236.39775 241.15469 245.71829 249.98341 253.84370
 257.23129 260.23538 262.98633 265.48300 267.60889 269.51575 272.02490 274.81717
 277.51993 279.83658 281.84128 283.60156 285.12494 286.47272 287.70236 288.81635
 289.81827 290.71045 291.48987 292.48312
 366.78100 356.34109 345.77918 334.65127 323.06036 311.26046 299.13655 286.94564
 274.66373 262.56682 250.58191 239.88900 230.01709 221.12719 213.31528 206.32337
 200.16346 195.10755 191.69564 189.74373 188.78682 188.85692 189.69801 191.01210
 192.74319 194.84428 197.11337 199.47846 201.92955 204.41565 206.50974 208.35783
 209.98992 211.14101 211.37610 211.61019 211.55328 211.26437 210.90347 210.53956
 210.16265 209.87874 209.69283 209.56292 209.49701 209.83410 210.22620 210.62129
 211.42038 212.60447 213.86056 215.64965 217.58374 219.63283 221.73393 223.82302
 225.88911 227.97920 230.08229 232.19438 234.32947 236.50756 238.76965 241.14575
 243.77284 246.02993 248.03802 249.80911 251.23220 252.36129 253.18938 253.51148
 253.55457 253.33466 252.70075 251.65484 250.26693 248.43402 246.34911 244.18821
 241.98530 239.79539 237.62148 235.46657 233.33266 231.20575 229.23784 227.40094
 225.69003 224.16812 222.80421 221.58230 220.47039 219.43648 218.54657 217.69366
 216.94176 216.12785 215.23194 214.60203 214.05812 214.86539 216.88512 219.12550
 221.23676 223.41721 225.15134 225.71939 225.56917 225.67229 225.77206 225.83681
 226.26097 228.03464 231.77145 236.35997 241.06685 245.57814 249.76587 253.55659
 256.94284 260.00873 262.83640 265.42456 267.75406 269.89526 271.98560 274.08163
 276.11606 277.93091 279.60690 281.14368 282.47363 283.65033 284.72385 285.69641
 286.57111 287.35004 288.03049 288.89764
 366.78100 356.34033 345.77765 334.64898 323.05731 311.25663 299.13196 286.94029
 274.65761 262.55994 250.57427 239.88059 230.00792 221.11725 213.30457 206.31190
 200.15123 195.09455 191.68188 189.72921 188.77153 188.84086 189.68118 190.99451
 192.72484 194.82516 197.09349 199.45782 201.90814 204.39347 206.48680 208.33412
 209.96545 211.11578 211.35010 211.58343 211.52576 211.23608 210.87441 210.50974
 210.13206 209.84739 209.66072 209.53004 209.46337 209.79970 210.19102 210.58535
 211.38368 212.56700 213.82233 215.61066 217.54398 219.59231 221.69264 223.78096
 225.84629 227.93562 230.03794 232.14927 234.28360 236.46092 238.72225 241.09758
 243.72390 245.98023 247.98755 249.75788 251.18021 252.30853 253.13586 253.45719
 253.49951 253.27884 252.64417 251.59749 250.20882 248.37515 246.28947 244.12780
 241.92413 239.73345 237.55878 235.40311 233.26843 231.14076 229.17209 227.33441
 225.62274 224.10007 222.73539 221.51272 220.40005 219.36537 218.47470 217.62103
 216.86835 216.05368 215.15701 214.52633 213.98166 214.82916 216.89325 219.14958
 221.08783 223.12398 225.06870 225.77583 225.57779 225.43764 225.85835 225.67770
 226.33157 227.85393 231.68300 236.40323 241.12218 245.66060 249.88718 253.71135
 257.07822 260.07962 262.86316 265.45712 267.79187 269.88882 271.86627 273.80157
 275.64014 277.28366 278.62430 279.93716 281.17731 282.34964 283.41919 284.38815
 285.25961 286.03568 286.71359 287.57755
 366.78100 356.34057 345.77813 334.64970 323.05826 311.25783 299.13340 286.94196
 274.65953 262.56210 250.57666 239.88323 230.01079 221.12036 213.30793 206.31549
 200.15506 195.09862 191.68619 189.73376 188.77632 188.84589 189.68646 191.00002
 192.73059 194.83115 197.09972 199.46429 201.91485 204.40042 206.49398 208.34155
 209.97312 211.12368 211.35825 211.59182 211.53438 211.24495 210.88351 210.51908
 210.14165 209.85721 209.67078 209.54034 209.47391 209.81048 210.20204 210.59661
 211.39518 212.57874 213.83431 215.62287 217.55644 219.60501 221.70557 223.79414
 225.85970 227.94927 230.05184 232.16340 234.29797 236.47554 238.73710 241.11267
 243.73923 245.99580 248.00337 249.77393 251.19650 252.32506 253.15263 253.47420
 253.51676 253.29633 252.66190 251.61546 250.22703 248.39359 246.30816 244.14673
 241.94329 239.75286 237.57842 235.42299 233.28856 231.16112 229.19269 227.35526
 225.64382 224.12139 222.75695 221.53452 220.42209 219.38765 218.49722 217.64378
 216.89135 216.07692 215.18048 214.55005 214.00562 214.85767 216.95032 219.12741
 221.12285 223.25555 225.05278 225.59605 225.48582 225.42513 225.74504 226.04034
 226.28485 227.97916 231.73753 236.41051 241.15648 245.71596 249.94827 253.75273
 257.08182 260.05487 262.82635 265.43585 267.80627 269.93329 271.93127 273.87970
 275.68066 277.28232 278.87057 280.40652 281.78073 282.99655 284.10580 285.11069
 286.01450 286.81934 287.52243 288.41843
 366.78100 356.33993 345.77685 334.64778 323.05570 311.25463 299.12955 286.93748
 274.65441 262.55633 250.57026 239.87618 230.00311 221.11203 213.29896 206.30589
 200.14481 195.08774 191.67466 189.72159 188.76351 188.83244 189.67237 190.98529
 192.71522 194.81514 197.08307 199.44700 201.89692 204.38185 206.47477 208.32170
 209.95262 211.10255 211.33648 211.56940 211.51133 211.22125 210.85918 210.49410
 210.11603 209.83096 209.64388 209.51281 209.44573 209.78166 210.17258 210.56651
 211.36444 212.54736 213.80229 215.59021 217.52314 219.57106 221.67099 223.75892
 225.82384 227.91277 230.01469 232.12562 234.25954 236.43647 238.69740 241.07232
 243.69825 245.95417 247.96110 249.73102 251.15295 252.28088 253.10780 253.42873
 253.47065 253.24958 252.61450 251.56743 250.17836 248.34428 246.25821 244.09613
 241.89206 239.70099 237.52591 235.36984 233.23476 231.10669 229.13761 227.29954
 225.58747 224.06439 222.69932 221.47624 220.36317 219.32809 218.43702 217.58295
 216.82987 216.01480 215.11772 214.48665 213.94157 214.83345 217.00606 219.12428
 220.99315 223.33141 225.02774 225.40683 225.31627 225.34027 225.69699 226.06760
 226.41621 228.08784 231.79364 236.45816 241.19319 245.73700 249.95404 253.72949
 257.03827 260.02411 262.84235 265.50082 267.87781 269.95923 271.94901 273.89944
 275.78665 277.58264 279.18024 280.66611 282.01227 283.20328 284.28992 285.27429
 286.15967 286.94809 287.63684 288.51456
 366.78100 356.33981 345.77662 334.64742 323.05523 311.25404 299.12885 286.93666
 274.65346 262.55527 250.56908 239.87489 230.00170 221.11051 213.29731 206.30412
 200.14293 195.08574 191.67255 189.71935 188.76116 188.82997 189.66978 190.98259
 192.71239 194.81220 197.08001 199.44382 201.89363 204.37843 206.47124 208.31805
 209.94886 211.09867 211.33248 211.56528 211.50709 211.21690 210.85471 210.48952
 210.11132 209.82613 209.63894 209.50775 209.44056 209.77636 210.16717 210.56098
 211.35879 212.54160 213.79640 215.58421 217.51702 219.56483 221.66464 223.75245
 225.81725 227.90606 230.00787 232.11868 234.25249 236.42929 238.69010 241.06491
 243.69072 245.94653 247.95333 249.72314 251.14495 252.27276 253.09957 253.42037
 253.46218 253.24099 252.60580 251.55861 250.16942 248.33522 246.24903 244.08684
 241.88265 239.69146 237.51626 235.36007 233.22488 231.09669 229.12750 227.28930
 225.57711 224.05392 222.68873 221.46554 220.35234 219.31715 218.42596 217.57177
 216.81858 216.00339 215.10619 214.47500 213.92981 214.82370 216.96960 219.20833
 220.84244 222.92110 224.92149 225.44215 225.20663 225.10217 225.58643 225.80225
 226.50015 228.11554 231.82567 236.47679 241.20543 245.73459 249.93921 253.71388
 257.04089 260.04254 262.85611 265.51483 267.93008 270.06888 272.04245 273.91956
 275.69473 277.39499 278.94382 280.31815 281.53061 282.63278 283.66803 284.60953
 285.45630 286.21036 286.86908 287.70856
 366.78100 356.34014 345.77727 334.64841 323.05655 311.25568 299.13082 286.93895
 274.65609 262.55823 250.57236 239.87850 230.00564 221.11477 213.30191 206.30904
 200.14818 195.09132 191.67845 189.72559 188.76773 188.83686 189.67700 190.99014
 192.72027 194.82041 197.08854 199.45268 201.90282 204.38795 206.48109 208.32823
 209.95936 211.10950 211.34363 211.57677 211.51891 211.22904 210.86718 210.50232
 210.12445 209.83959 209.65273 209.52186 209.45500 209.79113 210.18227 210.57641
 211.37454 212.55768 213.81282 215.60095 217.53409 219.58222 221.68236 223.77050
 225.83563 227.92477 230.02691 232.13804 234.27218 236.44932 238.71045 241.08559
 243.71172 245.96786 247.97500 249.74513 251.16727 252.29541 253.12254 253.44368
 253.48581 253.26495 252.63009 251.58322 250.19436 248.36050 246.27463 244.11277
 241.90890 239.71804 237.54318 235.38731 233.25245 231.12459 229.15572 227.31786
 225.60600 224.08313 222.71827 221.49540 220.38254 219.34768 218.45681 217.60295
 216.85009 216.03522 215.13836 214.50749 213.96263 214.84798 216.95990 219.18842
 220.96355 222.85208 224.79451 225.46266 225.18410 224.95276 225.38724 225.84628
 226.49623 228.07639 231.86096 236.48926 241.23889 245.78035 249.99536 253.78563
 257.11649 260.10336 262.89291 265.52237 267.92554 270.08426 272.09201 274.02350
 275.80505 277.40402 278.83136 280.08295 281.24542 282.32187 283.34848 284.30438
 285.16434 285.93015 286.59912 287.45166
 366.78100 356.34103 345.77905 334.65108 323.06011 311.26013 299.13616 286.94519
 274.66321 262.56624 250.58127 239.88829 230.01632 221.12634 213.31437 206.32240
 200.16242 195.10645 191.69448 189.74250 188.78553 188.85556 189.69658 191.01061
 192.74164 194.84266 197.11169 199.47672 201.92774 204.41377 206.50780 208.35582
 209.98785 211.13887 211.37390 211.60793 211.55095 211.26198 210.90101 210.53703
 210.16006 209.87609 209.69011 209.56014 209.49417 209.83119 210.22322 210.61825
 211.41727 212.60130 213.85733 215.64635 217.58038 219.62941 221.73043 223.81946
 225.88548 227.97551 230.07854 232.19056 234.32559 236.50362 238.76564 241.14167
 243.76870 246.02572 248.03375 249.80478 251.22780 252.35683 253.18486 253.50688
 253.54991 253.32994 252.69596 251.64999 250.26201 248.42904 246.34407 244.18309
 241.98012 239.79015 237.61617 235.46120 233.32723 231.20025 229.23228 227.39531
 225.68433 224.16236 222.79839 221.57641 220.46444 219.43047 218.54049 217.68752
 216.93554 216.12157 215.22560 214.59562 214.05165 214.90294 216.93770 219.20320
 220.94136 222.80383 224.75066 225.36433 225.06851 224.82182 225.18742 225.93446
 226.58199 228.18918 231.94562 236.53162 241.28690 245.83713 250.05176 253.84622
 257.17554 260.15460 262.93320 265.54642 267.92548 270.07382 272.10590 274.07550
 275.89001 277.49640 278.88608 280.11130 281.27856 282.35083 283.36917 284.35889
 285.24905 286.04175 286.73422 287.61670
 366.78100 356.34179 345.78058 334.65336 323.06315 311.26394 299.14073 286.95052
 274.66930 262.57309 250.58888 239.89667 230.02546 221.13624 213.32503 206.33382
 200.17461 195.11939 191.70818 189.75697 188.80076 188.87155 189.71333 191.02812
 192.75991 194.86170 197.13149 199.49727 201.94906 204.43585 206.53064 208.37943
 210.01221 211.16400 211.39979 211.63458 211.57837 211.29015 210.92994 210.56673
 210.19052 209.90730 209.72209 209.59288 209.52767 209.86546 210.25824 210.65403
 211.45382 212.63861 213.89540 215.68518 217.61997 219.66976 221.77155 223.86134
 225.92812 228.01891 230.12270 232.23549 234.37128 236.55006 238.81285 241.18964
 243.81743 246.07522 248.08400 249.85579 251.27958 252.40937 253.23815 253.56094
 253.60473 253.38552 252.75231 251.70709 250.31988 248.48767 246.40346 244.24325
 242.04103 239.85182 237.67861 235.52440 233.39119 231.26497 229.29776 227.46155
 225.75134 224.23013 222.86691 221.64570 220.53449 219.50128 218.61206 217.75985
 217.00864 216.19543 215.30022 214.67100 214.12779 214.95001 216.90398 219.22748
 220.98518 222.85547 224.69801 225.21634 224.92958 224.69362 225.06242 225.86441
 226.66864 228.40379 232.04790 236.59074 241.35553 245.90779 250.11870 253.91699
 257.24069 260.20859 262.98239 265.58044 267.94250 270.08884 272.13669 274.10397
 275.92136 277.52457 278.89194 280.10312 281.26352 282.32123 283.31912 284.24973
 285.07379 285.80762 286.44870 287.26566
 366.78100 356.34187 345.78075 334.65362 323.06350 311.26437 299.14125 286.95112
 274.67000 262.57387 250.58974 239.89762 230.02649 221.13737 213.32624 206.33512
 200.17599 195.12087 191.70974 189.75861 188.80249 188.87336 189.71524 191.03011
 192.76199 194.86386 197.13374 199.49961 201.95148 204.43836 206.53323 208.38211
 210.01498 211.16686 211.40273 211.63761 211.58148 211.29335 210.93323 210.57010
 210.19398 209.91085 209.72573 209.59660 209.53148 209.86935 210.26222 210.65810
 211.45797 212.64285 213.89972 215.68960 217.62447 219.67435 221.77622 223.86609
 225.93297 228.02384 230.12772 232.24059 234.37647 236.55534 238.81822 241.19509
 243.82296 246.08084 248.08971 249.86159 251.28546 252.41534 253.24421 253.56709
 253.61096 253.39183 252.75871 251.71358 250.32646 248.49433 246.41021 244.25008
 242.04796 239.85883 237.68570 235.53158 233.39845 231.27233 229.30520 227.46908
 225.75895 224.23783 222.87470 221.65357 220.54245 219.50932 218.62020 217.76807
 217.01695 216.20382 215.30870 214.67957 214.13644 214.96352 216.91757 219.21086
 221.03102 222.90417 224.62611 225.10164 224.81027 224.55858 224.92276 225.80107
 226.70863 228.55269 232.15512 236.68695 241.43355 245.99097 250.19801 253.99873
 257.31192 260.26669 263.03232 265.62024 267.96902 270.10754 272.16547 274.14560
 275.96585 277.55951 278.92538 280.08026 281.13779 282.18634 283.16977 284.07944
 284.87784 285.59698 286.22525 287.02588
 366.78100 356.34179 345.78058 334.65337 323.06317 311.26396 299.14075 286.95054
 274.66933 262.57312 250.58892 239.89671 230.02550 221.13629 213.32508 206.33387
 200.17467 195.11946 191.70825 189.75704 188.80083 188.87162 189.71341 191.02821
 192.76000 194.86179 197.13158 199.49737 201.94916 204.43596 206.53075 208.37954
 210.01233 211.16412 211.39991 211.63471 211.57850 211.29029 210.93008 210.56687
 210.19066 209.90746 209.72225 209.59304 209.52783 209.86562 210.25841 210.65420
 211.45400 212.63879 213.89558 215.68537 217.62016 219.66995 221.77175 223.86154
 225.92833 228.01912 230.12291 232.23570 234.37150 236.55029 238.81308 241.18987
 243.81766 246.07545 248.08424 249.85604 251.27983 252.40962 253.23841 253.56120
 253.60499 253.38579 252.75258 251.70737 250.32016 248.48795 246.40374 244.24354
 242.04133 239.85212 237.67891 235.52470 233.39149 231.26528 229.29808 227.46187
 225.75166 224.23045 222.86724 221.64603 220.53483 219.50162 218.61241 217.76020
 217.00899 216.19578 215.30058 214.67137 214.12816 214.96828 216.95314 219.18834
 221.05141 222.92691 224.53879 224.98549 224.69237 224.41872 224.78871 225.77878
 226.73729 228.64668 232.25197 236.79105 241.52408 246.07616 250.27873 254.08107
 257.38504 260.32959 263.08459 265.65704 267.99039 270.12201 272.19446 274.18964
 276.00339 277.58197 278.92947 280.07776 281.04282 282.08115 283.06000 283.96088
 284.75345 285.47787 286.12094 286.94049
 366.78100 356.34180 345.78061 334.65341 323.06321 311.26402 299.14082 286.95062
 274.66943 262.57323 250.58903 239.89684 230.02564 221.13644 213.32524 206.33405
 200.17485 195.11965 191.70846 189.75726 188.80106 188.87187 189.71367 191.02847
 192.76028 194.86208 197.13188 199.49769 201.94949 204.43629 206.53110 208.37990
 210.01270 211.16451 211.40031 211.63511 211.57891 211.29072 210.93052 210.56732
 210.19113 209.90793 209.72273 209.59354 209.52834 209.86614 210.25895 210.65475
 211.45455 212.63936 213.89616 215.68596 217.62077 219.67057 221.77237 223.86218
 225.92898 228.01978 230.12358 232.23639 234.37219 236.55099 238.81380 241.19060
 243.81840 246.07621 248.08501 249.85681 251.28062 252.41042 253.23922 253.56203
 253.60583 253.38663 252.75344 251.70824 250.32104 248.48885 246.40465 244.24445
 242.04225 239.85306 237.67986 235.52566 233.39247 231.26627 229.29907 227.46288
 225.75268 224.23148 222.86829 221.64709 220.53589 219.50270 218.61350 217.76130
 217.01011 216.19691 215.30171 214.67252 214.12932 214.97739 216.98103 219.16634
 221.07042 222.92912 224.43900 224.86807 224.58774 224.29471 224.62808 225.74197
 226.76128 228.71796 232.34665 236.90137 241.62605 246.16948 250.36229 254.14980
 257.45010 260.39343 263.14288 265.69559 268.00888 270.13690 272.22470 274.22772
 276.02570 277.57275 278.88843 280.01364 281.05350 282.08032 283.05981 283.96817
 284.78152 285.49438 286.12750 286.93436
 366.78100 356.34190 345.78081 334.65371 323.06362 311.26452 299.14143 286.95133
 274.67023 262.57414 250.59004 239.89795 230.02685 221.13775 213.32666 206.33556
 200.17647 195.12137 191.71028 189.75918 188.80308 188.87399 189.71589 191.03080
 192.76270 194.86460 197.13451 199.50041 201.95232 204.43922 206.53413 208.38303
 210.01593 211.16784 211.40374 211.63865 211.58255 211.29446 210.93436 210.57126
 210.19517 209.91207 209.72698 209.59788 209.53278 209.87069 210.26359 210.65950
 211.45940 212.64431 213.90121 215.69111 217.62602 219.67592 221.77783 223.86773
 225.93463 228.02554 230.12944 232.24235 234.37825 236.55716 238.82006 241.19696
 243.82487 246.08277 248.09168 249.86358 251.28749 252.41739 253.24629 253.56920
 253.61310 253.39401 252.76091 251.71581 250.32872 248.49662 246.41253 244.25243
 242.05034 239.86124 237.68814 235.53405 233.40095 231.27486 229.30776 227.47167
 225.76157 224.24047 222.87738 221.65628 220.54519 219.51209 218.62299 217.77090
 217.01980 216.20671 215.31161 214.68252 214.13942 214.99028 217.00053 219.15002
 221.07939 222.92096 224.35779 224.74359 224.45761 224.16780 224.53729 225.68150
 226.67458 228.73807 232.46941 237.03500 241.74438 246.27261 250.45139 254.22333
 257.51297 260.45404 263.20093 265.73602 268.02911 270.16010 272.26498 274.27164
 276.04279 277.54120 278.81149 279.93445 281.01837 282.06876 283.04861 283.95126
 284.76578 285.47189 286.10281 286.90683
 366.78100 356.34216 345.78133 334.65449 323.06466 311.26582 299.14298 286.95315
 274.67231 262.57648 250.59264 239.90080 230.02997 221.14113 213.33029 206.33946
 200.18062 195.12579 191.71495 189.76411 188.80828 188.87944 189.72161 191.03677
 192.76893 194.87110 197.14126 199.50743 201.95959 204.44675 206.54192 208.39108
 210.02424 211.17641 211.41257 211.64774 211.59190 211.30406 210.94423 210.58139
 210.20556 209.92272 209.73788 209.60905 209.54421 209.88238 210.27554 210.67170
 211.47187 212.65703 213.91420 215.70436 217.63952 219.68969 221.79185 223.88201
 225.94918 228.04034 230.14451 232.25767 234.39383 236.57300 238.83616 241.21333
 243.84149 246.09965 248.10882 249.88098 251.30515 252.43531 253.26447 253.58764
 253.63180 253.41296 252.78013 251.73529 250.34846 248.51662 246.43278 244.27295
 242.07111 239.88228 237.70944 235.55560 233.42277 231.29693 229.33010 227.49426
 225.78442 224.26359 222.90075 221.67991 220.56908 219.53624 218.64741 217.79557
 217.04473 216.23190 215.33706 214.70823 214.16539 215.01105 217.00900 219.14825
 221.07867 222.89569 224.30157 224.64938 224.31425 223.98091 224.38879 225.67505
 226.71582 228.76283 232.56978 237.16772 241.86446 246.37740 250.54312 254.29782
 257.57541 260.51355 263.25540 265.77063 268.04901 270.18881 272.31110 274.31906
 276.06030 277.51324 278.74780 279.86557 280.97662 282.02951 283.00751 283.90909
 284.71875 285.42960 286.05450 286.85718
 366.78100 356.34284 345.78268 334.65652 323.06735 311.26919 299.14703 286.95787
 274.67771 262.58255 250.59938 239.90822 230.03806 221.14990 213.33974 206.34958
 200.19142 195.13725 191.72709 189.77693 188.82177 188.89361 189.73645 191.05229
 192.78512 194.88796 197.15880 199.52564 201.97848 204.46632 206.56215 208.41199
 210.04583 211.19867 211.43551 211.67135 211.61619 211.32902 210.96986 210.60770
 210.23254 209.95038 209.76622 209.63806 209.57389 209.91273 210.30657 210.70341
 211.50425 212.69009 213.94792 215.73876 217.67460 219.72544 221.82828 223.91912
 225.98696 228.07879 230.18363 232.29747 234.43431 236.61415 238.87799 241.25582
 243.88466 246.14350 248.15334 249.92618 251.35102 252.48186 253.31169 253.63553
 253.68037 253.46221 252.83005 251.78589 250.39973 248.56856 246.48540 244.32624
 242.12508 239.93692 237.76476 235.61159 233.47943 231.35427 229.38811 227.55295
 225.84379 224.32363 222.96146 221.74130 220.63114 219.59898 218.71082 217.85966
 217.10950 216.29733 215.40317 214.77501 214.23285 215.05484 216.99686 219.16801
 221.06964 222.82549 224.21559 224.58606 224.24629 223.80721 224.12396 225.45129
 226.75510 228.98041 232.72934 237.29924 241.98715 246.48572 250.63454 254.37103
 257.63528 260.57147 263.31161 265.81137 268.07974 270.22995 272.36761 274.36948
 276.07285 277.47437 278.66968 279.78946 280.93146 281.98404 282.96057 283.85852
 284.66650 285.38043 286.00708 286.81259
 366.78100 356.34369 345.78438 334.65907 323.07076 311.27346 299.15215 286.96384
 274.68453 262.59022 250.60791 239.91760 230.04829 221.16098 213.35168 206.36237
 200.20506 195.15175 191.74244 189.79313 188.83882 188.91151 189.75521 191.07190
 192.80559 194.90928 197.18097 199.54866 202.00235 204.49104 206.58773 208.43843
 210.07312 211.22681 211.46450 211.70119 211.64688 211.36057 211.00226 210.64095
 210.26665 209.98534 209.80203 209.67472 209.61141 209.95110 210.34579 210.74348
 211.54518 212.73187 213.99056 215.78225 217.71894 219.77063 221.87432 223.96601
 226.03470 228.12740 230.23309 232.34778 234.48547 236.66616 238.93085 241.30954
 243.93923 246.19892 248.20962 249.98331 251.40900 252.54069 253.37138 253.69607
 253.74176 253.52445 252.89315 251.84984 250.46453 248.63422 246.55191 244.39360
 242.19329 240.00598 237.83467 235.68237 233.55106 231.42675 229.46144 227.62713
 225.91882 224.39951 223.03820 221.81889 220.70959 219.67828 218.79097 217.94066
 217.19135 216.38004 215.48673 214.85942 214.31812 215.10934 216.97873 219.18611
 221.06659 222.76787 224.09117 224.45921 224.18552 223.70099 223.95772 225.20822
 226.66138 229.12874 232.91115 237.45470 242.12250 246.59996 250.72717 254.44377
 257.69473 260.63052 263.37189 265.85950 268.12128 270.28009 272.42902 274.42789
 276.10651 277.47272 278.63458 279.70581 280.78613 281.82974 282.78830 283.66577
 284.47855 285.21164 285.84854 286.65176
 366.78100 356.34399 345.78499 334.65998 323.07198 311.27497 299.15397 286.96596
 274.68695 262.59295 250.61094 239.92094 230.05193 221.16492 213.35592 206.36691
 200.20991 195.15690 191.74790 189.79889 188.84488 188.91788 189.76187 191.07887
 192.81286 194.91685 197.18885 199.55684 202.01084 204.49983 206.59683 208.44782
 210.08281 211.23681 211.47480 211.71180 211.65779 211.37179 211.01378 210.65277
 210.27877 209.99776 209.81476 209.68775 209.62474 209.96474 210.35973 210.75773
 211.55972 212.74672 214.00571 215.79770 217.73470 219.78669 221.89069 223.98268
 226.05167 228.14467 230.25066 232.36566 234.50365 236.68465 238.94964 241.32863
 243.95863 246.21862 248.22962 250.00361 251.42961 252.56160 253.39259 253.71759
 253.76358 253.54658 252.91557 251.87256 250.48756 248.65755 246.57555 244.41754
 242.21754 240.03053 237.85952 235.70752 233.57651 231.45251 229.48750 227.65349
 225.94549 224.42648 223.06548 221.84647 220.73747 219.70646 218.81945 217.96945
 217.22044 216.40944 215.51643 214.88942 214.34842 215.13579 216.99605 219.16513
 221.07672 222.76843 223.96844 224.27635 224.05968 223.60193 223.87967 225.02069
 226.52649 229.21033 233.09293 237.62704 242.26579 246.71524 250.81792 254.51213
 257.75314 260.69189 263.43216 265.90579 268.16217 270.32788 272.48303 274.46860
 276.11804 277.45963 278.60275 279.65048 280.69061 281.72406 282.68289 283.55273
 284.36182 285.10059 285.73477 286.53690
 366.78100 356.34407 345.78515 334.66022 323.07229 311.27536 299.15444 286.96651
 274.68758 262.59365 250.61173 239.92180 230.05287 221.16594 213.35702 206.36809
 200.21116 195.15823 191.74931 189.80038 188.84645 188.91953 189.76360 191.08067
 192.81474 194.91882 197.19089 199.55896 202.01303 204.50211 206.59918 208.45025
 210.08532 211.23940 211.47747 211.71454 211.66061 211.37469 211.01676 210.65583
 210.28190 210.00098 209.81805 209.69112 209.62820 209.96827 210.36334 210.76141
 211.56349 212.75056 214.00963 215.80170 217.73878 219.79085 221.89492 223.98699
 226.05607 228.14914 230.25521 232.37028 234.50836 236.68943 238.95450 241.33358
 243.96365 246.22372 248.23479 250.00887 251.43494 252.56701 253.39808 253.72316
 253.76923 253.55230 252.92137 251.87845 250.49352 248.66359 246.58166 244.42374
 242.22381 240.03688 237.86596 235.71403 233.58310 231.45917 229.49425 227.66032
 225.95239 224.43346 223.07254 221.85361 220.74468 219.71375 218.82683 217.97690
 217.22797 216.41704 215.52412 214.89719 214.35626 215.14964 217.02408 219.13319
 221.07430 222.75600 223.86909 224.11374 223.90417 223.46954 223.78006 224.87712
 226.42148 229.27515 233.26422 237.80086 242.41188 246.83365 250.91200 254.58360
 257.81314 260.75467 263.49731 265.95984 268.20776 270.37192 272.52640 274.49994
 276.11505 277.42395 278.54144 279.58557 280.65588 281.69177 282.64874 283.52600
 284.32785 285.05939 285.69806 286.50092
 366.78100 356.34434 345.78568 334.66102 323.07336 311.27670 299.15604 286.96838
 274.68972 262.59606 250.61440 239.92474 230.05608 221.16942 213.36076 206.37210
 200.21544 195.16278 191.75412 189.80546 188.85180 188.92514 189.76948 191.08682
 192.82116 194.92550 197.19784 199.56618 202.02052 204.50986 206.60720 208.45854
 210.09388 211.24822 211.48656 211.72390 211.67024 211.38458 211.02692 210.66626
 210.29260 210.01194 209.82928 209.70262 209.63996 209.98030 210.37564 210.77398
 211.57632 212.76366 214.02300 215.81534 217.75268 219.80502 221.90936 224.00170
 226.07104 228.16438 230.27072 232.38606 234.52440 236.70574 238.97108 241.35042
 243.98076 246.24110 248.25244 250.02678 251.45312 252.58546 253.41680 253.74214
 253.78848 253.57182 252.94116 251.89850 250.51384 248.68418 246.60252 244.44486
 242.24520 240.05854 237.88788 235.73622 233.60556 231.48190 229.51724 227.68358
 225.97592 224.45726 223.09660 221.87794 220.76928 219.73862 218.85196 218.00230
 217.25364 216.44298 215.55032 214.92366 214.38300 215.17178 217.03539 219.11461
 221.07166 222.72209 223.77527 223.97560 223.74602 223.31889 223.64854 224.73720
 226.34775 229.34827 233.43105 237.97469 242.56026 246.95625 251.01328 254.66460
 257.88321 260.82492 263.57089 266.02600 268.25970 270.41858 272.57193 274.53317
 276.11411 277.38898 278.48315 279.53217 280.63593 281.67691 282.63660 283.51227
 284.31277 285.03958 285.67792 286.48431
 366.78100 356.34472 345.78643 334.66215 323.07486 311.27858 299.15829 286.97101
 274.69272 262.59944 250.61815 239.92887 230.06058 221.17430 213.36601 206.37773
 200.22144 195.16916 191.76087 189.81259 188.85930 188.93302 189.77773 191.09545
 192.83016 194.93488 197.20759 199.57631 202.03102 204.52074 206.61846 208.47017
 210.10589 211.26060 211.49932 211.73703 211.68375 211.39846 211.04118 210.68089
 210.30761 210.02732 209.84504 209.71875 209.65647 209.99718 210.39290 210.79161
 211.59433 212.78204 214.04176 215.83447 217.77219 219.82490 221.92962 224.02233
 226.09205 228.18576 230.29248 232.40820 234.54691 236.72863 238.99434 241.37406
 244.00477 246.26549 248.27720 250.05192 251.47863 252.61135 253.44306 253.76878
 253.81549 253.59921 252.96892 251.92664 250.54235 248.71307 246.63178 244.47450
 242.27521 240.08893 237.91864 235.76736 233.63707 231.51379 229.54950 227.71622
 226.00893 224.49065 223.13037 221.91208 220.80380 219.77351 218.88723 218.03794
 217.28966 216.47937 215.58709 214.96080 214.42052 215.19849 217.03654 219.10541
 221.06775 222.68568 223.68176 223.83623 223.57681 223.15631 223.49648 224.60167
 226.29781 229.42975 233.59512 238.14746 242.70856 247.07982 251.11835 254.75204
 257.96124 260.90482 263.65152 266.09259 268.32208 270.46381 272.61349 274.55997
 276.11581 277.36752 278.44836 279.50391 280.62094 281.66425 282.62354 283.49899
 284.29825 285.02158 285.65625 286.46942
 366.78100 356.34507 345.78714 334.66321 323.07628 311.28035 299.16042 286.97349
 274.69556 262.60263 250.62170 239.93277 230.06484 221.17891 213.37098 206.38305
 200.22712 195.17519 191.76726 189.81933 188.86640 188.94047 189.78554 191.10361
 192.83868 194.94375 197.21682 199.58589 202.04096 204.53103 206.62910 208.48117
 210.11724 211.27231 211.51138 211.74945 211.69652 211.41159 211.05466 210.69473
 210.32180 210.04187 209.85994 209.73401 209.67208 210.01315 210.40922 210.80829
 211.61136 212.79943 214.05950 215.85257 217.79064 219.84371 221.94878 224.04185
 226.11192 228.20600 230.31307 232.42914 234.56821 236.75028 239.01635 241.39642
 244.02749 246.28856 248.30063 250.07570 251.50277 252.63584 253.46791 253.79398
 253.84105 253.62512 252.99519 251.95326 250.56933 248.74040 246.65947 244.50254
 242.30361 240.11768 237.94775 235.79682 233.66689 231.54396 229.58003 227.74710
 226.04017 224.52224 223.16231 221.94438 220.83645 219.80652 218.92059 218.07166
 217.32373 216.51380 215.62187 214.99594 214.45601 215.22437 217.03967 219.10056
 221.05753 222.65218 223.58934 223.68727 223.39294 222.98198 223.33167 224.47667
 226.26859 229.52164 233.76132 238.31949 242.85797 247.20795 251.23000 254.84596
 258.04532 260.98950 263.73996 266.16943 268.36646 270.52704 272.65887 274.58713
 276.12247 277.35678 278.43060 279.49460 280.61566 281.66058 282.62128 283.49680
 284.29318 285.01138 285.64407 286.46103
 366.78100 356.34542 345.78784 334.66426 323.07768 311.28210 299.16252 286.97594
 274.69836 262.60578 250.62520 239.93662 230.06904 221.18346 213.37588 206.38830
 200.23272 195.18114 191.77356 189.82598 188.87340 188.94782 189.79324 191.11166
 192.84708 194.95250 197.22592 199.59534 202.05075 204.54117 206.63959 208.49201
 210.12843 211.28385 211.52327 211.76169 211.70911 211.42453 211.06795 210.70837
 210.33579 210.05621 209.87463 209.74905 209.68747 210.02889 210.42531 210.82473
 211.62815 212.81657 214.07699 215.87041 217.80883 219.86225 221.96767 224.06109
 226.13151 228.22593 230.33335 232.44977 234.58919 236.77161 239.03803 241.41845
 244.04987 246.31129 248.32371 250.09913 251.52655 252.65997 253.49239 253.81881
 253.86623 253.65065 253.02107 251.97949 250.59591 248.76733 246.68675 244.53017
 242.33159 240.14601 237.97643 235.82585 233.69626 231.57368 229.61010 227.77752
 226.07094 224.55336 223.19378 221.97620 220.86862 219.83904 218.95346 218.10488
 217.35730 216.54772 215.65614 215.03056 214.49098 215.24989 217.04288 219.09312
 221.04236 222.62044 223.50345 223.53706 223.20207 222.79604 223.15198 224.35014
 226.24638 229.62299 233.92854 238.48964 243.00908 247.34224 251.35078 254.94868
 258.13788 261.08319 263.83896 266.26636 268.36734 270.60410 272.70615 274.61417
 276.13394 277.35983 278.43442 279.50479 280.62411 281.66754 282.62772 283.50357
 284.29886 285.01517 285.64575 286.45511
 366.78100 356.34584 345.78867 334.66551 323.07935 311.28418 299.16502 286.97886
 274.70169 262.60953 250.62937 239.94120 230.07404 221.18887 213.38171 206.39455
 200.23938 195.18822 191.78106 189.83389 188.88173 188.95657 189.80240 191.12124
 192.85708 194.96291 197.23675 199.60659 202.06242 204.55326 206.65210 208.50493
 210.14177 211.29761 211.53744 211.77628 211.72412 211.43995 211.08379 210.72462
 210.35246 210.07330 209.89213 209.76697 209.70581 210.04764 210.44448 210.84432
 211.64815 212.83699 214.09783 215.89166 217.83050 219.88434 221.99017 224.08401
 226.15485 228.24968 230.35752 232.47436 234.61419 236.79703 239.06387 241.44470
 244.07654 246.33837 248.35121 250.12705 251.55488 252.68872 253.52156 253.84839
 253.89623 253.68107 253.05190 252.01074 250.62758 248.79941 246.71925 244.56309
 242.36492 240.17976 238.01060 235.86043 233.73127 231.60911 229.64594 227.81378
 226.10762 224.59045 223.23129 222.01412 220.90696 219.87780 218.99263 218.14447
 217.39731 216.58814 215.69698 215.07182 214.53265 215.27687 217.03517 219.07803
 221.03365 222.60219 223.43167 223.39197 223.00447 222.59361 222.95050 224.20789
 226.22134 229.72847 234.09798 238.66229 243.16869 247.49042 251.48779 255.07001
 258.25189 261.19818 263.95660 266.29468 268.36719 270.68787 272.75397 274.64621
 276.15063 277.37119 278.45499 279.53131 280.64917 281.69223 282.65250 283.52872
 284.32483 285.04254 285.67322 286.48123
 366.78100 356.34635 345.78969 334.66704 323.08138 311.28673 299.16808 286.98242
 274.70577 262.61411 250.63446 239.94680 230.08015 221.19550 213.38884 206.40219
 200.24753 195.19688 191.79023 189.84357 188.89192 188.96726 189.81361 191.13296
 192.86930 194.97565 197.24999 199.62034 202.07668 204.56803 206.66738 208.52072
 210.15807 211.31441 211.55476 211.79411 211.74245 211.45880 211.10314 210.74449
 210.37284 210.09418 209.91353 209.78887 209.72822 210.07056 210.46791 210.86826
 211.67260 212.86195 214.12329 215.91764 217.85699 219.91133 222.01768 224.11202
 226.18337 228.27871 230.38706 232.50441 234.64475 236.82810 239.09544 241.47679
 244.10914 246.37148 248.38483 250.16117 251.58952 252.72387 253.55721 253.88456
 253.93290 253.71825 253.08959 252.04894 250.66629 248.83863 246.75898 244.60332
 242.40567 240.22102 238.05236 235.90271 233.77405 231.65240 229.68975 227.85809
 226.15244 224.63578 223.27713 222.06047 220.95382 219.92517 219.04051 218.19286
 217.44620 216.63755 215.74690 215.12224 214.58359 215.31046 217.02777 219.05397
 221.02234 222.58656 223.37035 223.24776 222.80344 222.37823 222.72939 224.05527
 226.19447 229.83266 234.26538 238.83453 243.33582 247.65268 251.64017 255.20428
 258.37589 261.31519 264.05936 266.27817 268.48361 270.76245 272.79568 274.68198
 276.18790 277.40445 278.48410 279.55801 280.66547 281.70782 282.66815 283.54486
 284.34155 285.05911 285.69077 286.49915
 366.78100 356.34681 345.79061 334.66842 323.08323 311.28903 299.17084 286.98565
 274.70946 262.61826 250.63907 239.95188 230.08568 221.20149 213.39530 206.40910
 200.25491 195.20472 191.79853 189.85233 188.90114 188.97695 189.82375 191.14356
 192.88037 194.98717 197.26198 199.63279 202.08960 204.58140 206.68121 208.53502
 210.17282 211.32963 211.57044 211.81024 211.75905 211.47586 211.12067 210.76247
 210.39128 210.11309 209.93289 209.80870 209.74851 210.09131 210.48912 210.88993
 211.69474 212.88454 214.14635 215.94116 217.88096 219.93577 222.04258 224.13738
 226.20919 228.30500 230.41381 232.53161 234.67242 236.85623 239.12403 241.50584
 244.13865 246.40145 248.41526 250.19207 251.62088 252.75568 253.58949 253.91730
 253.96610 253.75191 253.12372 252.08352 250.70133 248.87414 246.79495 244.63975
 242.44256 240.25837 238.09017 235.94098 233.81279 231.69159 229.72940 227.89821
 226.19302 224.67682 223.31863 222.10244 220.99624 219.96805 219.08386 218.23666
 217.49047 216.68228 215.79209 215.16789 214.62970 215.34305 217.02841 219.03557
 221.00191 222.55815 223.30467 223.10699 222.59436 222.14865 222.50050 223.90366
 226.17618 229.94032 234.43394 239.01088 243.51297 247.82764 251.80568 255.35030
 258.50916 261.43585 264.15778 266.28748 268.54938 270.85590 272.83606 274.70181
 276.22321 277.45779 278.54630 279.60001 280.69708 281.73776 282.69809 283.57397
 284.37448 285.09351 285.72888 286.53531
 366.78100 356.34714 345.79129 334.66943 323.08457 311.29071 299.17286 286.98800
 274.71214 262.62129 250.64243 239.95557 230.08972 221.20586 213.40000 206.41414
 200.26029 195.21043 191.80457 189.85872 188.90786 188.98400 189.83115 191.15129
 192.88843 194.99557 197.27072 199.64186 202.09900 204.59115 206.69129 208.54543
 210.18358 211.34072 211.58186 211.82200 211.77115 211.48829 211.13343 210.77558
 210.40472 210.12686 209.94701 209.82315 209.76329 210.10643 210.50458 210.90572
 211.71086 212.90101 214.16315 215.95829 217.89844 219.95358 222.06072 224.15586
 226.22801 228.32415 230.43329 232.55144 234.69258 236.87672 239.14487 241.52701
 244.16015 246.42329 248.43744 250.21458 251.64372 252.77887 253.61301 253.94115
 253.99030 253.77644 253.14858 252.10872 250.72687 248.90001 246.82115 244.66630
 242.46944 240.28558 238.11773 235.96887 233.84101 231.72015 229.75830 227.92744
 226.22258 224.70673 223.34887 222.13301 221.02716 219.99930 219.11544 218.26858
 217.52273 216.71487 215.82501 215.20116 214.66330 215.36827 217.03383 219.01732
 220.98055 222.52820 223.23430 222.95782 222.39122 221.91191 222.24628 223.75291
 226.17264 230.05437 234.60057 239.18938 243.69228 248.00926 251.98073 255.50362
 258.64899 261.56659 264.27872 266.37344 268.57886 270.86020 272.87595 274.72009
 276.25848 277.51715 278.61612 279.65350 280.75684 281.79877 282.76035 283.64026
 284.44077 285.16571 285.80399 286.61899
 366.78100 356.34724 345.79148 334.66973 323.08497 311.29121 299.17345 286.98870
 274.71294 262.62218 250.64342 239.95666 230.09091 221.20715 213.40139 206.41563
 200.26187 195.21212 191.80636 189.86060 188.90984 188.98609 189.83333 191.15357
 192.89081 194.99805 197.27330 199.64454 202.10178 204.59402 206.69427 208.54851
 210.18675 211.34399 211.58523 211.82548 211.77472 211.49196 211.13720 210.77944
 210.40869 210.13093 209.95117 209.82741 209.76766 210.11090 210.50914 210.91038
 211.71562 212.90587 214.16811 215.96335 217.90359 219.95884 222.06608 224.16132
 226.23356 228.32980 230.43905 232.55729 234.69853 236.88277 239.15102 241.53326
 244.16650 246.42974 248.44398 250.22123 251.65047 252.78571 253.61995 253.94819
 253.99744 253.78368 253.15592 252.11616 250.73441 248.90765 246.82889 244.67413
 242.47737 240.29362 238.12586 235.97710 233.84934 231.72859 229.76683 227.93607
 226.23131 224.71555 223.35780 222.14204 221.03628 220.00852 219.12476 218.27801
 217.53225 216.72449 215.83473 215.21098 214.67322 215.37717 217.04030 218.99908
 220.95659 222.50793 223.17645 222.81624 222.16014 221.65546 222.00912 223.59378
 226.14700 230.15625 234.76683 239.37468 243.88173 248.19647 252.15851 255.66112
 258.79312 261.69681 264.39127 266.48056 268.61057 270.82404 272.89664 274.72388
 276.27640 277.55588 278.66360 279.70065 280.81573 281.86102 282.82382 283.70285
 284.50851 285.23889 285.88303 286.70694
 366.78100 356.34736 345.79173 334.67009 323.08546 311.29182 299.17418 286.98955
 274.71391 262.62327 250.64464 239.95800 230.09237 221.20873 213.40309 206.41746
 200.26382 195.21418 191.80855 189.86291 188.91228 188.98864 189.83600 191.15637
 192.89373 195.00109 197.27646 199.64782 202.10519 204.59755 206.69791 208.55228
 210.19064 211.34801 211.58937 211.82973 211.77910 211.49646 211.14182 210.78419
 210.41355 210.13592 209.95628 209.83264 209.77301 210.11637 210.51473 210.91610
 211.72146 212.91183 214.17419 215.96955 217.90992 219.96528 222.07264 224.16801
 226.24037 228.33674 230.44610 232.56446 234.70583 236.89019 239.15855 241.54092
 244.17428 246.43765 248.45201 250.22937 251.65874 252.79410 253.62847 253.95683
 254.00619 253.79256 253.16492 252.12528 250.74365 248.91701 246.83838 244.68374
 242.48710 240.30347 238.13583 235.98719 233.85956 231.73892 229.77729 227.94665
 226.24201 224.72638 223.36874 222.15310 221.04747 220.01983 219.13620 218.28956
 217.54392 216.73629 215.84665 215.22302 214.68538 215.38467 217.03687 218.98361
 220.92470 222.48480 223.13736 222.69363 221.97276 221.39394 221.67863 223.42888
 226.17311 230.27954 234.94209 239.57602 244.07697 248.37773 252.32184 255.81161
 258.94052 261.82584 264.47980 266.61194 268.64371 270.84775 272.92831 274.73404
 276.29239 277.58365 278.69412 279.73788 280.86316 281.90887 282.87167 283.75693
 284.56329 285.29697 285.94669 286.77930
 366.78100 356.34760 345.79220 334.67080 323.08640 311.29300 299.17560 286.99120
 274.71580 262.62541 250.64701 239.96061 230.09521 221.21181 213.40641 206.42101
 200.26761 195.21821 191.81281 189.86741 188.91701 188.99361 189.84121 191.16181
 192.89941 195.00702 197.28262 199.65422 202.11182 204.60442 206.70502 208.55962
 210.19822 211.35582 211.59742 211.83802 211.78762 211.50522 211.15082 210.79342
 210.42302 210.14562 209.96623 209.84283 209.78343 210.12703 210.52563 210.92723
 211.73283 212.92343 214.18603 215.98163 217.92223 219.97783 222.08543 224.18103
 226.25363 228.35023 230.45984 232.57844 234.72004 236.90464 239.17324 241.55584
 244.18944 246.45304 248.46764 250.24524 251.67484 252.81044 253.64504 253.97364
 254.02324 253.80984 253.18244 252.14305 250.76165 248.93525 246.85685 244.70245
 242.50605 240.32265 238.15525 236.00685 233.87945 231.75905 229.79765 227.96725
 226.26285 224.74745 223.39005 222.17466 221.06926 220.04186 219.15846 218.31206
 217.56666 216.75926 215.86986 215.24646 214.70906 215.39824 217.02652 218.97060
 220.89415 222.44092 223.08707 222.61475 221.80605 220.99651 221.37112 223.39766
 226.24777 230.39001 235.09717 239.76643 244.26425 248.55156 252.48103 255.95573
 259.08749 261.96588 264.57782 266.70526 268.70715 270.86862 272.95813 274.75574
 276.30328 277.60547 278.73264 279.77695 280.89371 281.93845 282.90201 283.78381
 284.59305 285.33154 285.98175 286.83063
 366.78100 356.34775 345.79250 334.67125 323.08699 311.29374 299.17649 286.99224
 274.71699 262.62674 250.64849 239.96223 230.09698 221.21373 213.40848 206.42323
 200.26998 195.22073 191.81548 189.87022 188.91997 188.99672 189.84447 191.16522
 192.90297 195.01072 197.28646 199.65821 202.11596 204.60871 206.70946 208.56421
 210.20296 211.36070 211.60245 211.84320 211.79295 211.51070 211.15645 210.79920
 210.42894 210.15169 209.97244 209.84919 209.78994 210.13369 210.53244 210.93418
 211.73993 212.93068 214.19343 215.98918 217.92993 219.98568 222.09343 224.18917
 226.26192 228.35867 230.46842 232.58717 234.72892 236.91367 239.18241 241.56516
 244.19891 246.46266 248.47741 250.25516 251.68491 252.82065 253.65540 253.98415
 254.03390 253.82065 253.19340 252.15415 250.77289 248.94664 246.86839 244.71414
 242.51789 240.33464 238.16739 236.01914 233.89188 231.77163 229.81038 227.98013
 226.27588 224.76063 223.40338 222.18812 221.08287 220.05562 219.17237 218.32612
 217.58087 216.77362 215.88436 215.26111 214.72386 215.40520 217.01492 218.96002
 220.88112 222.38451 223.00266 222.52548 221.64284 220.64629 221.07944 223.30623
 226.28563 230.51566 235.25752 239.95520 244.45186 248.72542 252.64236 256.10309
 259.23688 262.11801 264.71021 266.78265 268.76627 270.87802 272.98682 274.77179
 276.29358 277.60419 278.74124 279.80032 280.92712 281.97229 282.93582 283.82040
 284.62775 285.36609 286.01898 286.87448
 366.78100 356.34783 345.79265 334.67148 323.08730 311.29413 299.17695 286.99278
 274.71760 262.62743 250.64926 239.96308 230.09791 221.21473 213.40956 206.42438
 200.27121 195.22203 191.81686 189.87168 188.92151 188.99834 189.84616 191.16699
 192.90481 195.01264 197.28846 199.66029 202.11811 204.61094 206.71177 208.56659
 210.20542 211.36324 211.60507 211.84589 211.79572 211.51354 211.15937 210.80220
 210.43202 210.15485 209.97567 209.85250 209.79332 210.13715 210.53597 210.93780
 211.74363 212.93445 214.19728 215.99310 217.93393 219.98975 222.09758 224.19340
 226.26623 228.36305 230.47288 232.59171 234.73353 236.91836 239.18718 241.57001
 244.20383 246.46766 248.48248 250.26031 251.69014 252.82596 253.66079 253.98961
 254.03944 253.82626 253.19909 252.15991 250.77874 248.95257 246.87439 244.72022
 242.52404 240.34087 238.17369 236.02552 233.89834 231.77817 229.81699 227.98682
 226.28265 224.76747 223.41030 222.19512 221.08995 220.06277 219.17960 218.33342
 217.58825 216.78108 215.89190 215.26873 214.73155 215.40929 217.01053 218.94029
 220.86420 222.34209 222.90759 222.39983 221.46376 220.35760 220.79924 223.16409
 226.29906 230.65018 235.43079 240.13911 244.64058 248.89900 252.79990 256.24066
 259.37628 262.26917 264.87018 266.89780 268.79025 270.93982 273.01556 274.78891
 276.31119 277.62756 278.74802 279.79880 280.92166 281.96661 282.92929 283.81128
 284.62030 285.35767 286.01184 286.88129
 366.78100 356.34783 345.79265 334.67148 323.08730 311.29413 299.17695 286.99278
 274.71761 262.62743 250.64926 239.96308 230.09791 221.21473 213.40956 206.42439
 200.27121 195.22204 191.81686 189.87169 188.92151 188.99834 189.84616 191.16699
 192.90482 195.01264 197.28847 199.66029 202.11812 204.61094 206.71177 208.56660
 210.20542 211.36325 211.60507 211.84590 211.79572 211.51355 211.15938 210.80220
 210.43203 210.15485 209.97568 209.85250 209.79333 210.13716 210.53598 210.93781
 211.74363 212.93446 214.19728 215.99311 217.93394 219.98976 222.09759 224.19341
 226.26624 228.36306 230.47289 232.59171 234.73354 236.91837 239.18719 241.57002
 244.20384 246.46767 248.48249 250.26032 251.69015 252.82597 253.66080 253.98962
 254.03945 253.82627 253.19910 252.15993 250.77875 248.95258 246.87440 244.72023
 242.52405 240.34088 238.17371 236.02553 233.89836 231.77818 229.81701 227.98683
 226.28266 224.76748 223.41031 222.19514 221.08996 220.06279 219.17961 218.33344
 217.58826 216.78109 215.89192 215.26874 214.73157 215.40817 217.00674 218.92587
 220.83607 222.30571 222.82387 222.25206 221.25258 220.08894 220.53456 223.03017
 226.31969 230.78326 235.60542 240.32938 244.82430 249.07684 252.96530 256.37381
 259.49390 262.39648 265.01251 267.03403 268.82089 270.97806 273.05832 274.83682
 276.37729 277.69745 278.79904 279.78638 280.85818 281.89505 282.85635 283.73645
 284.54260 285.28259 285.93619 286.82095
 366.78100 356.34775 345.79251 334.67126 323.08701 311.29377 299.17652 286.99227
 274.71702 262.62678 250.64853 239.96228 230.09704 221.21379 213.40854 206.42330
 200.27005 195.22080 191.81555 189.87031 188.92006 188.99681 189.84457 191.16532
 192.90307 195.01083 197.28658 199.65833 202.11609 204.60884 206.70959 208.56434
 210.20310 211.36085 211.60260 211.84336 211.79311 211.51086 211.15662 210.79937
 210.42912 210.15187 209.97263 209.84938 209.79013 210.13389 210.53264 210.93439
 211.74015 212.93090 214.19365 215.98941 217.93016 219.98591 222.09366 224.18942
 226.26217 228.35892 230.46868 232.58743 234.72918 236.91394 239.18269 241.56544
 244.19919 246.46295 248.47770 250.25545 251.68521 252.82096 253.65571 253.98447
 254.03422 253.82097 253.19373 252.15448 250.77323 248.94698 246.86874 244.71449
 242.51824 240.33500 238.16775 236.01950 233.89226 231.77201 229.81076 227.98051
 226.27627 224.76102 223.40377 222.18853 221.08328 220.05603 219.17279 218.32654
 217.58129 216.77405 215.88480 215.26155 214.72430 215.39835 216.99088 218.92154
 220.81429 222.26239 222.73283 222.10602 221.04459 219.85005 220.28113 222.88467
 226.34242 230.92062 235.77347 240.51028 244.99821 249.22990 253.09784 256.48209
 259.59015 262.49033 265.11548 267.22208 268.85281 271.05276 273.14169 274.92773
 276.47647 277.79526 278.90067 279.84589 280.77264 281.77225 282.72882 283.60406
 284.40988 285.14871 285.80359 286.69565
 366.78100 356.34752 345.79204 334.67056 323.08608 311.29259 299.17511 286.99063
 274.71515 262.62467 250.64619 239.95971 230.09423 221.21075 213.40527 206.41978
 200.26630 195.21682 191.81134 189.86586 188.91538 188.99190 189.83942 191.15994
 192.89746 195.00497 197.28049 199.65201 202.10953 204.60205 206.70257 208.55709
 210.19561 211.35313 211.59465 211.83516 211.78468 211.50220 211.14772 210.79024
 210.41976 210.14228 209.96280 209.83932 209.77983 210.12335 210.52187 210.92339
 211.72891 212.91943 214.18195 215.97747 217.91799 219.97351 222.08102 224.17654
 226.24906 228.34558 230.45510 232.57362 234.71514 236.89966 239.16818 241.55070
 244.18421 246.44773 248.46225 250.23977 251.66929 252.80481 253.63933 253.96785
 254.01737 253.80388 253.17640 252.13692 250.75544 248.92896 246.85048 244.69600
 242.49952 240.31604 238.14856 236.00007 233.87259 231.75211 229.79063 227.96015
 226.25567 224.74019 223.38271 222.16723 221.06175 220.03426 219.15078 218.30430
 217.55882 216.75134 215.86186 215.23838 214.70090 215.38135 216.98900 218.90126
 220.79311 222.22903 222.63152 221.92429 220.83475 219.65314 220.05319 222.74907
 226.37628 231.05960 235.93861 240.67033 245.16495 249.38353 253.21506 256.56760
 259.65726 262.53122 265.13333 267.33820 269.05353 271.18741 273.24503 275.02911
 276.58365 277.91501 279.04184 279.98370 280.80618 281.63824 282.56012 283.43204
 284.23535 284.97702 285.64676 286.55078
 354.97500 345.04800 334.58700 324.11500 313.32600 302.53700 291.65000 280.76700
 269.93100 259.19300 248.62200 238.61700 229.08700 220.35500 212.54000 205.53500
 199.46400 194.49300 191.14300 189.19000 188.08900 188.01400 188.72400 189.90600
 191.46900 193.38200 195.40300 197.55600 199.80700 202.06000 204.28800 206.47900
 208.55200 210.37800 212.02500 213.65900 214.99800 216.11800 217.17200 218.25900
 219.49400 220.64500 221.67900 222.61400 223.54500 224.98200 226.57100 228.19000
 229.79700 231.81100 233.86500 235.97200 238.24200 240.55300 242.89900 245.25300
 247.48800 249.53500 251.36600 252.84800 254.09800 255.16700 256.02700 256.25300
 256.09500 255.54300 253.93500 252.56600 251.38400 250.24500 249.05200 247.70100
 246.01600 243.99600 241.78400 239.39300 236.81300 234.22300 231.65800 229.14400
 226.74000 224.47300 222.33500 220.32500 218.44000 216.67700 214.96200 213.47200
 212.20000 211.10800 210.26000 209.63900 209.24400 209.03100 209.05800 209.33300
 209.78400 210.62600 211.33100 212.39100 213.62500 214.84668 217.72949 219.47640
 220.32566 220.86828 220.88710 220.27371 219.43733 218.84250 219.04934 220.86203
 222.60583 225.72206 229.03064 232.61777 236.12270 239.51333 242.70767 245.68587
 248.41061 250.90679 253.19353 254.91714 256.48655 257.94920 259.39966 260.69384
 261.81714 262.77997 263.71679 264.54570 265.26305 265.89772 266.47676 267.00133
 267.47312 267.89325 268.26027 268.72800
