|-------------------------------------------------------------------------|
|   File Name : in_temp.dat
|   Subject   : temperature profiles used for initial guess atmosphere
|   File Type : input of gmtr
|   Data Type : atmospherical data
|   Author/s  : WRF-Chem
|   Date      : Fri Jul 26 15:39:24 2024
|-------------------------------------------------------------------------|

 WRF-Chem temperature
#
 values of T (K)    (8f10.5)
#
 354.97500 345.04800 334.58700 324.11500 313.32600 302.53700 291.65000 280.76700
 269.93100 259.19300 248.62200 238.61700 229.08700 220.35500 212.54000 205.53500
 199.46400 194.49300 191.14300 189.19000 188.08900 188.01400 188.72400 189.90600
 191.46900 193.38200 195.40300 197.55600 199.80700 202.06000 204.28800 206.47900
 208.55200 210.37800 212.02500 213.65900 214.99800 216.11800 217.17200 218.25900
 219.49400 220.64500 221.67900 222.61400 223.54500 224.98200 226.57100 228.19000
 229.79700 231.81100 233.86500 235.97200 238.24200 240.55300 242.89900 245.25300
 247.48800 249.53500 251.36600 252.84800 254.09800 255.16700 256.02700 256.25300
 256.09500 255.54300 253.93500 252.56600 251.38400 250.24500 249.05200 247.70100
 246.01600 243.99600 241.78400 239.39300 236.81300 234.22300 231.65800 229.14400
 226.74000 224.47300 222.33500 220.32500 218.44000 216.67700 214.96200 213.47200
 212.20000 211.10800 210.26000 209.63900 209.24400 209.03100 209.05800 209.33300
 209.78400 210.62600 211.33100 212.39100 213.62500 214.84668 217.72949 219.47640
 220.32566 220.86828 220.88710 220.27371 219.43733 218.84250 219.04934 220.86203
 222.60583 225.72206 229.03064 232.61777 236.12270 239.51333 242.70767 245.68587
 248.41061 250.90679 253.19353 254.91714 256.48655 257.94920 259.39966 260.69384
 261.81714 262.77997 263.71679 264.54570 265.26305 265.89772 266.47676 267.00133
 267.47312 267.89325 268.26027 268.72800
 366.78100 356.33500 345.76700 334.63300 323.03600 311.23000 299.10000 286.90300
 274.61500 262.51200 250.52100 239.82200 229.94400 221.04800 213.23000 206.23200
 200.06600 195.00400 191.58600 189.62800 188.66500 188.72900 189.56400 190.87200
 192.59700 194.69200 196.95500 199.31400 201.75900 204.23900 206.32700 208.16900
 209.79500 210.94000 211.16900 211.39700 211.33400 211.03900 210.67200 210.30200
 209.91900 209.62900 209.43700 209.30100 209.22900 209.56000 209.94600 210.33500
 211.12800 212.30600 213.55600 215.33900 217.26700 219.31000 221.40500 223.48800
 225.54800 227.63200 229.72900 231.83500 233.96400 236.13600 238.39200 240.76200
 243.38300 245.63400 247.63600 249.40100 250.81800 251.94100 252.76300 253.07900
 253.11600 252.89000 252.25000 251.19800 249.80400 247.96500 245.87400 243.70700
 241.49800 239.30200 237.12200 234.96100 232.82100 230.68800 228.71400 226.87100
 225.15400 223.62600 222.25600 221.02800 219.91000 218.87000 217.97400 217.11500
 216.35700 215.53700 214.63500 213.99900 213.44900 212.85855 212.01316 212.61654
 214.26826 216.08686 218.14273 220.53346 223.40855 226.78828 231.49734 235.90155
 239.42278 243.28576 247.23140 251.11907 254.80144 258.23331 261.38913 264.27520
 266.89312 269.26852 271.44504 273.08845 274.58484 275.98591 277.39845 278.65879
 279.75272 280.69038 281.56708 282.34086 283.01050 283.60295 284.14348 284.63317
 285.07358 285.46577 285.80838 286.24500
 381.81900 372.39900 361.20600 349.77600 337.62200 324.85300 311.81000 298.35300
 284.86000 271.32400 258.56100 246.30400 236.08700 226.79600 218.44800 211.29000
 205.52200 200.89400 197.38100 194.84800 193.01500 192.31500 192.25000 192.43100
 192.91200 193.53700 194.13600 194.71200 195.26200 195.83100 196.39300 196.97600
 197.60400 198.14900 198.58400 199.05700 199.69500 200.37800 201.05400 201.70800
 202.31300 202.85700 203.35500 203.86200 204.56900 205.29700 206.02600 206.98700
 208.19300 209.44100 210.96900 212.57600 214.46200 216.51300 218.63000 220.85300
 223.34100 225.96200 228.73900 231.69700 234.70600 237.70600 240.69200 243.65700
 246.73700 249.69900 252.52100 255.06300 257.29000 259.23300 260.63300 261.68000
 262.46100 262.79800 262.69100 262.22400 261.06900 259.52500 257.70700 255.50700
 253.00100 250.30200 247.39800 244.45200 241.65400 239.05400 236.73300 234.59000
 232.59500 230.72500 228.83400 226.82600 224.66600 222.38700 220.10400 217.71500
 215.45900 213.06600 210.54600 208.09300 205.35400 202.08130 196.05959 200.71215
 209.01611 216.90438 223.84126 229.78593 235.00632 240.20838 245.98943 250.68668
 254.32982 257.93487 261.55666 264.96801 268.15192 271.06452 273.76717 276.25691
 278.57680 280.74479 282.77456 284.60533 286.27232 287.81705 289.31715 290.65561
 291.81734 292.81312 293.70701 294.49387 295.17482 295.77730 296.32696 296.82492
 297.27278 297.67160 298.02000 298.46400
 399.33000 389.90700 379.81300 368.66800 357.52200 345.30100 333.07400 320.22700
 307.21600 293.84800 280.37600 267.29600 254.61000 242.98700 232.15100 221.97700
 212.67200 204.28600 197.66900 192.82100 189.48600 187.45200 186.81400 187.08900
 187.78100 189.05400 190.64800 192.54200 194.63000 196.75200 198.67100 200.15800
 201.53500 202.48700 202.97500 203.34000 203.53900 203.49700 203.38500 203.24700
 203.00500 202.78600 202.60300 202.43700 202.42600 202.88800 203.42000 203.95100
 204.89500 205.99200 207.30100 208.95800 210.73800 213.10000 215.56400 218.18000
 220.96600 223.91800 226.96100 230.09200 233.29300 236.55700 239.95500 243.53700
 246.84500 249.39000 251.54200 253.47400 255.19500 256.48400 257.43100 258.05900
 258.21200 258.04000 257.58200 256.64300 255.23900 253.50700 251.40800 249.05600
 246.57600 243.99400 241.38900 238.83000 236.34400 233.98600 231.96900 230.11800
 228.42300 226.89900 225.54800 224.29700 223.10500 221.96500 220.95800 220.11300
 219.49000 218.92000 218.32500 217.88100 217.42300 216.96366 216.35568 216.80261
 217.73415 218.28582 218.64258 219.10077 220.44626 222.53987 226.38451 230.35736
 233.59734 237.39164 241.29814 245.22796 248.98002 252.51130 255.78595 258.80109
 261.54781 264.05210 266.34239 268.04198 269.58951 271.01303 272.35754 273.55718
 274.59842 275.49092 276.28989 276.99307 277.60161 278.14001 278.63122 279.07623
 279.47646 279.83287 280.14422 280.54100
 399.73800 389.78500 379.66200 368.15100 356.64100 344.35000 331.79200 318.88800
 305.72600 292.49300 279.20900 266.73800 254.69600 244.21100 234.45700 225.43300
 217.56900 210.45100 204.30000 199.30600 195.45800 192.57600 191.02700 190.38600
 190.23900 190.53400 191.16600 191.92500 192.79500 193.76600 194.73200 195.31200
 195.80000 196.05200 196.11500 196.11500 196.03900 195.72300 195.34000 194.98900
 194.75100 194.79200 195.13300 195.59800 196.50600 198.13600 199.85800 201.56600
 204.17900 206.82300 209.89300 213.28400 216.82800 220.60500 224.38700 228.20900
 232.03200 235.82500 239.56000 243.25800 246.84500 250.20100 253.70900 257.46800
 261.53000 264.22100 266.60100 268.68100 270.32900 271.74100 272.83600 273.47400
 273.89800 274.00200 273.75700 273.28800 272.37100 271.10000 269.58900 267.77900
 265.81600 263.72100 261.39300 258.91600 256.29800 253.42300 250.33100 247.11400
 243.83700 240.52900 237.24900 233.99900 230.72800 227.51500 224.25400 220.95200
 217.62700 213.65600 210.12100 206.78900 204.01000 201.99491 199.07309 198.76551
 199.40006 200.48994 201.46112 202.31912 203.45100 204.96110 207.47502 210.85391
 213.70530 217.29629 220.99574 224.72316 228.28753 231.64854 234.68024 237.40893
 239.70644 241.60899 243.46854 245.67368 247.68154 249.52395 251.24767 252.78566
 254.12057 255.26479 256.23740 257.09036 257.82852 258.48160 259.07744 259.61723
 260.10271 260.53504 260.91270 261.39400
 399.73800 389.78500 379.66200 368.15100 356.64100 344.35000 331.79200 318.88800
 305.72600 292.49300 279.20900 266.73800 254.69600 244.21100 234.45700 225.43300
 217.56900 210.45100 204.30000 199.30600 195.45800 192.57600 191.02700 190.38600
 190.23900 190.53400 191.16600 191.92500 192.79500 193.76600 194.73200 195.31200
 195.80000 196.05200 196.11500 196.11500 196.03900 195.72300 195.34000 194.98900
 194.75100 194.79200 195.13300 195.59800 196.50600 198.13600 199.85800 201.56600
 204.17900 206.82300 209.89300 213.28400 216.82800 220.60500 224.38700 228.20900
 232.03200 235.82500 239.56000 243.25800 246.84500 250.20100 253.70900 257.46800
 261.53000 264.22100 266.60100 268.68100 270.32900 271.74100 272.83600 273.47400
 273.89800 274.00200 273.75700 273.28800 272.37100 271.10000 269.58900 267.77900
 265.81600 263.72100 261.39300 258.91600 256.29800 253.42300 250.33100 247.11400
 243.83700 240.52900 237.24900 233.99900 230.72800 227.51500 224.25400 220.95200
 217.62700 213.65600 210.12100 206.78900 204.01000 201.99491 199.07309 198.76551
 199.40006 200.48994 201.46112 202.31912 203.45100 204.96110 207.47502 210.85391
 213.70530 217.29629 220.99574 224.72316 228.28753 231.64854 234.68024 237.40893
 239.70644 241.60899 243.46854 245.67368 247.68154 249.52395 251.24767 252.78566
 254.12057 255.26479 256.23740 257.09036 257.82852 258.48160 259.07744 259.61723
 260.10271 260.53504 260.91270 261.39400
 399.33000 389.90700 379.81300 368.66800 357.52200 345.30100 333.07400 320.22700
 307.21600 293.84800 280.37600 267.29600 254.61000 242.98700 232.15100 221.97700
 212.67200 204.28600 197.66900 192.82100 189.48600 187.45200 186.81400 187.08900
 187.78100 189.05400 190.64800 192.54200 194.63000 196.75200 198.67100 200.15800
 201.53500 202.48700 202.97500 203.34000 203.53900 203.49700 203.38500 203.24700
 203.00500 202.78600 202.60300 202.43700 202.42600 202.88800 203.42000 203.95100
 204.89500 205.99200 207.30100 208.95800 210.73800 213.10000 215.56400 218.18000
 220.96600 223.91800 226.96100 230.09200 233.29300 236.55700 239.95500 243.53700
 246.84500 249.39000 251.54200 253.47400 255.19500 256.48400 257.43100 258.05900
 258.21200 258.04000 257.58200 256.64300 255.23900 253.50700 251.40800 249.05600
 246.57600 243.99400 241.38900 238.83000 236.34400 233.98600 231.96900 230.11800
 228.42300 226.89900 225.54800 224.29700 223.10500 221.96500 220.95800 220.11300
 219.49000 218.92000 218.32500 217.88100 217.42300 216.96366 216.35568 216.80261
 217.73415 218.28582 218.64258 219.10077 220.44626 222.53987 226.38451 230.35736
 233.59734 237.39164 241.29814 245.22796 248.98002 252.51130 255.78595 258.80109
 261.54781 264.05210 266.34239 268.04198 269.58951 271.01303 272.35754 273.55718
 274.59842 275.49092 276.28989 276.99307 277.60161 278.14001 278.63122 279.07623
 279.47646 279.83287 280.14422 280.54100
 381.81900 372.39900 361.20600 349.77600 337.62200 324.85300 311.81000 298.35300
 284.86000 271.32400 258.56100 246.30400 236.08700 226.79600 218.44800 211.29000
 205.52200 200.89400 197.38100 194.84800 193.01500 192.31500 192.25000 192.43100
 192.91200 193.53700 194.13600 194.71200 195.26200 195.83100 196.39300 196.97600
 197.60400 198.14900 198.58400 199.05700 199.69500 200.37800 201.05400 201.70800
 202.31300 202.85700 203.35500 203.86200 204.56900 205.29700 206.02600 206.98700
 208.19300 209.44100 210.96900 212.57600 214.46200 216.51300 218.63000 220.85300
 223.34100 225.96200 228.73900 231.69700 234.70600 237.70600 240.69200 243.65700
 246.73700 249.69900 252.52100 255.06300 257.29000 259.23300 260.63300 261.68000
 262.46100 262.79800 262.69100 262.22400 261.06900 259.52500 257.70700 255.50700
 253.00100 250.30200 247.39800 244.45200 241.65400 239.05400 236.73300 234.59000
 232.59500 230.72500 228.83400 226.82600 224.66600 222.38700 220.10400 217.71500
 215.45900 213.06600 210.54600 208.09300 205.35400 202.08130 196.05959 200.71215
 209.01611 216.90438 223.84126 229.78593 235.00632 240.20838 245.98943 250.68668
 254.32982 257.93487 261.55666 264.96801 268.15192 271.06452 273.76717 276.25691
 278.57680 280.74479 282.77456 284.60533 286.27232 287.81705 289.31715 290.65561
 291.81734 292.81312 293.70701 294.49387 295.17482 295.77730 296.32696 296.82492
 297.27278 297.67160 298.02000 298.46400
 366.78100 356.34217 345.78135 334.65452 323.06470 311.26587 299.14305 286.95322
 274.67240 262.57657 250.59275 239.90092 230.03010 221.14127 213.33045 206.33962
 200.18080 195.12597 191.71515 189.76432 188.80849 188.87967 189.72184 191.03702
 192.76919 194.87137 197.14154 199.50772 201.95989 204.44707 206.54224 208.39142
 210.02459 211.17677 211.41294 211.64812 211.59229 211.30447 210.94464 210.58181
 210.20599 209.92316 209.73834 209.60951 209.54469 209.88286 210.27604 210.67221
 211.47239 212.65756 213.91474 215.70491 217.64009 219.69026 221.79244 223.88261
 225.94979 228.04096 230.14513 232.25831 234.39448 236.57366 238.83683 241.21401
 243.84218 246.10036 248.10953 249.88171 251.30588 252.43606 253.26523 253.58841
 253.63258 253.41376 252.78093 251.73611 250.34928 248.51745 246.43363 244.27380
 242.07198 239.88315 237.71033 235.55650 233.42368 231.29785 229.33103 227.49520
 225.78538 224.26455 222.90173 221.68090 220.57008 219.53725 218.64842 217.79660
 217.04577 216.23295 215.33812 214.70930 214.16647 213.14835 210.75122 209.89384
 210.35875 210.86066 212.29375 215.26956 219.42784 224.15334 229.84645 234.92886
 238.82222 242.81645 247.04036 251.22110 255.01704 258.79108 261.66031 263.51160
 266.12192 268.86212 271.36423 273.58170 275.55185 277.29391 278.81363 280.40158
 282.13956 283.77411 285.31537 286.67725 287.85571 288.89941 289.85266 290.71783
 291.49750 292.19260 292.80383 293.60532
 366.78100 356.34198 345.78096 334.65394 323.06392 311.26491 299.14189 286.95187
 274.67085 262.57483 250.59081 239.89879 230.02777 221.13875 213.32774 206.33672
 200.17770 195.12268 191.71166 189.76064 188.80462 188.87560 189.71758 191.03257
 192.76455 194.86653 197.13651 199.50249 201.95447 204.44145 206.53643 208.38541
 210.01840 211.17038 211.40636 211.64134 211.58532 211.29730 210.93728 210.57426
 210.19824 209.91523 209.73021 209.60119 209.53617 209.87415 210.26713 210.66311
 211.46309 212.64807 213.90505 215.69504 217.63002 219.68000 221.78198 223.87196
 225.93894 228.02992 230.13390 232.24688 234.38287 236.56185 238.82483 241.20181
 243.82979 246.08777 248.09675 249.86873 251.29271 252.42270 253.25168 253.57466
 253.61864 253.39962 252.76660 251.72158 250.33456 248.50254 246.41853 244.25851
 242.05649 239.86747 237.69445 235.54043 233.40741 231.28139 229.31437 227.47836
 225.76834 224.24732 222.88430 221.66328 220.55226 219.51924 218.63022 217.77820
 217.02719 216.21417 215.31915 214.69013 214.14711 213.16647 210.85687 210.00377
 210.35950 210.92685 212.35429 215.20393 219.32310 224.08022 229.76231 234.83824
 238.72432 242.71266 246.95062 251.15182 254.95474 258.74121 261.62674 263.49194
 266.11938 268.86200 271.34155 273.51334 275.50159 277.28616 278.77795 280.32791
 282.05493 283.67719 285.21387 286.57272 287.75186 288.79694 289.75070 290.61594
 291.39685 292.09201 292.70209 293.51059
 366.78100 356.34172 345.78044 334.65316 323.06289 311.26361 299.14033 286.95005
 274.66877 262.57249 250.58821 239.89594 230.02466 221.13538 213.32410 206.33282
 200.17354 195.11826 191.70699 189.75571 188.79943 188.87015 189.71187 191.02659
 192.75831 194.86003 197.12976 199.49548 201.94720 204.43392 206.52864 208.37736
 210.01008 211.16181 211.39753 211.63225 211.57597 211.28769 210.92741 210.56413
 210.18786 209.90458 209.71930 209.59002 209.52474 209.86246 210.25518 210.65091
 211.45063 212.63535 213.89207 215.68179 217.61651 219.66623 221.76796 223.85768
 225.92440 228.01512 230.11884 232.23156 234.36728 236.54601 238.80873 241.18545
 243.81317 246.07089 248.07961 249.85133 251.27505 252.40478 253.23350 253.55622
 253.59994 253.38066 252.74738 251.70210 250.31483 248.48255 246.39827 244.23799
 242.03571 239.84643 237.67315 235.51888 233.38560 231.25932 229.29204 227.45576
 225.74548 224.22420 222.86093 221.63965 220.52837 219.49509 218.60581 217.75353
 217.00225 216.18898 215.29370 214.66442 214.12114 213.18076 210.96518 210.10747
 210.37898 210.97432 212.40588 215.16988 219.21123 223.99178 229.68234 234.75557
 238.63361 242.61517 246.86414 251.08424 254.89388 258.68967 261.58731 263.46802
 266.11157 268.85773 271.31696 273.44516 275.45306 277.28174 278.74579 280.25870
 281.97287 283.58249 285.11151 286.47198 287.65094 288.69556 289.64951 290.51505
 291.29462 291.99274 292.60522 293.41061
 366.78100 356.34141 345.77982 334.65224 323.06165 311.26206 299.13847 286.94789
 274.66630 262.56971 250.58512 239.89253 230.02095 221.13136 213.31977 206.32818
 200.16860 195.11301 191.70142 189.74983 188.79325 188.86366 189.70507 191.01948
 192.75089 194.85231 197.12172 199.48713 201.93854 204.42496 206.51937 208.36778
 210.00019 211.15160 211.38702 211.62143 211.56484 211.27625 210.91567 210.55208
 210.17549 209.89190 209.70631 209.57673 209.51114 209.84855 210.24096 210.63638
 211.43579 212.62020 213.87661 215.66602 217.60044 219.64985 221.75126 223.84067
 225.90709 227.99750 230.10091 232.21332 234.34874 236.52715 238.78956 241.16597
 243.79338 246.05080 248.05921 249.83062 251.25403 252.38345 253.21186 253.53427
 253.57768 253.35809 252.72451 251.67892 250.29133 248.45874 246.37416 244.21357
 242.01098 239.82139 237.64780 235.49322 233.35963 231.23304 229.26545 227.42887
 225.71828 224.19669 222.83310 221.61151 220.49993 219.46634 218.57675 217.72416
 216.97258 216.15899 215.26340 214.63381 214.09023 213.19164 211.07372 210.21037
 210.40710 211.01672 212.44331 215.14636 219.10284 223.90215 229.61070 234.67950
 238.54727 242.51979 246.77809 251.01512 254.83353 258.63647 261.54425 263.44150
 266.09921 268.84827 271.29126 273.37808 275.40466 277.27798 278.71783 280.19412
 281.89407 283.49356 285.01279 286.37198 287.55212 288.59659 289.55179 290.41727
 291.19803 291.89618 292.51071 293.31711
 366.78100 356.34118 345.77937 334.65155 323.06073 311.26092 299.13710 286.94628
 274.66447 262.56765 250.58283 239.89002 230.01820 221.12838 213.31657 206.32475
 200.16493 195.10912 191.69730 189.74548 188.78867 188.85885 189.70003 191.01422
 192.74540 194.84658 197.11577 199.48095 201.93213 204.41832 206.51250 208.36068
 209.99287 211.14405 211.37923 211.61342 211.55660 211.26778 210.90697 210.54315
 210.16633 209.88252 209.69670 209.56688 209.50107 209.83825 210.23044 210.62562
 211.42480 212.60899 213.86517 215.65435 217.58854 219.63772 221.73890 223.82809
 225.89427 227.98445 230.08764 232.19982 234.33500 236.51319 238.77537 241.15155
 243.77874 246.03592 248.04410 249.81529 251.23847 252.36765 253.19584 253.51802
 253.56120 253.34139 252.70757 251.66175 250.27394 248.44112 246.35630 244.19549
 241.99267 239.80285 237.62904 235.47422 233.34040 231.21359 229.24577 227.40895
 225.69814 224.17632 222.81250 221.59069 220.47887 219.44505 218.55524 217.70242
 216.95060 216.13679 215.24097 214.61115 214.06734 213.20569 211.17430 210.32033
 210.43947 211.05632 212.47108 215.12456 219.00510 223.80952 229.54453 234.60304
 238.46028 242.42554 246.69257 250.94658 254.77515 258.58450 261.49921 263.41165
 266.08170 268.83295 271.26181 273.31189 275.35550 277.27145 278.69257 280.13617
 281.82037 283.40955 284.91690 286.27576 287.45749 288.50156 289.45593 290.32324
 291.10431 291.80301 292.41663 293.22842
 366.78100 356.34102 345.77904 334.65106 323.06008 311.26009 299.13611 286.94513
 274.66315 262.56617 250.58119 239.88821 230.01623 221.12625 213.31426 206.32228
 200.16230 195.10632 191.69434 189.74236 188.78538 188.85540 189.69642 191.01043
 192.74145 194.84247 197.11149 199.47651 201.92753 204.41355 206.50757 208.35559
 209.98760 211.13862 211.37364 211.60766 211.55068 211.26170 210.90072 210.53674
 210.15976 209.87577 209.68979 209.55981 209.49383 209.83085 210.22287 210.61789
 211.41691 212.60093 213.85694 215.64596 217.57998 219.62900 221.73002 223.81904
 225.88506 227.97508 230.07810 232.19011 234.32513 236.50315 238.76517 241.14119
 243.76821 246.02523 248.03325 249.80427 251.22728 252.35630 253.18432 253.50634
 253.54936 253.32938 252.69540 251.64942 250.26143 248.42845 246.34347 244.18249
 241.97951 239.78953 237.61555 235.46057 233.32659 231.19960 229.23162 227.39464
 225.68366 224.16168 222.79770 221.57572 220.46374 219.42976 218.53977 217.68679
 216.93481 216.12083 215.22485 214.59487 214.05089 213.22188 211.26703 210.43835
 210.47627 211.09248 212.49306 215.10144 218.91580 223.71458 229.48097 234.52478
 238.37280 242.33292 246.60892 250.87978 254.72156 258.53439 261.45370 263.37915
 266.05783 268.81027 271.22784 273.24442 275.30276 277.25827 278.66830 280.08426
 281.75089 283.33286 284.82675 286.18591 287.36649 288.41211 289.36697 290.23370
 291.01578 291.71478 292.32980 293.14386
 366.78100 356.34082 345.77864 334.65046 323.05928 311.25910 299.13492 286.94374
 274.66155 262.56437 250.57919 239.88601 230.01383 221.12365 213.31147 206.31929
 200.15911 195.10293 191.69075 189.73857 188.78139 188.85121 189.69202 191.00584
 192.73666 194.83748 197.10630 199.47112 201.92194 204.40776 206.50158 208.34940
 209.98122 211.13204 211.36686 211.60068 211.54349 211.25431 210.89313 210.52895
 210.15177 209.86759 209.68141 209.55123 209.48505 209.82187 210.21369 210.60851
 211.40733 212.59115 213.84696 215.63578 217.56960 219.61842 221.71924 223.80806
 225.87388 227.96370 230.06652 232.17834 234.31316 236.49098 238.75280 241.12862
 243.75543 246.01225 248.02007 249.79089 251.21371 252.34253 253.17035 253.49217
 253.53499 253.31481 252.68063 251.63445 250.24627 248.41309 246.32791 244.16672
 241.96354 239.77336 237.59918 235.44400 233.30982 231.18264 229.21446 227.37728
 225.66610 224.14392 222.77974 221.55756 220.44538 219.41119 218.52101 217.66783
 216.91565 216.10147 215.20529 214.57511 214.03093 213.23549 211.35944 210.55865
 210.51888 211.12868 212.50635 215.07797 218.83455 223.61757 229.41582 234.44447
 238.28506 242.24197 246.52667 250.81451 254.67212 258.48782 261.40970 263.34521
 266.02835 268.78049 271.18784 273.17636 275.24554 277.23560 278.64322 280.03839
 281.68936 283.26151 284.74274 286.10208 287.28186 288.32913 289.28363 290.15073
 290.93411 291.63318 292.24860 293.06479
 366.78100 356.34054 345.77809 334.64963 323.05817 311.25772 299.13326 286.94180
 274.65935 262.56189 250.57644 239.88298 230.01052 221.12007 213.30761 206.31515
 200.15470 195.09824 191.68578 189.73333 188.77587 188.84541 189.68596 190.99950
 192.73005 194.83059 197.09913 199.46368 201.91422 204.39976 206.49331 208.34085
 209.97239 211.12294 211.35748 211.59102 211.53357 211.24411 210.88266 210.51820
 210.14074 209.85629 209.66983 209.53937 209.47292 209.80946 210.20100 210.59555
 211.39409 212.57763 213.83318 215.62172 217.55527 219.60381 221.70435 223.79290
 225.85844 227.94798 230.05053 232.16207 234.29661 236.47416 238.73570 241.11124
 243.73779 245.99433 248.00188 249.77242 251.19496 252.32351 253.15105 253.47259
 253.51514 253.29468 252.66022 251.61377 250.22531 248.39185 246.30640 244.14494
 241.94149 239.75103 237.57657 235.42112 233.28666 231.15920 229.19075 227.35329
 225.64183 224.11938 222.75492 221.53246 220.42001 219.38555 218.49510 217.64164
 216.88918 216.07473 215.17827 214.54781 214.00336 213.24507 211.45628 210.67511
 210.57657 211.15884 212.51361 215.05853 218.74957 223.51961 229.35088 234.36562
 238.19942 242.15326 246.44421 250.74847 254.62553 258.44452 261.36569 263.30899
 265.99246 268.74332 271.14249 273.10733 275.18552 277.20560 278.61948 280.00357
 281.63440 283.19675 284.66309 286.02277 287.20340 288.24988 289.20374 290.07312
 290.85455 291.55573 292.17221 292.98831
 366.78100 356.34033 345.77767 334.64900 323.05734 311.25667 299.13200 286.94034
 274.65767 262.56001 250.57434 239.88067 230.00801 221.11734 213.30468 206.31201
 200.15135 195.09468 191.68201 189.72935 188.77168 188.84102 189.68135 190.99468
 192.72502 194.82535 197.09369 199.45802 201.90835 204.39369 206.48702 208.33436
 209.96569 211.11602 211.35036 211.58369 211.52603 211.23636 210.87469 210.51003
 210.13236 209.84770 209.66103 209.53036 209.46370 209.80003 210.19137 210.58570
 211.38404 212.56737 213.82270 215.61104 217.54437 219.59271 221.69304 223.78137
 225.84671 227.93604 230.03838 232.14971 234.28404 236.46138 238.72271 241.09805
 243.72438 245.98071 247.98805 249.75838 251.18072 252.30905 253.13638 253.45772
 253.50005 253.27939 252.64472 251.59805 250.20939 248.37572 246.29006 244.12839
 241.92473 239.73406 237.55939 235.40373 233.26906 231.14140 229.17273 227.33506
 225.62340 224.10073 222.73607 221.51340 220.40073 219.36607 218.47540 217.62174
 216.86907 216.05440 215.15774 214.52707 213.98241 213.25769 211.54782 210.79411
 210.64308 211.19426 212.51141 215.03743 218.67383 223.42139 229.28326 234.28282
 238.11082 242.06367 246.36116 250.68149 254.58258 258.40472 261.32254 263.27173
 265.95102 268.69885 271.09433 273.03931 275.12347 277.16946 278.59869 279.97781
 281.58823 283.13647 284.58899 285.94745 287.12839 288.17416 289.12979 289.99799
 290.78104 291.48206 292.09741 292.92242
 366.78100 356.34044 345.77787 334.64931 323.05774 311.25718 299.13261 286.94105
 274.65849 262.56092 250.57536 239.88179 230.00923 221.11866 213.30610 206.31354
 200.15297 195.09641 191.68384 189.73128 188.77371 188.84315 189.68359 190.99702
 192.72746 194.82789 197.09633 199.46076 201.91120 204.39664 206.49007 208.33751
 209.96894 211.11938 211.35381 211.58725 211.52968 211.24012 210.87856 210.51399
 210.13643 209.85186 209.66530 209.53473 209.46817 209.80461 210.19604 210.59048
 211.38891 212.57235 213.82778 215.61622 217.54966 219.59809 221.69853 223.78696
 225.85240 227.94183 230.04427 232.15571 234.29014 236.46758 238.72901 241.10445
 243.73088 245.98732 247.99476 249.76519 251.18763 252.31606 253.14350 253.46493
 253.50737 253.28681 252.65224 251.60568 250.21711 248.38355 246.29798 244.13642
 241.93286 239.74229 237.56773 235.41216 233.27760 231.15003 229.18147 227.34391
 225.63234 224.10978 222.74521 221.52265 220.41008 219.37552 218.48495 217.63139
 216.87883 216.06426 215.16770 214.53713 213.99257 213.28539 211.61678 210.92159
 210.73128 211.22475 212.51416 215.01338 218.58168 223.31575 229.21245 234.20094
 238.02559 241.97823 246.27907 250.61459 254.54378 258.36935 261.28360 263.23666
 265.90631 268.65002 271.04224 272.97101 275.05743 277.12494 278.57828 279.95932
 281.54749 283.07944 284.51788 285.87561 287.05661 288.10245 289.05890 289.92551
 290.70935 291.41208 292.02835 292.85168
 366.78100 356.34055 345.77811 334.64966 323.05822 311.25777 299.13333 286.94188
 274.65944 262.56199 250.57655 239.88310 230.01066 221.12021 213.30777 206.31532
 200.15488 195.09843 191.68599 189.73354 188.77610 188.84565 189.68621 190.99976
 192.73032 194.83087 197.09943 199.46398 201.91454 204.40009 206.49365 208.34120
 209.97276 211.12331 211.35787 211.59142 211.53397 211.24453 210.88308 210.51864
 210.14119 209.85675 209.67030 209.53986 209.47341 209.80997 210.20152 210.59608
 211.39463 212.57819 213.83374 215.62230 217.55585 219.60441 221.70496 223.79352
 225.85907 227.94863 230.05118 232.16274 234.29729 236.47485 238.73640 241.11196
 243.73851 245.99507 248.00262 249.77318 251.19573 252.32429 253.15184 253.47340
 253.51595 253.29550 252.66106 251.61461 250.22617 248.39272 246.30728 244.14583
 241.94239 239.75194 237.57750 235.42205 233.28761 231.16016 229.19172 227.35427
 225.64283 224.12038 222.75594 221.53349 220.42105 219.38660 218.49616 217.64271
 216.89027 216.07582 215.17938 214.54893 214.00449 213.31473 211.68698 211.02347
 210.86511 211.27109 212.46451 214.98732 218.51550 223.21625 229.14180 234.11104
 237.92885 241.88335 246.19150 250.54451 254.50850 258.34143 261.25555 263.21030
 265.86240 268.59763 270.98724 272.90128 274.98734 277.07025 278.55249 279.94406
 281.51138 283.02460 284.44907 285.80685 286.98688 288.03333 288.98914 289.85767
 290.64233 291.34195 291.96143 292.78381
 366.78100 356.34099 345.77897 334.65096 323.05995 311.25993 299.13592 286.94491
 274.66289 262.56588 250.58087 239.88785 230.01584 221.12583 213.31381 206.32180
 200.16179 195.10577 191.69376 189.74175 188.78473 188.85472 189.69571 191.00969
 192.74068 194.84167 197.11065 199.47564 201.92663 204.41261 206.50660 208.35459
 209.98657 211.13756 211.37255 211.60653 211.54952 211.26051 210.89949 210.53548
 210.15847 209.87445 209.68844 209.55843 209.49241 209.82940 210.22139 210.61637
 211.41536 212.59935 213.85533 215.64432 217.57831 219.62729 221.72828 223.81727
 225.88325 227.97324 230.07623 232.18821 234.32320 236.50119 238.76317 241.13916
 243.76615 246.02313 248.03112 249.80211 251.22509 252.35408 253.18207 253.50405
 253.54704 253.32703 252.69301 251.64700 250.25899 248.42597 246.34096 244.17995
 241.97693 239.78692 237.61291 235.45789 233.32388 231.19687 229.22885 227.39184
 225.68083 224.15881 222.79480 221.57279 220.46077 219.42676 218.53675 217.68374
 216.93172 216.11771 215.22170 214.59168 214.04767 213.35947 211.73535 211.15155
 210.94759 211.34923 212.54117 214.92665 218.35648 223.08237 229.05353 234.00873
 237.83110 241.79546 246.11349 250.48853 254.48969 258.33075 261.24402 263.18985
 265.81500 268.53729 270.92230 272.82214 274.90833 277.00388 278.51834 279.92734
 281.47818 282.97089 284.38214 285.74005 286.92065 287.96680 288.92285 289.79181
 290.57547 291.27832 291.89673 292.72021
 366.78100 356.34160 345.78020 334.65280 323.06240 311.26300 299.13960 286.94920
 274.66780 262.57140 250.58699 239.89459 230.02319 221.13379 213.32239 206.33099
 200.17159 195.11619 191.70479 189.75339 188.79699 188.86759 189.70919 191.02379
 192.75539 194.85699 197.12659 199.49219 201.94379 204.43038 206.52498 208.37358
 210.00618 211.15778 211.39338 211.62798 211.57158 211.28318 210.92278 210.55938
 210.18298 209.89958 209.71418 209.58478 209.51938 209.85698 210.24958 210.64518
 211.44477 212.62937 213.88597 215.67557 217.61017 219.65977 221.76137 223.85097
 225.91757 228.00817 230.11177 232.22437 234.35997 236.53857 238.80117 241.17777
 243.80537 246.06297 248.07157 249.84316 251.26676 252.39636 253.22496 253.54756
 253.59116 253.37176 252.73836 251.69296 250.30556 248.47316 246.38876 244.22836
 242.02596 239.83656 237.66316 235.50876 233.37536 231.24896 229.28156 227.44515
 225.73475 224.21335 222.84995 221.62855 220.51715 219.48375 218.59435 217.74195
 216.99055 216.17715 215.28175 214.65235 214.10895 213.41568 211.77939 211.24216
 211.14185 211.39420 212.46985 214.82614 218.23099 222.95979 229.00676 233.96254
 237.78436 241.74750 246.05954 250.44809 254.48024 258.31931 261.21597 263.14764
 265.74930 268.46017 270.84332 272.73416 274.82440 276.93079 278.48294 279.91711
 281.45013 282.91940 284.31909 285.67688 286.85767 287.90292 288.85999 289.72742
 290.51300 291.21564 291.83292 292.65997
 366.78100 356.34167 345.78033 334.65300 323.06267 311.26333 299.14000 286.94967
 274.66833 262.57200 250.58766 239.89533 230.02400 221.13466 213.32333 206.33200
 200.17266 195.11733 191.70600 189.75466 188.79833 188.86900 189.71066 191.02533
 192.75700 194.85866 197.12833 199.49399 201.94566 204.43233 206.52699 208.37566
 210.00833 211.15999 211.39566 211.63033 211.57399 211.28566 210.92533 210.56199
 210.18566 209.90233 209.71699 209.58766 209.52232 209.85999 210.25266 210.64832
 211.44799 212.63266 213.88932 215.67899 217.61366 219.66332 221.76499 223.85466
 225.92132 228.01199 230.11565 232.22832 234.36399 236.54265 238.80532 241.18199
 243.80965 246.06732 248.07599 249.84765 251.27132 252.40099 253.22965 253.55232
 253.59599 253.37665 252.74332 251.69798 250.31065 248.47832 246.39398 244.23365
 242.03132 239.84198 237.66865 235.51432 233.38098 231.25465 229.28732 227.45098
 225.74065 224.21932 222.85598 221.63465 220.52331 219.48998 218.60065 217.74831
 216.99698 216.18365 215.28831 214.65898 214.11565 213.44649 211.86658 211.27640
 211.31053 211.44302 212.39162 214.76892 218.15761 222.88245 228.97893 233.93132
 237.74557 241.69922 245.99850 250.39391 254.45720 258.28714 261.15668 263.08289
 265.67142 268.37845 270.76456 272.65283 274.74667 276.86115 278.45795 279.91742
 281.43018 282.87402 284.26019 285.61548 286.79538 287.84299 288.79852 289.66766
 290.45288 291.15622 291.77463 292.60202
 366.78100 356.34166 345.78033 334.65299 323.06265 311.26331 299.13998 286.94964
 274.66830 262.57197 250.58763 239.89529 230.02396 221.13462 213.32328 206.33194
 200.17261 195.11727 191.70593 189.75460 188.79826 188.86892 189.71058 191.02525
 192.75691 194.85857 197.12824 199.49390 201.94556 204.43223 206.52689 208.37555
 210.00821 211.15988 211.39554 211.63020 211.57387 211.28553 210.92519 210.56186
 210.18552 209.90218 209.71684 209.58751 209.52217 209.85983 210.25250 210.64816
 211.44782 212.63248 213.88915 215.67881 217.61347 219.66314 221.76480 223.85446
 225.92113 228.01179 230.11545 232.22811 234.36378 236.54244 238.80510 241.18177
 243.80943 246.06709 248.07575 249.84742 251.27108 252.40074 253.22941 253.55207
 253.59573 253.37640 252.74306 251.69772 250.31038 248.47805 246.39371 244.23337
 242.03104 239.84170 237.66836 235.51403 233.38069 231.25435 229.28701 227.45068
 225.74034 224.21900 222.85567 221.63433 220.52299 219.48965 218.60032 217.74798
 216.99664 216.18331 215.28797 214.65863 214.11530 213.47205 211.95296 211.33266
 211.41714 211.47797 212.37598 214.74887 218.08737 222.82678 228.94844 233.88336
 237.68338 241.62979 245.92136 250.32619 254.42586 258.24741 261.09369 263.02225
 265.59872 268.30176 270.69156 272.58258 274.67441 276.79416 278.43677 279.92313
 281.41522 282.83279 284.20160 285.55826 286.73843 287.78427 288.74176 289.60931
 290.39679 291.09921 291.71844 292.54602
 366.78100 356.34195 345.78089 334.65384 323.06378 311.26473 299.14167 286.95162
 274.67056 262.57451 250.59045 239.89840 230.02734 221.13829 213.32723 206.33618
 200.17712 195.12207 191.71101 189.75996 188.80390 188.87485 189.71680 191.03174
 192.76369 194.86563 197.13558 199.50152 201.95347 204.44041 206.53536 208.38430
 210.01725 211.16919 211.40514 211.64008 211.58403 211.29597 210.93592 210.57286
 210.19681 209.91375 209.72870 209.59965 209.53459 209.87254 210.26548 210.66143
 211.46137 212.64632 213.90326 215.69321 217.62815 219.67810 221.78004 223.86999
 225.93693 228.02788 230.13182 232.24477 234.38071 236.55966 238.82260 241.19955
 243.82750 246.08544 248.09439 249.86633 251.29028 252.42022 253.24917 253.57211
 253.61606 253.39700 252.76395 251.71889 250.33184 248.49978 246.41573 244.25567
 242.05362 239.86456 237.69151 235.53746 233.40440 231.27835 229.31129 227.47524
 225.76518 224.24413 222.88107 221.66002 220.54896 219.51591 218.62685 217.77480
 217.02374 216.21069 215.31563 214.68658 214.14352 213.51143 212.01843 211.41570
 211.49135 211.51181 212.39229 214.73697 218.02623 222.78217 228.91107 233.82037
 237.60501 241.54785 245.83789 250.25650 254.39662 258.21124 261.03836 262.96939
 265.52927 268.22586 270.61868 272.51157 274.60123 276.72351 278.40976 279.92505
 281.39822 282.79449 284.14703 285.50330 286.68314 287.72870 288.68533 289.55432
 290.34192 291.04297 291.66464 292.49500
 366.78100 356.34238 345.78177 334.65515 323.06553 311.26691 299.14430 286.95468
 274.67406 262.57845 250.59483 239.90321 230.03259 221.14398 213.33336 206.34274
 200.18413 195.12951 191.71889 189.76827 188.81266 188.88404 189.72642 191.04181
 192.77419 194.87657 197.14695 199.51334 201.96572 204.45310 206.54849 208.39787
 210.03125 211.18363 211.42002 211.65540 211.59978 211.31217 210.95255 210.58993
 210.21431 209.93170 209.74708 209.61846 209.55385 209.89223 210.28561 210.68199
 211.48238 212.66776 213.92514 215.71553 217.65091 219.70129 221.80367 223.89406
 225.96144 228.05282 230.15721 232.27059 234.40697 236.58635 238.84974 241.22712
 243.85550 246.11389 248.12327 249.89565 251.32003 252.45042 253.27980 253.60318
 253.64757 253.42895 252.79633 251.75171 250.36510 248.53348 246.44986 244.29025
 242.08863 239.90001 237.72739 235.57378 233.44116 231.31554 229.34893 227.51331
 225.80369 224.28307 222.92046 221.69984 220.58922 219.55661 218.66799 217.81637
 217.06575 216.25314 215.35852 214.72990 214.18729 213.55905 212.07491 211.50752
 211.54559 211.56337 212.41499 214.72290 217.97990 222.74426 228.86583 233.74924
 237.52245 241.46521 245.75694 250.19029 254.37021 258.17554 260.98193 262.91360
 265.45593 268.14636 270.53964 272.43771 274.52667 276.65039 278.37955 279.92450
 281.38046 282.75620 284.09698 285.45135 286.63086 287.67596 288.63400 289.50259
 290.28854 290.99277 291.61359 292.44077
 366.78100 356.34288 345.78276 334.65664 323.06753 311.26941 299.14729 286.95817
 274.67805 262.58293 250.59981 239.90870 230.03858 221.15046 213.34034 206.35022
 200.19210 195.13798 191.72786 189.77775 188.82263 188.89451 189.73739 191.05327
 192.78615 194.88903 197.15992 199.52680 201.97968 204.46756 206.56344 208.41332
 210.04720 211.20009 211.43697 211.67285 211.61773 211.33061 210.97149 210.60937
 210.23425 209.95214 209.76802 209.63990 209.57578 209.91466 210.30854 210.70542
 211.50631 212.69219 213.95007 215.74095 217.67683 219.72771 221.83059 223.92148
 225.98936 228.08124 230.18612 232.30000 234.43688 236.61676 238.88064 241.25853
 243.88741 246.14629 248.15617 249.92905 251.35393 252.48481 253.31470 253.63858
 253.68346 253.46534 252.83322 251.78910 250.40298 248.57187 246.48875 244.32963
 242.12851 239.94039 237.76827 235.61515 233.48303 231.35792 229.39180 227.55668
 225.84756 224.32744 222.96532 221.74520 220.63509 219.60297 218.71485 217.86373
 217.11361 216.30149 215.40737 214.77926 214.23714 213.60924 212.12575 211.59924
 211.58569 211.62952 212.44197 214.70706 217.95998 222.70686 228.81297 233.67448
 237.44115 241.38673 245.67924 250.12682 254.34332 258.13428 260.91473 262.84921
 265.37860 268.06454 270.45749 272.36472 274.45325 276.58078 278.34814 279.92130
 281.36420 282.71967 284.04749 285.40201 286.58075 287.62762 288.58334 289.45309
 290.24036 290.94388 291.56326 292.39374
 366.78100 356.34340 345.78379 334.65819 323.06959 311.27198 299.15038 286.96178
 274.68217 262.58757 250.60497 239.91436 230.04476 221.15716 213.34756 206.35795
 200.20035 195.14675 191.73714 189.78754 188.83294 188.90533 189.74873 191.06513
 192.79852 194.90192 197.17332 199.54071 201.99411 204.48251 206.57890 208.42930
 210.06370 211.21709 211.45449 211.69089 211.63629 211.34968 210.99108 210.62948
 210.25487 209.97327 209.78967 209.66206 209.59846 209.93786 210.33225 210.72965
 211.53105 212.71744 213.97584 215.76724 217.70363 219.75503 221.85843 223.94982
 226.01822 228.11062 230.21601 232.33041 234.46781 236.64821 238.91260 241.29100
 243.92040 246.17979 248.19019 249.96359 251.38898 252.52038 253.35078 253.67517
 253.72057 253.50297 252.87136 251.82776 250.44216 248.61155 246.52895 244.37035
 242.16974 239.98214 237.81054 235.65794 233.52633 231.40173 229.43613 227.60152
 225.89292 224.37332 223.01171 221.79211 220.68251 219.65090 218.76330 217.91270
 217.16309 216.35149 215.45789 214.83028 214.28868 213.65994 212.17444 211.68513
 211.62378 211.69719 212.48006 214.69716 217.94916 222.66879 228.75647 233.59825
 237.36209 241.30992 245.60298 250.06439 254.31390 258.08401 260.83521 262.77737
 265.29929 267.98273 270.37625 272.29376 274.38449 276.51395 278.31778 279.91525
 281.34567 282.68561 284.00128 285.35477 286.53525 287.57922 288.53635 289.40594
 290.19403 290.89566 291.51874 292.34732
 366.78100 356.34387 345.78475 334.65962 323.07150 311.27437 299.15325 286.96512
 274.68599 262.59187 250.60974 239.91962 230.05049 221.16337 213.35424 206.36511
 200.20799 195.15486 191.74574 189.79661 188.84249 188.91536 189.75923 191.07611
 192.80998 194.91386 197.18573 199.55360 202.00748 204.49635 206.59323 208.44410
 210.07898 211.23285 211.47072 211.70760 211.65347 211.36735 211.00922 210.64810
 210.27397 209.99284 209.80972 209.68259 209.61947 209.95934 210.35422 210.75209
 211.55396 212.74084 213.99971 215.79159 217.72846 219.78034 221.88421 223.97608
 226.04496 228.13783 230.24371 232.35858 234.49646 236.67733 238.94220 241.32108
 243.95095 246.21083 248.22170 249.99558 251.42145 252.55332 253.38420 253.70907
 253.75495 253.53782 252.90670 251.86357 250.47844 248.64832 246.56619 244.40807
 242.20794 240.02081 237.84969 235.69756 233.56644 231.44231 229.47719 227.64306
 225.93493 224.41581 223.05468 221.83556 220.72643 219.69531 218.80818 217.95805
 217.20893 216.39780 215.50468 214.87755 214.33643 213.70866 212.22548 211.75996
 211.67015 211.76117 212.52960 214.70039 217.93742 222.63017 228.70128 233.52451
 237.28430 241.23230 245.52654 250.00160 254.28030 258.02457 260.74612 262.69946
 265.22064 267.90231 270.29498 272.22351 274.31772 276.45050 278.28424 279.90396
 281.32315 282.65021 283.95770 285.31085 286.49066 287.53632 288.49319 289.36221
 290.14868 290.85327 291.47714 292.30420
 366.78100 356.34439 345.78578 334.66118 323.07357 311.27696 299.15635 286.96874
 274.69014 262.59653 250.61492 239.92531 230.05671 221.17010 213.36149 206.37288
 200.21627 195.16367 191.75506 189.80645 188.85284 188.92623 189.77063 191.08802
 192.82241 194.92680 197.19920 199.56759 202.02198 204.51137 206.60876 208.46016
 210.09555 211.24994 211.48833 211.72572 211.67212 211.38651 211.02890 210.66829
 210.29469 210.01408 209.83147 209.70486 209.64225 209.98265 210.37804 210.77643
 211.57882 212.76621 214.02561 215.81800 217.75539 219.80778 221.91218 224.00457
 226.07396 228.16735 230.27374 232.38914 234.52753 236.70892 238.97431 241.35370
 243.98410 246.24449 248.25588 250.03027 251.45667 252.58906 253.42045 253.74584
 253.79223 253.57563 252.94502 251.90241 250.51780 248.68819 246.60659 244.44898
 242.24937 240.06276 237.89216 235.74055 233.60994 231.48633 229.52172 227.68812
 225.98051 224.46190 223.10129 221.88268 220.77408 219.74347 218.85686 218.00725
 217.25865 216.44804 215.55543 214.92882 214.38821 213.75876 212.27162 211.82852
 211.72621 211.81586 212.58633 214.71996 217.92345 222.59337 228.65080 233.45332
 237.20329 241.15016 245.44826 249.93929 254.24326 257.95694 260.64841 262.61737
 265.14279 267.82230 270.21277 272.15295 274.25223 276.39020 278.24841 279.88644
 281.29712 282.61478 283.91684 285.26950 286.44836 287.49564 288.45081 289.32144
 290.10568 290.81229 291.43417 292.26239
 366.78100 356.34493 345.78685 334.66278 323.07570 311.27963 299.15955 286.97248
 274.69440 262.60133 250.62025 239.93118 230.06310 221.17703 213.36895 206.38088
 200.22480 195.17273 191.76466 189.81658 188.86351 188.93743 189.78236 191.10028
 192.83521 194.94013 197.21306 199.58198 202.03691 204.52683 206.62476 208.47668
 210.11261 211.26753 211.50646 211.74438 211.69131 211.40624 211.04916 210.68909
 210.31601 210.03594 209.85386 209.72779 209.66571 210.00664 210.40256 210.80149
 211.60441 212.79234 214.05226 215.84519 217.78311 219.83604 221.94097 224.03389
 226.10382 228.19774 230.30467 232.42059 234.55952 236.74144 239.00737 241.38729
 244.01822 246.27914 248.29107 250.06599 251.49292 252.62584 253.45777 253.78370
 253.83062 253.61455 252.98447 251.94240 250.55832 248.72925 246.64817 244.49110
 242.29202 240.10595 237.93587 235.78480 233.65472 231.53165 229.56757 227.73450
 226.02742 224.50935 223.14928 221.93120 220.82313 219.79305 218.90698 218.05790
 217.30983 216.49975 215.60768 214.98160 214.44153 213.80888 212.31418 211.88979
 211.79053 211.87473 212.64470 214.74855 217.91296 222.55534 228.59946 233.38387
 237.12068 241.06520 245.36929 249.87851 254.20404 257.88116 260.54172 262.53049
 265.06702 267.74368 270.12894 272.08292 274.18976 276.33273 278.21185 279.86572
 281.26990 282.58133 283.87875 285.23187 286.41156 287.45566 288.41199 289.28009
 290.06802 290.77292 291.39517 292.22427
 366.78100 356.34565 345.78830 334.66495 323.07859 311.28324 299.16389 286.97754
 274.70019 262.60784 250.62749 239.93913 230.07178 221.18643 213.37908 206.39173
 200.23638 195.18503 191.77767 189.83032 188.87797 188.95262 189.79827 191.11692
 192.85257 194.95821 197.23186 199.60151 202.05716 204.54781 206.64646 208.49911
 210.13575 211.29140 211.53105 211.76970 211.71735 211.43300 211.07664 210.71729
 210.34494 210.06559 209.88424 209.75889 209.69754 210.03918 210.43583 210.83548
 211.63913 212.82778 214.08843 215.88208 217.82072 219.87437 221.98002 224.07367
 226.14432 228.23897 230.34662 232.46326 234.60291 236.78556 239.05221 241.43286
 244.06451 246.32616 248.33880 250.11445 251.54210 252.67575 253.50840 253.83505
 253.88270 253.66734 253.03799 251.99664 250.61329 248.78494 246.70459 244.54824
 242.34988 240.16453 237.99518 235.84483 233.71548 231.59313 229.62978 227.79742
 226.09107 224.57372 223.21437 221.99702 220.88967 219.86032 218.97496 218.12661
 217.37926 216.56991 215.67856 215.05321 214.51385 213.86795 212.34190 211.95164
 211.86562 211.93253 212.71187 214.78406 217.89490 222.51607 228.55276 233.31316
 237.03345 240.97668 245.29034 249.81975 254.16251 257.79703 260.42615 262.44150
 264.99466 267.66708 270.04477 272.01385 274.12946 276.27780 278.17355 279.84094
 281.24176 282.54980 283.84399 285.19727 286.37543 287.41968 288.37570 289.24503
 290.03033 290.73840 291.35989 292.18866
 366.78100 356.34648 345.78997 334.66745 323.08194 311.28742 299.16891 286.98339
 274.70688 262.61536 250.63584 239.94833 230.08181 221.19730 213.39078 206.40427
 200.24975 195.19924 191.79272 189.84620 188.89469 188.97017 189.81666 191.13614
 192.87263 194.97911 197.25360 199.62408 202.08056 204.57205 206.67153 208.52502
 210.16250 211.31899 211.55947 211.79895 211.74744 211.46392 211.10841 210.74989
 210.37838 210.09986 209.91935 209.79483 209.73431 210.07680 210.47428 210.87477
 211.67925 212.86874 214.13022 215.92471 217.86419 219.91867 222.02516 224.11964
 226.19113 228.28661 230.39510 232.51258 234.65307 236.83655 239.10403 241.48552
 244.11800 246.38049 248.39397 250.17046 251.59894 252.73343 253.56691 253.89439
 253.94288 253.72836 253.09985 252.05933 250.67682 248.84930 246.76979 244.61427
 242.41675 240.23224 238.06372 235.91421 233.78569 231.66418 229.70166 227.87015
 226.16463 224.64811 223.28960 222.07308 220.96657 219.93805 219.05354 218.20602
 217.45950 216.65099 215.76047 215.13596 214.59744 213.93195 212.35960 212.00729
 211.95515 211.99803 212.76207 214.82198 217.90320 222.47591 228.49721 233.23448
 236.94525 240.88942 245.21538 249.76582 254.12231 257.70874 260.30334 262.34906
 264.92398 267.59067 269.95737 271.94110 274.06973 276.22372 278.13278 279.81134
 281.21133 282.51874 283.81277 285.16464 286.34274 287.38718 288.34286 289.21335
 289.99857 290.70532 291.32693 292.15582
 366.78100 356.34725 345.79149 334.66974 323.08498 311.29123 299.17347 286.98872
 274.71297 262.62221 250.64346 239.95670 230.09095 221.20719 213.40144 206.41569
 200.26193 195.21218 191.80642 189.86067 188.90991 188.98616 189.83341 191.15365
 192.89090 194.99814 197.27339 199.64463 202.10188 204.59412 206.69437 208.54862
 210.18686 211.34411 211.58535 211.82560 211.77484 211.49209 211.13734 210.77958
 210.40883 210.13107 209.95132 209.82756 209.76781 210.11106 210.50930 210.91055
 211.71579 212.90604 214.16828 215.96353 217.90378 219.95902 222.06627 224.16151
 226.23376 228.33000 230.43925 232.55750 234.69874 236.88299 239.15123 241.53348
 244.16672 246.42997 248.44422 250.22146 251.65071 252.78595 253.62020 253.94844
 253.99769 253.78394 253.15618 252.11643 250.73467 248.90792 246.82916 244.67441
 242.47765 240.29390 238.12615 235.97739 233.84964 231.72888 229.76713 227.93637
 226.23162 224.71587 223.35811 222.14236 221.03660 220.00885 219.12509 218.27834
 217.53259 216.72483 215.83508 215.21132 214.67357 213.99069 212.37733 212.06158
 212.02896 212.06895 212.83743 214.85805 217.89177 222.43442 228.45506 233.16832
 236.86501 240.80724 245.14397 249.71466 254.07895 257.61053 260.16605 262.24863
 264.85278 267.51324 269.86606 271.86832 274.01038 276.17120 278.09048 279.77835
 281.18146 282.49133 283.78384 285.13528 286.31256 287.35828 288.31284 289.18124
 289.96848 290.67325 291.29565 292.12656
 366.78100 356.34786 345.79272 334.67158 323.08744 311.29431 299.17717 286.99303
 274.71789 262.62775 250.64961 239.96347 230.09833 221.21520 213.41006 206.42492
 200.27178 195.22264 191.81750 189.87236 188.92222 188.99909 189.84695 191.16781
 192.90567 195.01353 197.28939 199.66125 202.11911 204.61198 206.71284 208.56770
 210.20656 211.36442 211.60628 211.84714 211.79700 211.51487 211.16073 210.80359
 210.43345 210.15631 209.97717 209.85403 209.79489 210.13876 210.53762 210.93948
 211.74534 212.93620 214.19906 215.99492 217.93578 219.99165 222.09951 224.19537
 226.26823 228.36509 230.47495 232.59381 234.73567 236.92053 239.18940 241.57226
 244.20612 246.46998 248.48484 250.26270 251.69256 252.82842 253.66329 253.99215
 254.04201 253.82887 253.20173 252.16259 250.78145 248.95531 246.87718 244.72304
 242.52690 240.34376 238.17662 236.02848 233.90134 231.78120 229.82007 227.98993
 226.28579 224.77065 223.41351 222.19837 221.09323 220.06609 219.18296 218.33682
 217.59168 216.78454 215.89540 215.27226 214.73512 214.04070 212.40004 212.10149
 212.12573 212.10904 212.89821 214.94551 217.92238 222.39632 228.39879 233.08257
 236.77101 240.71719 245.07167 249.66473 254.03288 257.50446 260.02350 262.14853
 264.78543 267.43787 269.77615 271.79684 273.95282 276.12100 278.04645 279.74167
 281.14969 282.46509 283.75739 285.10931 286.28635 287.33118 288.28653 289.15485
 289.94147 290.64468 291.26868 292.10138
 366.78100 356.34816 345.79331 334.67247 323.08863 311.29579 299.17894 286.99510
 274.72026 262.63042 250.65257 239.96673 230.10189 221.21904 213.41420 206.42936
 200.27652 195.22767 191.82283 189.87799 188.92814 189.00530 189.85346 191.17462
 192.91277 195.02093 197.29709 199.66925 202.12740 204.62056 206.72172 208.57687
 210.21603 211.37419 211.61635 211.85750 211.80766 211.52582 211.17198 210.81513
 210.44529 210.16845 209.98960 209.86676 209.80792 210.15208 210.55123 210.95339
 211.75955 212.95071 214.21386 216.01002 217.95118 220.00733 222.11549 224.21165
 226.28481 228.38196 230.49212 232.61128 234.75343 236.93859 239.20775 241.59091
 244.22506 246.48922 248.50438 250.28254 251.71269 252.84885 253.68401 254.01316
 254.06332 253.85048 253.22364 252.18479 250.80395 248.97811 246.90027 244.74642
 242.55058 240.36774 238.20089 236.05305 233.92621 231.80637 229.84552 228.01568
 226.31184 224.79700 223.44015 222.22531 221.12047 220.09362 219.21078 218.36494
 217.62010 216.81325 215.92441 215.30157 214.76472 214.07387 212.44165 212.10954
 212.20612 212.26773 212.93895 214.94670 217.95326 222.34645 228.34726 233.00546
 236.68095 240.63155 245.00485 249.62025 253.98953 257.39890 259.88141 262.05029
 264.71964 267.36246 269.68182 271.72211 273.89386 276.06921 277.99884 279.69989
 281.11548 282.43991 283.73514 285.08649 286.26453 287.30881 288.26193 289.13168
 289.91708 290.62054 291.24289 292.07480
 366.78100 356.34830 345.79360 334.67289 323.08919 311.29649 299.17979 286.99609
 274.72138 262.63168 250.65398 239.96828 230.10358 221.22087 213.41617 206.43147
 200.27877 195.23006 191.82536 189.88066 188.93096 189.00826 189.85655 191.17785
 192.91615 195.02445 197.30075 199.67304 202.13134 204.62464 206.72594 208.58124
 210.22053 211.37883 211.62113 211.86243 211.81273 211.53102 211.17732 210.82062
 210.45092 210.17422 209.99551 209.87281 209.81411 210.15841 210.55770 210.96000
 211.76630 212.95760 214.22090 216.01719 217.95849 220.01479 222.12309 224.21939
 226.29268 228.38998 230.50028 232.61958 234.76188 236.94717 239.21647 241.59977
 244.23407 246.49837 248.51366 250.29196 251.72226 252.85856 253.69386 254.02315
 254.07345 253.86075 253.23405 252.19535 250.81464 248.98894 246.91124 244.75754
 242.56183 240.37913 238.21243 236.06473 233.93803 231.81832 229.85762 228.02792
 226.32422 224.80952 223.45281 222.23811 221.13341 220.10671 219.22401 218.37830
 217.63360 216.82690 215.93820 215.31550 214.77879 214.09715 212.48671 212.12512
 212.27766 212.40649 212.97305 214.94794 217.99730 222.31062 228.30362 232.94182
 236.59938 240.55145 244.94260 249.57893 253.94348 257.28522 259.73138 261.94800
 264.65149 267.28336 269.58539 271.64557 273.83585 276.01761 277.95151 279.65567
 281.07990 282.41238 283.71536 285.06763 286.24448 287.28839 288.24368 289.11069
 289.89648 290.60147 291.22461 292.05264
 366.78100 356.34856 345.79411 334.67367 323.09023 311.29779 299.18134 286.99790
 274.72346 262.63401 250.65657 239.97113 230.10668 221.22424 213.41980 206.43536
 200.28291 195.23447 191.83003 189.88558 188.93614 189.01370 189.86225 191.18381
 192.92237 195.03093 197.30748 199.68004 202.13860 204.63215 206.73371 208.58927
 210.22882 211.38738 211.62994 211.87150 211.82205 211.54061 211.18717 210.83072
 210.46128 210.18484 210.00640 209.88395 209.82551 210.17007 210.56962 210.97218
 211.77874 212.97029 214.23385 216.03041 217.97197 220.02852 222.13708 224.23364
 226.30719 228.40475 230.51531 232.63486 234.77742 236.96298 239.23254 241.61609
 244.25065 246.51521 248.53076 250.30932 251.73988 252.87643 253.71199 254.04155
 254.09211 253.87966 253.25322 252.21478 250.83433 249.00889 246.93145 244.77801
 242.58256 240.40012 238.23368 236.08623 233.95979 231.84035 229.87990 228.05046
 226.34702 224.83258 223.47613 222.26169 221.15725 220.13080 219.24836 218.40292
 217.65847 216.85203 215.96359 215.34115 214.80470 214.12386 212.51524 212.16191
 212.35049 212.50928 213.02408 214.98198 218.03693 222.27966 228.25716 232.87616
 236.51451 240.46761 244.87950 249.53648 253.89110 257.15976 259.57187 261.84341
 264.58383 267.20471 269.49054 271.57330 273.78345 275.97388 277.90979 279.61716
 281.05020 282.39102 283.69827 285.04877 286.22754 287.27045 288.22440 289.09210
 289.87906 290.58234 291.20447 292.03336
 366.78100 356.34895 345.79490 334.67486 323.09181 311.29976 299.18371 287.00066
 274.72662 262.63757 250.66052 239.97547 230.11142 221.22938 213.42533 206.44128
 200.28923 195.24119 191.83714 189.89309 188.94404 189.02199 189.87095 191.19290
 192.93185 195.04080 197.31775 199.69071 202.14966 204.64361 206.74556 208.60151
 210.24147 211.40042 211.64337 211.88532 211.83627 211.55523 211.20218 210.84613
 210.47708 210.20104 210.02299 209.90094 209.84289 210.18784 210.58780 210.99075
 211.79770 212.98965 214.25360 216.05056 217.99251 220.04946 222.15841 224.25536
 226.32932 228.42727 230.53822 232.65817 234.80112 236.98708 239.25703 241.64098
 244.27593 246.54089 248.55684 250.33579 251.76674 252.90369 253.73965 254.06960
 254.12055 253.90850 253.28245 252.24441 250.86436 249.03931 246.96226 244.80921
 242.61417 240.43212 238.26607 236.11902 233.99297 231.87393 229.91388 228.08483
 226.38178 224.86773 223.51169 222.29764 221.19359 220.16754 219.28550 218.44045
 217.69640 216.89035 216.00230 215.38026 214.84421 214.15475 212.52585 212.21936
 212.42416 212.58434 213.09662 215.04469 218.05745 222.24600 228.20898 232.80402
 236.42288 240.38152 244.81583 249.49281 253.83133 257.02881 259.41257 261.74289
 264.51877 267.12973 269.40158 271.50803 273.73743 275.93466 277.87247 279.58243
 281.02460 282.37259 283.68304 285.03342 286.21045 287.25400 288.20892 289.07422
 289.86023 290.56528 291.18607 292.01666
 366.78100 356.34932 345.79563 334.67595 323.09327 311.30158 299.18590 287.00322
 274.72954 262.64085 250.66417 239.97949 230.11580 221.23412 213.43044 206.44675
 200.29507 195.24739 191.84370 189.90002 188.95134 189.02966 189.87897 191.20129
 192.94061 195.04992 197.32724 199.70056 202.15987 204.65419 206.75651 208.61282
 210.25314 211.41246 211.65578 211.89809 211.84941 211.56873 211.21604 210.86036
 210.49168 210.21599 210.03831 209.91663 209.85894 210.20426 210.60458 211.00790
 211.81521 213.00753 214.27185 216.06916 218.01148 220.06880 222.17811 224.27543
 226.34975 228.44806 230.55938 232.67970 234.82301 237.00933 239.27965 241.66397
 244.29928 246.56460 248.58092 250.36023 251.79155 252.92887 253.76518 254.09550
 254.14682 253.93513 253.30945 252.27177 250.89209 249.06740 246.99072 244.83804
 242.64335 240.46167 238.29599 236.14930 234.02362 231.90494 229.94525 228.11657
 226.41389 224.90021 223.54452 222.33084 221.22716 220.20147 219.31979 218.47511
 217.73142 216.92574 216.03806 215.41637 214.88069 214.18108 212.52818 212.29573
 212.49568 212.63657 213.17723 215.11725 218.06654 222.20964 228.16255 232.72758
 236.33093 240.29823 244.75691 249.45197 253.76991 256.90076 259.26056 261.65012
 264.45538 267.05496 269.31342 271.44330 273.69135 275.89456 277.83231 279.54300
 280.99335 282.35019 283.66953 285.02206 286.19812 287.24155 288.19547 289.06213
 289.84583 290.55307 291.17236 292.00259
 366.78100 356.34973 345.79645 334.67718 323.09490 311.30363 299.18835 287.00608
 274.73280 262.64453 250.66825 239.98398 230.12070 221.23943 213.43615 206.45288
 200.30160 195.25433 191.85105 189.90778 188.95950 189.03823 189.88795 191.21068
 192.95040 195.06013 197.33785 199.71158 202.17130 204.66603 206.76875 208.62548
 210.26620 211.42593 211.66965 211.91238 211.86410 211.58383 211.23155 210.87628
 210.50800 210.23273 210.05545 209.93418 209.87690 210.22263 210.62335 211.02708
 211.83480 213.02753 214.29225 216.08998 218.03270 220.09043 222.20015 224.29788
 226.37260 228.47133 230.58306 232.70378 234.84751 237.03423 239.30496 241.68968
 244.32541 246.59113 248.60786 250.38758 251.81931 252.95703 253.79376 254.12448
 254.17621 253.96493 253.33966 252.30238 250.92311 249.09883 247.02256 244.87028
 242.67601 240.49473 238.32946 236.18318 234.05791 231.93963 229.98036 228.15208
 226.44981 224.93653 223.58126 222.36798 221.26471 220.23943 219.35816 218.51388
 217.77061 216.96533 216.07806 215.45678 214.92151 214.20758 212.52083 212.37807
 212.57770 212.68497 213.25465 215.18323 218.07004 222.17036 228.11261 232.64719
 236.23955 240.21648 244.70079 249.41180 253.70685 256.77322 259.11053 261.55792
 264.39001 266.97574 269.22397 271.37985 273.64822 275.85767 277.79648 279.50879
 280.97101 282.33698 283.65686 285.00674 286.18301 287.22464 288.17834 289.04538
 289.82938 290.53342 291.15668 291.98065
 366.78100 356.35007 345.79713 334.67820 323.09627 311.30534 299.19040 287.00847
 274.73554 262.64760 250.67167 239.98774 230.12481 221.24387 213.44094 206.45801
 200.30708 195.26014 191.85721 189.91428 188.96634 189.04541 189.89548 191.21855
 192.95861 195.06868 197.34675 199.72081 202.18088 204.67595 206.77902 208.63608
 210.27715 211.43722 211.68128 211.92435 211.87642 211.59649 211.24455 210.88962
 210.52169 210.24675 210.06982 209.94889 209.89196 210.23802 210.63909 211.04316
 211.85123 213.04429 214.30936 216.10743 218.05049 220.10856 222.21863 224.31670
 226.39176 228.49083 230.60290 232.72396 234.86803 237.05510 239.32617 241.71123
 244.34730 246.61337 248.63043 250.41050 251.84257 252.98064 253.81770 254.14877
 254.20084 253.98990 253.36497 252.32804 250.94911 249.12517 247.04924 244.89731
 242.70338 240.52244 238.35751 236.21158 234.08664 231.96871 230.00978 228.18185
 226.47991 224.96698 223.61205 222.39911 221.29618 220.27125 219.39032 218.54638
 217.80345 216.99852 216.11158 215.49065 214.95572 214.22987 212.51500 212.45341
 212.66803 212.73589 213.33130 215.24843 218.07626 222.13287 228.05725 232.56549
 236.14819 240.13756 244.64676 249.37054 253.63577 256.64029 258.96164 261.47006
 264.32254 266.89874 269.14188 271.32269 273.61029 275.82773 277.76511 279.47787
 280.94653 282.31857 283.64569 284.99728 286.17389 287.21506 288.16833 289.03436
 289.81693 290.52332 291.14307 291.96854
 366.78100 356.35031 345.79762 334.67893 323.09725 311.30656 299.19187 287.01018
 274.73749 262.64980 250.67412 239.99043 230.12774 221.24705 213.44436 206.46167
 200.31099 195.26430 191.86161 189.91892 188.97123 189.05054 189.90086 191.22417
 192.96448 195.07479 197.35310 199.72741 202.18773 204.68304 206.78635 208.64366
 210.28497 211.44528 211.68960 211.93291 211.88522 211.60553 211.25384 210.89915
 210.53147 210.25678 210.08009 209.95940 209.90271 210.24902 210.65034 211.05465
 211.86296 213.05627 214.32158 216.11989 218.06321 220.12152 222.23183 224.33014
 226.40545 228.50476 230.61707 232.73839 234.88270 237.07001 239.34132 241.72663
 244.36294 246.62926 248.64657 250.42688 251.85919 252.99750 253.83481 254.16613
 254.21844 254.00775 253.38306 252.34637 250.96768 249.14400 247.06831 244.91662
 242.72293 240.54224 238.37755 236.23187 234.10718 231.98949 230.03080 228.20311
 226.50142 224.98874 223.63405 222.42136 221.31867 220.29398 219.41329 218.56961
 217.82692 217.02223 216.13554 215.51485 214.98016 214.24556 212.50995 212.52660
 212.77359 212.78824 213.39890 215.30312 218.08069 222.09836 227.99649 232.48183
 236.06085 240.06320 244.59599 249.32726 253.56108 256.50955 258.82263 261.37918
 264.25027 266.81418 269.05310 271.26486 273.57190 275.79410 277.73303 279.45056
 280.93362 282.31369 283.63925 284.98407 286.15860 287.20078 288.15475 289.01965
 289.80182 290.50644 291.12726 291.95288
 366.78100 356.35050 345.79800 334.67950 323.09800 311.30750 299.19300 287.01150
 274.73900 262.65150 250.67600 239.99250 230.13000 221.24950 213.44700 206.46450
 200.31400 195.26750 191.86500 189.92250 188.97500 189.05450 189.90501 191.22851
 192.96901 195.07951 197.35801 199.73251 202.19301 204.68851 206.79201 208.64951
 210.29101 211.45151 211.69601 211.93951 211.89201 211.61251 211.26101 210.90651
 210.53901 210.26451 210.08801 209.96751 209.91101 210.25751 210.65901 211.06351
 211.87201 213.06551 214.33101 216.12951 218.07301 220.13151 222.24201 224.34051
 226.41601 228.51551 230.62801 232.74951 234.89401 237.08151 239.35301 241.73851
 244.37501 246.64152 248.65902 250.43952 251.87202 253.01052 253.84802 254.17952
 254.23202 254.02152 253.39702 252.36052 250.98202 249.15852 247.08302 244.93152
 242.73802 240.55752 238.39302 236.24752 234.12302 232.00552 230.04702 228.21952
 226.51802 225.00552 223.65102 222.43852 221.33602 220.31152 219.43102 218.58752
 217.84502 217.04052 216.15402 215.53352 214.99902 214.25868 212.50957 212.57492
 212.88699 212.86269 213.47775 215.36234 218.09462 222.06232 227.92497 232.39612
 235.96866 239.98907 244.54382 249.27493 253.46982 256.36072 258.65811 261.28323
 264.16275 266.71854 268.96530 271.20062 273.53030 275.76715 277.70557 279.42267
 280.90384 282.28818 283.62582 284.98264 286.15759 287.19974 288.15005 289.01703
 289.79712 290.50018 291.12067 291.94440
 366.78100 356.35062 345.79823 334.67985 323.09846 311.30808 299.19369 287.01231
 274.73992 262.65254 250.67715 239.99377 230.13138 221.25100 213.44861 206.46623
 200.31584 195.26946 191.86707 189.92469 188.97730 189.05692 189.90753 191.23115
 192.97176 195.08238 197.36099 199.73561 202.19622 204.69184 206.79545 208.65307
 210.29468 211.45530 211.69991 211.94353 211.89614 211.61676 211.26538 210.91099
 210.54361 210.26922 210.09284 209.97245 209.91607 210.26268 210.66430 211.06891
 211.87753 213.07114 214.33676 216.13537 218.07899 220.13760 222.24822 224.34683
 226.42245 228.52206 230.63468 232.75629 234.90091 237.08852 239.36014 241.74575
 244.38237 246.64898 248.66660 250.44721 251.87983 253.01844 253.85606 254.18767
 254.24029 254.02990 253.40552 252.36913 250.99075 249.16737 247.09198 244.94060
 242.74721 240.56683 238.40244 236.25706 234.13267 232.01529 230.05690 228.22952
 226.52813 225.01575 223.66136 222.44898 221.34659 220.32221 219.44182 218.59844
 217.85605 217.05167 216.16528 215.54490 215.01051 214.26767 212.51260 212.65048
 212.97543 212.90256 213.56906 215.43095 218.12303 222.03807 227.86107 232.32951
 235.90160 239.93515 244.50363 249.22757 253.38626 256.23071 258.54565 261.19205
 264.07434 266.61902 268.87665 271.15649 273.50223 275.73401 277.66354 279.37247
 280.86304 282.26898 283.63879 284.99899 286.17819 287.22333 288.17798 289.05063
 289.84329 290.55670 291.18982 292.01468
 366.78100 356.34926 345.79552 334.67578 323.09304 311.30130 299.18556 287.00281
 274.72907 262.64033 250.66359 239.97885 230.11511 221.23337 213.42963 206.44589
 200.29415 195.24641 191.84267 189.89893 188.95018 189.02844 189.87770 191.19996
 192.93922 195.04848 197.32574 199.69900 202.15826 204.65252 206.75478 208.61104
 210.25130 211.41055 211.65381 211.89607 211.84733 211.56659 211.21385 210.85811
 210.48937 210.21363 210.03589 209.91415 209.85641 210.20167 210.60192 211.00518
 211.81244 213.00470 214.26896 216.06622 218.00848 220.06574 222.17500 224.27226
 226.34652 228.44478 230.55604 232.67629 234.81955 237.00581 239.27607 241.66033
 244.29559 246.56085 248.57711 250.35637 251.78763 252.92489 253.76115 254.09141
 254.14267 253.93092 253.30518 252.26744 250.88770 249.06296 246.98622 244.83348
 242.63874 240.45700 238.29126 236.14452 234.01878 231.90004 229.94029 228.11155
 226.40881 224.89507 223.53933 222.32559 221.22185 220.19611 219.31437 218.46963
 217.72589 216.92015 216.03241 215.41066 214.87492 214.19650 212.59361 212.73122
 213.06734 212.94066 213.58670 215.43912 218.10936 222.01083 227.80663 232.25958
 235.83917 239.88899 244.47595 249.20596 253.34816 256.15842 258.49011 261.14230
 264.02588 266.57349 268.83163 271.12131 273.48517 275.72290 277.62964 279.32217
 280.80591 282.24069 283.64789 285.01730 286.19812 287.24475 288.20157 289.07391
 289.86813 290.58017 291.20447 292.01953
 366.78100 356.34887 345.79475 334.67462 323.09149 311.29937 299.18324 287.00011
 274.72599 262.63686 250.65973 239.97461 230.11048 221.22835 213.42423 206.44010
 200.28797 195.23985 191.83572 189.89159 188.94247 189.02034 189.86921 191.19109
 192.92996 195.03883 197.31571 199.68858 202.14745 204.64133 206.74320 208.59907
 210.23895 211.39782 211.64069 211.88257 211.83344 211.55231 211.19919 210.84306
 210.47393 210.19781 210.01968 209.89755 209.83943 210.18430 210.58417 210.98705
 211.79392 212.98579 214.24967 216.04654 217.98841 220.04529 222.15416 224.25103
 226.32491 228.42278 230.53365 232.65353 234.79640 236.98227 239.25215 241.63602
 244.27089 246.53577 248.55164 250.33051 251.76139 252.89826 253.73413 254.06401
 254.11488 253.90275 253.27663 252.23850 250.85837 249.03325 246.95612 244.80299
 242.60787 240.42574 238.25961 236.11249 233.98636 231.86723 229.90711 228.07798
 226.37485 224.86073 223.50460 222.29047 221.18635 220.16022 219.27809 218.43297
 217.68884 216.88271 215.99459 215.37246 214.83633 214.16978 212.59497 212.90698
 213.17715 212.94167 213.57172 215.40236 218.05220 221.94977 227.72897 232.16293
 235.76060 239.83673 244.44931 249.17339 253.27393 256.07367 258.43420 261.12335
 263.99805 266.55954 268.84369 271.13440 273.49615 275.73221 277.62607 279.30978
 280.79880 282.23541 283.65268 285.01398 286.19437 287.23846 288.19522 289.06863
 289.86279 290.57349 291.19540 292.00302
 366.78100 356.34891 345.79483 334.67474 323.09166 311.29957 299.18349 287.00040
 274.72631 262.63723 250.66014 239.97506 230.11097 221.22889 213.42480 206.44071
 200.28863 195.24054 191.83646 189.89237 188.94328 189.02120 189.87011 191.19203
 192.93094 195.03986 197.31677 199.68968 202.14860 204.64251 206.74443 208.60034
 210.24026 211.39917 211.64208 211.88400 211.83491 211.55383 211.20074 210.84466
 210.47557 210.19948 210.02140 209.89931 209.84123 210.18614 210.58605 210.98897
 211.79588 212.98780 214.25171 216.04863 217.99054 220.04745 222.15637 224.25328
 226.32720 228.42511 230.53603 232.65594 234.79885 236.98477 239.25468 241.63860
 244.27351 246.53843 248.55434 250.33325 251.76417 252.90108 253.73700 254.06691
 254.11782 253.90574 253.27965 252.24157 250.86148 249.03640 246.95931 244.80622
 242.61114 240.42905 238.26297 236.11588 233.98980 231.87071 229.91062 228.08154
 226.37845 224.86437 223.50828 222.29420 221.19011 220.16402 219.28194 218.43685
 217.69277 216.88668 215.99860 215.37651 214.84042 214.16470 212.56822 213.06982
 213.38370 212.97998 213.55865 215.32846 217.93744 221.88876 227.64046 232.05339
 235.66852 239.77893 244.41609 249.12360 253.16884 255.94705 258.32812 261.07654
 263.94684 266.51389 268.82718 271.13513 273.50775 275.74884 277.64487 279.33405
 280.83389 282.25504 283.65112 285.00851 286.18747 287.23248 288.18759 289.06021
 289.85580 290.56772 291.19012 292.00360
 366.78100 356.34864 345.79428 334.67393 323.09057 311.29821 299.18185 286.99849
 274.72413 262.63478 250.65742 239.97206 230.10770 221.22534 213.42099 206.43663
 200.28427 195.23591 191.83155 189.88720 188.93784 189.01548 189.86412 191.18576
 192.92440 195.03305 197.30969 199.68233 202.14097 204.63461 206.73626 208.59190
 210.23154 211.39018 211.63282 211.87447 211.82511 211.54375 211.19039 210.83403
 210.46467 210.18832 210.00996 209.88760 209.82924 210.17388 210.57353 210.97617
 211.78281 212.97445 214.23809 216.03474 217.97638 220.03302 222.14166 224.23830
 226.31194 228.40959 230.52023 232.63987 234.78251 236.96815 239.23780 241.62144
 244.25608 246.52072 248.53636 250.31501 251.74565 252.88229 253.71793 254.04757
 254.09821 253.88586 253.25950 252.22114 250.84078 249.01542 246.93807 244.78471
 242.58935 240.40699 238.24063 236.09327 233.96692 231.84756 229.88720 228.05784
 226.35448 224.84013 223.48377 222.26941 221.16505 220.13869 219.25634 218.41098
 217.66662 216.86026 215.97190 215.34954 214.81319 214.14551 212.56805 213.12767
 213.71089 213.11246 213.45441 215.26363 217.90359 221.85112 227.54587 231.93521
 235.57408 239.72020 244.37592 249.05441 253.02242 255.77003 258.17697 260.98288
 263.83951 266.40118 268.74893 271.09515 273.49203 275.73981 277.63412 279.32104
 280.82535 282.25150 283.65955 285.01968 286.19983 287.24573 288.20224 289.07550
 289.87286 290.58459 291.20697 292.01813
 366.78100 356.34834 345.79368 334.67302 323.08936 311.29670 299.18004 286.99637
 274.72171 262.63205 250.65439 239.96873 230.10407 221.22141 213.41675 206.43209
 200.27943 195.23077 191.82611 189.88145 188.93179 189.00912 189.85746 191.17880
 192.91714 195.02548 197.30182 199.67416 202.13250 204.62584 206.72718 208.58252
 210.22186 211.38020 211.62254 211.86387 211.81421 211.53255 211.17889 210.82223
 210.45257 210.17591 209.99725 209.87459 209.81593 210.16027 210.55961 210.96195
 211.76829 212.95962 214.22296 216.01930 217.96064 220.01698 222.12532 224.22166
 226.29500 228.39234 230.50268 232.62202 234.76436 236.94970 239.21904 241.60237
 244.23671 246.50105 248.51639 250.29473 251.72507 252.86141 253.69675 254.02609
 254.07643 253.86377 253.23711 252.19845 250.81779 248.99212 246.91446 244.76080
 242.56514 240.38248 238.21582 236.06816 233.94150 231.82184 229.86118 228.03152
 226.32786 224.81320 223.45654 222.24187 221.13721 220.11055 219.22789 218.38223
 217.63757 216.83091 215.94225 215.31959 214.78293 214.13144 212.59222 213.10104
 213.88918 213.30998 213.47574 215.29745 217.94591 221.75003 227.47841 231.85721
 235.50052 239.67351 244.34050 248.98738 252.87779 255.59172 258.02603 260.86911
 263.70233 266.26169 268.65533 271.04379 273.46902 275.72330 277.61295 279.29309
 280.80096 282.23749 283.66956 285.03058 286.21060 287.25714 288.21347 289.08804
 289.88440 290.59772 291.21982 292.02676
 366.78100 356.34851 345.79402 334.67353 323.09005 311.29756 299.18107 286.99758
 274.72309 262.63360 250.65612 239.97063 230.10614 221.22365 213.41916 206.43467
 200.28218 195.23370 191.82921 189.88472 188.93523 189.01274 189.86125 191.18277
 192.92128 195.02979 197.30630 199.67881 202.13732 204.63084 206.73235 208.58786
 210.22737 211.38588 211.62839 211.86990 211.82042 211.53893 211.18544 210.82895
 210.45946 210.18297 210.00449 209.88200 209.82351 210.16802 210.56753 210.97004
 211.77655 212.96807 214.23158 216.02809 217.96960 220.02611 222.13462 224.23114
 226.30465 228.40216 230.51267 232.63218 234.77469 236.96020 239.22972 241.61323
 244.24774 246.51225 248.52776 250.30627 251.73679 252.87330 253.70881 254.03832
 254.08883 253.87634 253.24986 252.21137 250.83088 249.00539 246.92790 244.77441
 242.57892 240.39644 238.22995 236.08246 233.95597 231.83648 229.87599 228.04651
 226.34302 224.82853 223.47204 222.25755 221.15306 220.12657 219.24409 218.39860
 217.65411 216.84762 215.95913 215.33664 214.80016 214.14514 212.59758 213.09442
 213.96936 213.46803 213.57970 215.38254 217.99739 221.66429 227.42061 231.79027
 235.43651 239.63309 244.30844 248.92163 252.74138 255.43330 257.89755 260.76398
 263.57269 266.13947 268.57919 271.00143 273.44598 275.69864 277.57382 279.24255
 280.75580 282.21490 283.68674 285.04913 286.22818 287.27243 288.23032 289.10327
 289.90143 290.61603 291.23724 292.03598
 366.78100 356.34872 345.79445 334.67417 323.09089 311.29862 299.18234 286.99907
 274.72479 262.63551 250.65824 239.97296 230.10868 221.22641 213.42213 206.43785
 200.28558 195.23730 191.83303 189.88875 188.93947 189.01720 189.86592 191.18764
 192.92637 195.03509 197.31181 199.68454 202.14326 204.63699 206.73871 208.59443
 210.23416 211.39288 211.63560 211.87733 211.82805 211.54678 211.19350 210.83722
 210.46795 210.19167 210.01339 209.89112 209.83284 210.17756 210.57729 210.98001
 211.78674 212.97846 214.24218 216.03891 217.98063 220.03735 222.14608 224.24280
 226.31652 228.41425 230.52497 232.64470 234.78742 236.97314 239.24287 241.62659
 244.26131 246.52604 248.54176 250.32048 251.75121 252.88793 253.72366 254.05338
 254.10410 253.89183 253.26555 252.22727 250.84700 249.02172 246.94444 244.79117
 242.59589 240.41362 238.24734 236.10006 233.97379 231.85451 229.89423 228.06496
 226.36168 224.84741 223.49113 222.27685 221.17258 220.14630 219.26402 218.41875
 217.67447 216.86819 215.97992 215.35764 214.82137 214.16251 212.60588 213.11473
 214.01488 213.56306 213.67625 215.46466 218.04391 221.61270 227.36105 231.72717
 235.38434 239.60376 244.28273 248.86140 252.61940 255.29547 257.80280 260.68384
 263.47073 266.05118 268.53387 270.97681 273.42896 275.66904 277.52750 279.19061
 280.71527 282.19684 283.69431 285.05283 286.22913 287.27502 288.22870 289.10251
 289.89905 290.61081 291.23187 292.02432
 366.78100 356.34851 345.79403 334.67354 323.09005 311.29757 299.18108 286.99759
 274.72311 262.63362 250.65613 239.97065 230.10616 221.22367 213.41919 206.43470
 200.28221 195.23373 191.82924 189.88475 188.93527 189.01278 189.86129 191.18281
 192.92132 195.02983 197.30635 199.67886 202.13737 204.63089 206.73240 208.58792
 210.22743 211.38594 211.62846 211.86997 211.82048 211.53900 211.18551 210.82902
 210.45954 210.18305 210.00456 209.88208 209.82359 210.16810 210.56762 210.97013
 211.77664 212.96816 214.23167 216.02818 217.96970 220.02621 222.13472 224.23124
 226.30475 228.40226 230.51278 232.63229 234.77480 236.96032 239.22983 241.61334
 244.24786 246.51237 248.52788 250.30640 251.73691 252.87342 253.70894 254.03845
 254.08896 253.87648 253.24999 252.21150 250.83102 249.00553 246.92804 244.77456
 242.57907 240.39658 238.23010 236.08261 233.95612 231.83664 229.87615 228.04666
 226.34318 224.82869 223.47220 222.25772 221.15323 220.12675 219.24426 218.39877
 217.65429 216.84780 215.95931 215.33683 214.80034 214.16075 212.64966 213.14267
 214.05998 213.62210 213.74127 215.52383 218.08031 221.56990 227.29514 231.66515
 235.33604 239.58089 244.26160 248.80728 252.51173 255.18298 257.73041 260.61880
 263.38416 265.97672 268.49857 270.95770 273.41553 275.64612 277.49048 279.14777
 280.68399 282.18320 283.69110 285.04623 286.22195 287.26456 288.21851 289.09119
 289.88351 290.59460 291.21213 291.99319
 366.78100 356.34826 345.79353 334.67279 323.08906 311.29632 299.17958 286.99585
 274.72111 262.63137 250.65364 239.96790 230.10317 221.22043 213.41569 206.43096
 200.27822 195.22948 191.82475 189.88001 188.93028 189.00754 189.85580 191.17707
 192.91533 195.02359 197.29986 199.67212 202.13039 204.62365 206.72491 208.58018
 210.21944 211.37770 211.61997 211.86123 211.81150 211.52976 211.17602 210.81929
 210.44955 210.17281 209.99408 209.87134 209.81261 210.15687 210.55613 210.95840
 211.76466 212.95592 214.21919 216.01545 217.95672 220.01298 222.12124 224.21751
 226.29077 228.38803 230.49830 232.61756 234.75983 236.94509 239.21435 241.59762
 244.23188 246.49614 248.51141 250.28967 251.71994 252.85620 253.69146 254.02073
 254.07099 253.85825 253.23152 252.19278 250.81205 248.98631 246.90857 244.75484
 242.55910 240.37636 238.20963 236.06189 233.93516 231.81542 229.85468 228.02495
 226.32121 224.80647 223.44974 222.23500 221.13027 220.10353 219.22079 218.37506
 217.63032 216.82358 215.93485 215.31211 214.77538 214.16061 212.70815 213.16547
 214.11972 213.68605 213.79820 215.56786 218.11026 221.52530 227.22495 231.59554
 235.28246 239.55194 244.23312 248.74394 252.38995 255.06189 257.64771 260.54004
 263.28275 265.88879 268.44901 270.92627 273.39270 275.61432 277.44525 279.09711
 280.64197 282.16681 283.67395 285.02814 286.20126 287.24289 288.19293 289.06171
 289.85172 290.55548 291.17053 291.93857
 366.78100 356.34824 345.79347 334.67271 323.08895 311.29619 299.17942 286.99566
 274.72090 262.63114 250.65337 239.96761 230.10285 221.22009 213.41532 206.43056
 200.27780 195.22904 191.82427 189.87951 188.92975 189.00698 189.85522 191.17646
 192.91470 195.02293 197.29917 199.67141 202.12965 204.62288 206.72412 208.57936
 210.21860 211.37683 211.61907 211.86031 211.81054 211.52878 211.17502 210.81826
 210.44849 210.17173 209.99297 209.87021 209.81144 210.15568 210.55492 210.95716
 211.76339 212.95463 214.21787 216.01411 217.95534 220.01158 222.11982 224.21605
 226.28929 228.38653 230.49677 232.61600 234.75824 236.94348 239.21272 241.59595
 244.23019 246.49443 248.50967 250.28790 251.71814 252.85438 253.68961 254.01885
 254.06909 253.85633 253.22956 252.19080 250.81004 248.98428 246.90651 244.75275
 242.55699 240.37423 238.20746 236.05970 233.93294 231.81318 229.85241 228.02265
 226.31889 224.80412 223.44736 222.23260 221.12784 220.10107 219.21831 218.37255
 217.62779 216.82102 215.93226 215.30950 214.77274 214.17403 212.75948 213.16728
 214.17384 213.76740 213.88057 215.62894 218.14813 221.49327 227.15736 231.52637
 235.22623 239.51614 244.19411 248.66467 252.25343 254.92749 257.55228 260.44855
 263.17508 265.79797 268.39273 270.88507 273.35242 275.55179 277.35645 279.00790
 280.57504 282.13657 283.64798 284.99716 286.16556 287.20203 288.15005 289.01276
 289.79514 290.49161 291.10043 291.84695
 366.78100 356.34838 345.79377 334.67315 323.08953 311.29692 299.18030 286.99668
 274.72206 262.63245 250.65483 239.96921 230.10460 221.22198 213.41736 206.43275
 200.28013 195.23151 191.82690 189.88228 188.93266 189.01004 189.85843 191.17981
 192.91819 195.02658 197.30296 199.67534 202.13373 204.62711 206.72849 208.58388
 210.22326 211.38164 211.62402 211.86541 211.81579 211.53417 211.18056 210.82394
 210.45432 210.17771 209.99909 209.87647 209.81786 210.16224 210.56162 210.96400
 211.77039 212.96177 214.22515 216.02154 217.96292 220.01930 222.12769 224.22407
 226.29745 228.39484 230.50522 232.62460 234.76698 236.95237 239.22175 241.60513
 244.23952 246.50390 248.51928 250.29767 251.72805 252.86443 253.69982 254.02920
 254.07958 253.86696 253.24035 252.20173 250.82111 248.99550 246.91788 244.76426
 242.56865 240.38603 238.21941 236.07180 233.94518 231.82556 229.86494 228.03533
 226.33171 224.81709 223.46048 222.24586 221.14124 220.11463 219.23201 218.38639
 217.64178 216.83516 215.94654 215.32392 214.78731 214.19719 212.80293 213.15938
 214.20578 213.84906 213.98059 215.69952 218.19168 221.47964 227.10204 231.47517
 235.18652 239.48692 244.15736 248.59090 252.12350 254.80780 257.46823 260.35550
 263.05753 265.69849 268.32260 270.82397 273.28806 275.46802 277.27237 278.92386
 280.53488 282.10260 283.60355 284.94247 286.09348 287.11884 288.06366 288.91882
 289.69492 290.38467 290.98795 291.72516
 366.78100 356.34876 345.79453 334.67429 323.09106 311.29882 299.18258 286.99935
 274.72511 262.63588 250.65864 239.97340 230.10917 221.22693 213.42270 206.43846
 200.28623 195.23799 191.83375 189.88952 188.94028 189.01805 189.86681 191.18857
 192.92734 195.03610 197.31287 199.68563 202.14439 204.63816 206.73992 208.59569
 210.23545 211.39421 211.63698 211.87874 211.82951 211.54827 211.19504 210.83880
 210.46956 210.19333 210.01509 209.89286 209.83462 210.17938 210.57915 210.98191
 211.78868 212.98044 214.24420 216.04097 217.98273 220.03950 222.14826 224.24502
 226.31879 228.41655 230.52732 232.64708 234.78985 236.97561 239.24537 241.62914
 244.26390 246.52867 248.54443 250.32319 251.75396 252.89072 253.72649 254.05625
 254.10701 253.89478 253.26854 252.23031 250.85007 249.02483 246.94760 244.79436
 242.59913 240.41689 238.25066 236.10342 233.97718 231.85795 229.89771 228.06848
 226.36524 224.85100 223.49477 222.28053 221.17630 220.15006 219.26782 218.42259
 217.67835 216.87212 215.98388 215.36164 214.82541 214.23082 212.82607 213.15056
 214.26665 213.95793 214.07774 215.75534 218.20273 221.45964 227.03581 231.41444
 235.13817 239.45273 244.11095 248.50371 252.00706 254.69647 257.38681 260.27698
 262.97784 265.62918 268.26447 270.76788 273.20844 275.34357 277.10471 278.80490
 280.42789 282.06284 283.55566 284.88016 286.02072 287.03854 287.96936 288.82483
 289.59619 290.28104 290.83252 291.49097
 366.78100 356.34730 345.79160 334.66990 323.08520 311.29150 299.17380 286.98910
 274.71340 262.62270 250.64400 239.95730 230.09160 221.20790 213.40220 206.41650
 200.26281 195.21311 191.80741 189.86171 188.91101 188.98731 189.83461 191.15491
 192.89221 194.99951 197.27481 199.64611 202.10341 204.59571 206.69601 208.55031
 210.18861 211.34591 211.58721 211.82751 211.77681 211.49411 211.13941 210.78171
 210.41101 210.13331 209.95361 209.82991 209.77021 210.11351 210.51181 210.91311
 211.71842 212.90872 214.17102 215.96632 217.90662 219.96192 222.06922 224.16452
 226.23682 228.33312 230.44242 232.56072 234.70202 236.88632 239.15462 241.53692
 244.17022 246.43352 248.44782 250.22512 251.65442 252.78972 253.62402 253.95232
 254.00162 253.78792 253.16022 252.12052 250.73882 248.91212 246.83342 244.67872
 242.48203 240.29833 238.13063 235.98193 233.85423 231.73353 229.77183 227.94113
 226.23643 224.72073 223.36303 222.14733 221.04163 220.01393 219.13023 218.28353
 217.53783 216.73013 215.84043 215.21673 214.67903 214.16466 212.94943 213.18639
 214.21498 213.98143 214.14688 215.83577 218.25461 221.47328 226.99667 231.38507
 235.11520 239.43242 244.07372 248.42923 251.87016 254.61493 257.35367 260.23004
 262.89713 265.56497 268.21332 270.69699 273.11261 275.21628 277.04355 278.70895
 280.43152 281.96149 283.43115 284.73203 285.83948 286.82150 287.73083 288.59183
 289.38144 290.06915 290.54468 291.14911
 366.78100 356.34403 345.78506 334.66010 323.07213 311.27516 299.15419 286.96623
 274.68726 262.59329 250.61132 239.92136 230.05239 221.16542 213.35645 206.36749
 200.21052 195.15755 191.74858 189.79961 188.84565 188.91868 189.76271 191.07974
 192.81378 194.91781 197.18984 199.55787 202.01191 204.50094 206.59797 208.44900
 210.08403 211.23807 211.47610 211.71313 211.65916 211.37320 211.01523 210.65426
 210.28029 209.99933 209.81636 209.68939 209.62642 209.96646 210.36149 210.75952
 211.56155 212.74858 214.00762 215.79965 217.73668 219.78871 221.89275 223.98478
 226.05381 228.14684 230.25288 232.36791 234.50594 236.68697 238.95201 241.33104
 243.96107 246.22110 248.23213 250.00617 251.43220 252.56423 253.39526 253.72030
 253.76633 253.54936 252.91839 251.87543 250.49046 248.66049 246.57852 244.42055
 242.22059 240.03362 237.86265 235.71068 233.57972 231.45575 229.49078 227.65681
 225.94885 224.42988 223.06891 221.84994 220.74098 219.71001 218.82304 217.97307
 217.22410 216.41314 215.52017 214.89320 214.35223 213.99182 213.14030 213.35919
 214.15083 213.84344 214.01717 215.77165 218.19592 221.43611 226.95235 231.39575
 235.11946 239.44626 244.08521 248.47246 252.00398 254.70656 257.40189 260.28198
 262.97006 265.60330 268.22568 270.70688 273.08276 275.17706 276.87424 278.63940
 280.24905 281.97513 283.40930 284.69003 285.80594 286.81396 287.74805 288.56174
 289.23340 289.78275 290.29373 291.01099
 366.78100 356.34373 345.78446 334.65919 323.07092 311.27365 299.15238 286.96411
 274.68484 262.59057 250.60830 239.91803 230.04876 221.16149 213.35222 206.36295
 200.20568 195.15241 191.74314 189.79387 188.83960 188.91232 189.75605 191.07278
 192.80651 194.91024 197.18197 199.54970 202.00343 204.49216 206.58889 208.43962
 210.07435 211.22808 211.46581 211.70254 211.64827 211.36200 211.00373 210.64246
 210.26819 209.98692 209.80365 209.67638 209.61311 209.95284 210.34757 210.74530
 211.54703 212.73376 213.99249 215.78422 217.72095 219.77268 221.87641 223.96814
 226.03687 228.12960 230.23533 232.35006 234.48779 236.66852 238.93324 241.31197
 243.94170 246.20143 248.21216 249.98589 251.41162 252.54335 253.37408 253.69881
 253.74454 253.52727 252.89600 251.85273 250.46746 248.63719 246.55492 244.39665
 242.19638 240.00911 237.83784 235.68557 233.55430 231.43003 229.46476 227.63049
 225.92222 224.40295 223.04168 221.82241 220.71314 219.68187 218.79460 217.94433
 217.19506 216.38379 215.49052 214.86325 214.32198 213.97371 213.16977 213.54326
 214.27888 213.83923 213.95663 215.65413 218.06189 221.41206 226.76416 231.29195
 235.03102 239.37096 243.94905 248.22331 251.76825 254.86124 257.72690 260.54065
 263.23474 265.90073 268.44965 270.79980 273.00992 274.97528 276.98398 278.75546
 280.11856 281.51889 282.88171 284.05179 285.10336 286.03604 286.85535 287.51233
 287.79984 287.80908 287.81717 287.82748
 366.78100 356.34467 345.78634 334.66200 323.07467 311.27834 299.15801 286.97067
 274.69234 262.59901 250.61768 239.92834 230.06001 221.17368 213.36535 206.37701
 200.22068 195.16835 191.76002 189.81168 188.85835 188.93202 189.77669 191.09435
 192.82902 194.93369 197.20636 199.57502 202.02969 204.51936 206.61703 208.46869
 210.10436 211.25903 211.49770 211.73536 211.68203 211.39670 211.03937 210.67903
 210.30570 210.02537 209.84304 209.71671 209.65437 209.99504 210.39071 210.78938
 211.59204 212.77971 214.03938 215.83205 217.76971 219.82238 221.92705 224.01972
 226.08938 228.18305 230.28972 232.40539 234.54405 236.72572 238.99139 241.37106
 244.00172 246.26239 248.27406 250.04873 251.47539 252.60806 253.43973 253.76540
 253.81206 253.59573 252.96540 251.92307 250.53873 248.70940 246.62807 244.47074
 242.27140 240.08507 237.91474 235.76341 233.63308 231.50974 229.54541 227.71208
 226.00475 224.48641 223.12608 221.90775 220.79942 219.76908 218.88275 218.03342
 217.28509 216.47475 215.58242 214.95609 214.41576 214.03136 213.16962 213.58353
 214.40834 214.05350 214.17076 215.69269 217.99583 221.36696 226.58633 231.14464
 234.90828 239.25298 243.76744 247.89558 251.40730 254.65668 257.74966 260.61798
 263.32120 266.02017 268.53906 270.77374 272.85336 275.08652 277.08673 278.63089
 279.95203 281.19693 282.45020 283.55920 284.50339 285.34659 286.00522 285.95309
 285.86533 285.78717 285.71890 285.63190
 366.78100 356.34650 345.79001 334.66751 323.08201 311.28751 299.16902 286.98352
 274.70702 262.61552 250.63603 239.94853 230.08203 221.19753 213.39104 206.40454
 200.25004 195.19954 191.79305 189.84655 188.89505 188.97055 189.81706 191.13656
 192.87306 194.97956 197.25407 199.62457 202.08107 204.57257 206.67208 208.52558
 210.16308 211.31959 211.56009 211.79959 211.74809 211.46460 211.10910 210.75060
 210.37910 210.10061 209.92011 209.79561 209.73511 210.07762 210.47512 210.87562
 211.68012 212.86963 214.13113 215.92563 217.86513 219.91964 222.02614 224.12064
 226.19214 228.28765 230.39615 232.51365 234.65416 236.83766 239.10516 241.48666
 244.11917 246.38167 248.39517 250.17167 251.60018 252.73468 253.56818 253.89568
 253.94419 253.72969 253.10119 252.06069 250.67820 248.85070 246.77120 244.61570
 242.41821 240.23371 238.06521 235.91571 233.78722 231.66572 229.70322 227.87172
 226.16623 224.64973 223.29123 222.07474 220.96824 219.93974 219.05524 218.20775
 217.46125 216.65275 215.76225 215.13776 214.59926 214.14270 213.13834 213.56757
 214.51080 214.26154 214.41512 215.82861 218.04576 221.40826 226.51785 231.06755
 234.82138 239.15102 243.61224 247.62857 251.10388 254.33990 257.54224 260.53772
 263.27823 266.02686 268.54645 270.82117 272.74707 275.14502 277.00641 278.58499
 279.85187 281.02914 282.21133 283.25043 284.14764 284.85797 285.18436 285.48007
 285.74600 285.98282 286.18970 286.45334
 366.78100 356.34946 345.79592 334.67638 323.09384 311.30230 299.18676 287.00422
 274.73068 262.64214 250.66560 239.98106 230.11752 221.23597 213.43243 206.44889
 200.29735 195.24981 191.84627 189.90273 188.95419 189.03265 189.88211 191.20457
 192.94403 195.05349 197.33095 199.70441 202.16387 204.65833 206.76079 208.61725
 210.25771 211.41717 211.66063 211.90309 211.85455 211.57400 211.22146 210.86592
 210.49738 210.22184 210.04430 209.92276 209.86522 210.21068 210.61114 211.01460
 211.82206 213.01452 214.27898 216.07644 218.01890 220.07636 222.18582 224.28328
 226.35774 228.45620 230.56766 232.68812 234.83158 237.01803 239.28849 241.67295
 244.30841 246.57387 248.59033 250.36979 251.80125 252.93871 253.77517 254.10563
 254.15709 253.94555 253.32001 252.28247 250.90293 249.07839 247.00185 244.84931
 242.65477 240.47323 238.30769 236.16115 234.03561 231.91706 229.95752 228.12898
 226.42644 224.91290 223.55736 222.34382 221.24028 220.21474 219.33320 218.48866
 217.74512 216.93958 216.05204 215.43050 214.89496 214.32349 213.07497 213.45770
 214.63075 214.51129 214.70132 216.03728 218.13344 221.42914 226.45590 230.99203
 234.75854 239.06902 243.48036 247.43163 250.93013 254.13031 257.43610 260.45877
 263.25061 266.01865 268.56705 270.78818 272.89432 275.10098 276.92645 278.46738
 279.74402 280.98788 282.12216 283.10800 283.96069 284.64697 285.27164 285.83752
 286.34650 286.79971 287.19565 287.70023
 366.78100 356.34936 345.79572 334.67608 323.09343 311.30179 299.18615 287.00351
 274.72987 262.64123 250.66459 239.97994 230.11630 221.23466 213.43102 206.44738
 200.29574 195.24810 191.84445 189.90081 188.95217 189.03053 189.87989 191.20225
 192.94161 195.05096 197.32832 199.70168 202.16104 204.65540 206.75776 208.61412
 210.25447 211.41383 211.65719 211.89955 211.85091 211.57027 211.21763 210.86198
 210.49334 210.21770 210.04006 209.91842 209.86078 210.20614 210.60649 211.00985
 211.81721 213.00957 214.27393 216.07129 218.01365 220.07100 222.18036 224.27772
 226.35208 228.45044 230.56180 232.68216 234.82551 237.01187 239.28223 241.66659
 244.30195 246.56731 248.58367 250.36302 251.79438 252.93174 253.76810 254.09846
 254.14982 253.93818 253.31253 252.27489 250.89525 249.07061 246.99397 244.84133
 242.64669 240.46504 238.29940 236.15276 234.02712 231.90848 229.94884 228.12020
 226.41755 224.90391 223.54827 222.33463 221.23099 220.20535 219.32371 218.47906
 217.73542 216.92978 216.04214 215.42050 214.88486 214.34189 213.13055 213.29948
 214.61490 214.63997 214.87564 216.21812 218.23891 221.40724 226.41000 230.96777
 234.73412 239.02565 243.39529 247.33923 250.84975 254.08835 257.42917 260.45691
 263.25528 266.05133 268.67090 270.85187 272.82812 275.03677 276.80493 278.39502
 279.82104 281.10172 282.23291 283.21185 284.04291 284.72073 285.31241 285.84845
 286.33054 286.75983 287.13486 287.61279
 366.78100 356.34733 345.79166 334.66998 323.08531 311.29164 299.17397 286.98929
 274.71362 262.62295 250.64428 239.95761 230.09193 221.20826 213.40259 206.41692
 200.26324 195.21357 191.80790 189.86223 188.91156 188.98788 189.83521 191.15554
 192.89287 195.00019 197.27552 199.64685 202.10418 204.59651 206.69683 208.55116
 210.18949 211.34682 211.58814 211.82847 211.77780 211.49513 211.14046 210.78278
 210.41211 210.13444 209.95477 209.83109 209.77142 210.11475 210.51308 210.91441
 211.71973 212.91006 214.17239 215.96772 217.90804 219.96337 222.07070 224.16603
 226.23836 228.33468 230.44401 232.56234 234.70367 236.88799 239.15632 241.53865
 244.17198 246.43531 248.44963 250.22696 251.65629 252.79162 253.62594 253.95427
 254.00360 253.78993 253.16226 252.12258 250.74091 248.91424 246.83557 244.68089
 242.48422 240.30055 238.13288 235.98421 233.85653 231.73586 229.77419 227.94352
 226.23884 224.72317 223.36550 222.14983 221.04416 220.01648 219.13281 218.28614
 217.54047 216.73279 215.84312 215.21945 214.68178 214.24495 213.25000 213.25221
 214.50728 214.65335 214.97887 216.36627 218.35324 221.39447 226.36086 230.94035
 234.70346 238.96660 243.28316 247.20929 250.68047 253.93945 257.33582 260.39642
 263.27390 266.07407 268.66898 270.86664 272.81897 274.99557 276.76569 278.34302
 279.66406 281.00162 282.12186 283.09647 283.93335 284.67279 284.89297 285.08572
 285.25906 285.41345 285.54828 285.72015
 366.78100 356.34557 345.78814 334.66471 323.07828 311.28285 299.16341 286.97698
 274.69955 262.60712 250.62669 239.93826 230.07083 221.18540 213.37797 206.39054
 200.23510 195.18367 191.77624 189.82881 188.87638 188.95095 189.79652 191.11509
 192.85066 194.95623 197.22980 199.59936 202.05493 204.54550 206.64407 208.49664
 210.13321 211.28878 211.52835 211.76692 211.71449 211.43005 211.07362 210.71419
 210.34176 210.06233 209.88090 209.75547 209.69404 210.03561 210.43218 210.83175
 211.63531 212.82388 214.08445 215.87802 217.81659 219.87016 221.97573 224.06930
 226.13987 228.23444 230.34200 232.45857 234.59814 236.78071 239.04728 241.42785
 244.05942 246.32099 248.33356 250.10913 251.53670 252.67026 253.50283 253.82940
 253.87697 253.66154 253.03211 251.99068 250.60725 248.77882 246.69839 244.54196
 242.34352 240.15809 237.98866 235.83823 233.70880 231.58637 229.62294 227.79051
 226.08408 224.56665 223.20721 221.98978 220.88235 219.85292 218.96749 218.11906
 217.37163 216.56220 215.67077 215.04534 214.50591 214.16492 213.38237 213.29358
 214.41463 214.74493 215.18779 216.55112 218.46725 221.45653 226.31432 230.89250
 234.65268 238.88271 243.14653 247.00822 250.43127 253.82164 257.22589 260.34549
 263.29230 266.08472 268.58713 270.71017 272.97192 275.00858 276.76566 278.27509
 279.49716 280.58978 281.67722 282.58264 283.32748 283.92780 284.42706 284.87939
 285.28619 285.64844 285.96490 286.36823
 366.78100 356.34388 345.78475 334.65963 323.07151 311.27439 299.15326 286.96514
 274.68602 262.59189 250.60977 239.91965 230.05053 221.16340 213.35428 206.36516
 200.20803 195.15491 191.74579 189.79667 188.84254 188.91542 189.75930 191.07617
 192.81005 194.91393 197.18581 199.55368 202.00756 204.49644 206.59331 208.44419
 210.07907 211.23295 211.47082 211.70770 211.65358 211.36745 211.00933 210.64821
 210.27409 209.99296 209.80984 209.68272 209.61959 209.95947 210.35435 210.75223
 211.55410 212.74098 213.99986 215.79174 217.72861 219.78049 221.88437 223.97624
 226.04512 228.13800 230.24388 232.35875 234.49663 236.67751 238.94238 241.32126
 243.95114 246.21102 248.22189 249.99577 251.42165 252.55352 253.38440 253.70928
 253.75516 253.53803 252.90691 251.86379 250.47866 248.64854 246.56642 244.40830
 242.20817 240.02105 237.84993 235.69780 233.56668 231.44256 229.47744 227.64331
 225.93519 224.41607 223.05494 221.83582 220.72670 219.69558 218.80845 217.95833
 217.20921 216.39808 215.50496 214.87784 214.33672 214.08992 213.51222 213.35085
 214.27725 214.89792 215.42958 216.69466 218.51833 221.48340 226.28212 230.85376
 234.62080 238.82701 243.05376 246.86552 250.24652 253.80083 257.44342 260.44595
 263.31424 266.01611 268.41919 270.82214 273.11697 275.05392 276.73700 278.17831
 279.41049 280.45169 281.27237 282.02698 282.90671 283.77060 284.55875 285.27280
 285.91498 286.48685 286.98642 287.62308
 366.78100 356.34492 345.78683 334.66275 323.07567 311.27958 299.15950 286.97242
 274.69433 262.60125 250.62016 239.93108 230.06300 221.17691 213.36883 206.38075
 200.22466 195.17258 191.76450 189.81641 188.86333 188.93725 189.78216 191.10008
 192.83499 194.93991 197.21283 199.58174 202.03666 204.52658 206.62449 208.47641
 210.11233 211.26724 211.50616 211.74408 211.69099 211.40591 211.04882 210.68874
 210.31566 210.03557 209.85349 209.72741 209.66532 210.00624 210.40216 210.80107
 211.60399 212.79191 214.05182 215.84474 217.78265 219.83557 221.94049 224.03340
 226.10332 228.19724 230.30415 232.42007 234.55899 236.74090 239.00682 241.38674
 244.01765 246.27857 248.29048 250.06540 251.49232 252.62523 253.45715 253.78307
 253.82998 253.61390 252.98382 251.94173 250.55765 248.72857 246.64748 244.49040
 242.29131 240.10523 237.93515 235.78406 233.65398 231.53090 229.56681 227.73373
 226.02665 224.50856 223.14848 221.93040 220.82231 219.79223 218.90614 218.05706
 217.30898 216.49889 215.60681 214.98073 214.44064 214.15393 213.49602 213.38734
 214.27750 215.01999 215.60959 216.81889 218.55971 221.47366 226.24640 230.82697
 234.59276 238.77365 242.97351 246.77644 250.15735 253.77498 257.52914 260.33072
 263.16891 265.83459 268.39053 270.96960 273.16962 275.02872 276.67416 278.09344
 279.33954 280.32382 280.98334 281.71927 282.78448 283.74939 284.62973 285.42728
 286.14456 286.78329 287.34131 288.05240
 366.78100 356.34569 345.78838 334.66507 323.07876 311.28345 299.16414 286.97783
 274.70052 262.60821 250.62790 239.93959 230.07228 221.18697 213.37967 206.39236
 200.23705 195.18574 191.77843 189.83112 188.87881 188.95350 189.79919 191.11788
 192.85357 194.95926 197.23295 199.60264 202.05833 204.54902 206.64771 208.50040
 210.13709 211.29278 211.53247 211.77116 211.71885 211.43454 211.07823 210.71892
 210.34661 210.06730 209.88600 209.76069 209.69938 210.04107 210.43776 210.83745
 211.64114 212.82983 214.09052 215.88421 217.82290 219.87659 221.98228 224.07597
 226.14666 228.24135 230.34904 232.46573 234.60542 236.78811 239.05480 241.43549
 244.06718 246.32887 248.34156 250.11725 251.54494 252.67863 253.51133 253.83802
 253.88571 253.67040 253.04109 251.99978 250.61647 248.78816 246.70785 244.55154
 242.35323 240.16792 237.99861 235.84830 233.71899 231.59668 229.63337 227.80106
 226.09475 224.57744 223.21813 222.00082 220.89351 219.86420 218.97889 218.13058
 217.38327 216.57396 215.68266 215.05735 214.51804 214.23033 213.53621 213.27690
 214.27939 215.10875 215.83759 217.09647 218.72020 221.57233 226.27036 230.79160
 234.55632 238.71184 242.87766 246.66005 250.08391 253.75446 257.40530 260.36682
 263.10538 265.84570 268.47079 271.10269 273.17661 275.00146 276.61618 278.04938
 279.26001 280.05020 280.75418 281.35040 281.86636 282.32288 282.73935 283.11667
 283.45602 283.75821 284.02219 284.35861
 366.78100 356.34079 345.77859 334.65038 323.05917 311.25897 299.13476 286.94356
 274.66135 262.56414 250.57894 239.88573 230.01352 221.12332 213.31111 206.31890
 200.15870 195.10249 191.69029 189.73808 188.78087 188.85067 189.69146 191.00525
 192.73605 194.83684 197.10564 199.47043 201.92122 204.40702 206.50081 208.34860
 209.98040 211.13119 211.36598 211.59978 211.54257 211.25337 210.89216 210.52795
 210.15075 209.86654 209.68033 209.55013 209.48392 209.82071 210.21251 210.60730
 211.40610 212.58989 213.84568 215.63448 217.56827 219.61706 221.71786 223.80665
 225.87245 227.96224 230.06503 232.17683 234.31162 236.48941 238.75121 241.12700
 243.75379 246.01059 248.01838 249.78918 251.21197 252.34076 253.16856 253.49035
 253.53314 253.31294 252.67873 251.63252 250.24432 248.41111 246.32591 244.16470
 241.96149 239.77129 237.59708 235.44187 233.30767 231.18046 229.21225 227.37505
 225.66384 224.14164 222.77743 221.55522 220.44302 219.40881 218.51860 217.66540
 216.91319 216.09899 215.20278 214.57257 214.02837 214.01910 213.83452 213.17451
 213.92555 214.98363 215.97461 217.34746 218.96317 221.74591 226.37750 230.87286
 234.61012 238.71486 242.82980 246.61742 250.10811 253.80522 257.43903 260.46103
 263.18817 265.91193 268.62238 271.12036 273.20721 274.97104 276.57825 277.99246
 279.09778 279.92926 280.65942 281.29480 281.84470 282.33121 282.77505 283.17715
 283.53882 283.86087 284.14221 284.50073
 366.78100 356.33706 345.77111 334.63917 323.04423 311.24028 299.11234 286.91740
 274.63145 262.53051 250.54157 239.84462 229.96868 221.07474 213.25879 206.26285
 200.09891 195.03896 191.62302 189.66708 188.70613 188.77219 189.60925 190.91930
 192.64636 194.74342 197.00847 199.36953 201.81659 204.29864 206.38870 208.23276
 209.86081 211.00787 211.23893 211.46898 211.40804 211.11510 210.75015 210.38221
 210.00127 209.71332 209.52338 209.38944 209.31949 209.65255 210.04061 210.43166
 211.22672 212.40677 213.65883 215.44389 217.37394 219.41900 221.51606 223.60111
 225.66317 227.74923 229.84828 231.95634 234.08740 236.26145 238.51951 240.89157
 243.51462 245.76768 247.77174 249.53879 250.95785 252.08291 252.90696 253.22502
 253.26408 253.04013 252.40219 251.35225 249.96030 248.12336 246.03442 243.86947
 241.66253 239.46859 237.29064 235.13170 232.99376 230.86281 228.89087 227.04993
 225.33498 223.80904 222.44110 221.21515 220.09921 219.06127 218.16732 217.31038
 216.55444 215.73649 214.83655 214.20261 213.65466 213.81970 214.04692 213.39713
 213.65668 214.70941 215.87039 217.29002 219.01868 221.88292 226.42160 230.94260
 234.66045 238.73424 242.82343 246.62906 250.14459 253.79269 257.41556 260.51392
 263.30130 265.98608 268.70883 271.14911 273.17017 274.89359 276.46039 277.80853
 278.90390 279.78836 280.71497 281.67706 282.50964 283.24631 283.91837 284.52722
 285.07483 285.56244 285.98843 286.53131
 366.78100 356.34109 345.77918 334.65127 323.06036 311.26045 299.13654 286.94563
 274.66372 262.56680 250.58189 239.88898 230.01707 221.12716 213.31525 206.32334
 200.16343 195.10752 191.69561 189.74370 188.78679 188.85688 189.69797 191.01206
 192.74315 194.84423 197.11332 199.47841 201.92950 204.41559 206.50968 208.35777
 209.98986 211.14095 211.37604 211.61013 211.55322 211.26431 210.90340 210.53949
 210.16258 209.87866 209.69275 209.56284 209.49693 209.83402 210.22611 210.62120
 211.42029 212.60438 213.86047 215.64956 217.58365 219.63274 221.73383 223.82292
 225.88901 227.97909 230.08218 232.19427 234.32936 236.50745 238.76954 241.14563
 243.77272 246.02981 248.03790 249.80899 251.23208 252.36117 253.18926 253.51135
 253.55444 253.33452 252.70061 251.65470 250.26679 248.43388 246.34897 244.18806
 241.98515 239.79524 237.62133 235.46642 233.33251 231.20560 229.23769 227.40078
 225.68987 224.16795 222.80404 221.58213 220.47022 219.43631 218.54640 217.69349
 216.94158 216.12767 215.23176 214.60185 214.05794 214.00322 213.85069 213.68912
 214.00591 214.75626 215.72603 216.99928 218.75475 221.74011 226.33247 230.88284
 234.57904 238.60507 242.64629 246.46153 250.03502 253.71002 257.31152 260.42993
 263.30026 266.03525 268.79633 271.19504 273.09885 274.76346 276.31024 277.63638
 278.77151 279.59601 280.86755 282.11923 283.20248 284.16089 285.03525 285.82739
 286.53983 287.17426 287.72849 288.43478
 366.78100 356.34597 345.78893 334.66590 323.07987 311.28484 299.16580 286.97977
 274.70274 262.61070 250.63067 239.94264 230.07561 221.19057 213.38354 206.39651
 200.24147 195.19044 191.78341 189.83638 188.88434 188.95931 189.80528 191.12424
 192.86021 194.96618 197.24015 199.61011 202.06608 204.55705 206.65601 208.50898
 210.14595 211.30192 211.54188 211.78085 211.72882 211.44478 211.08875 210.72972
 210.35769 210.07865 209.89762 209.77259 209.71155 210.05352 210.45049 210.85046
 211.65442 212.84339 214.10436 215.89832 217.83729 219.89126 221.99723 224.09119
 226.16216 228.25713 230.36509 232.48206 234.62203 236.80500 239.07196 241.45293
 244.08490 246.34686 248.35983 250.13580 251.56377 252.69773 253.53070 253.85767
 253.90564 253.69060 253.06157 252.02054 250.63750 248.80947 246.72944 244.57341
 242.37537 240.19034 238.02131 235.87127 233.74224 231.62021 229.65718 227.82514
 226.11911 224.60208 223.24304 222.02601 220.91898 219.88995 219.00491 218.15688
 217.40985 216.60081 215.70978 215.08475 214.54572 214.26672 213.65132 213.64445
 214.29303 215.04041 215.91278 217.02034 218.63640 221.59576 226.26656 230.82982
 234.51582 238.48383 242.45789 246.25775 249.90536 253.66833 257.27307 260.40125
 263.32806 266.09390 268.86588 271.21176 273.10257 274.62076 276.14230 277.51825
 278.60403 279.75681 281.36411 282.77542 283.99677 285.07736 286.06326 286.95639
 287.75967 288.47501 289.09988 289.89624
 366.78100 356.34414 345.78528 334.66042 323.07256 311.27570 299.15484 286.96698
 274.68813 262.59427 250.61241 239.92255 230.05369 221.16683 213.35797 206.36911
 200.21225 195.15939 191.75053 189.80167 188.84781 188.92095 189.76509 191.08224
 192.81638 194.92052 197.19266 199.56080 202.01494 204.50408 206.60122 208.45236
 210.08750 211.24164 211.47978 211.71692 211.66306 211.37721 211.01935 210.65849
 210.28463 210.00377 209.82091 209.69405 209.63119 209.97133 210.36647 210.76461
 211.56675 212.75389 214.01303 215.80517 217.74232 219.79446 221.89860 223.99074
 226.05988 228.15302 230.25916 232.37430 234.51244 236.69358 238.95872 241.33786
 243.96800 246.22814 248.23928 250.01343 251.43957 252.57171 253.40285 253.72799
 253.77413 253.55727 252.92641 251.88355 250.49869 248.66883 246.58697 244.42911
 242.22925 240.04239 237.87154 235.71968 233.58882 231.46496 229.50010 227.66624
 225.95838 224.43952 223.07866 221.85980 220.75094 219.72008 218.83322 217.98336
 217.23450 216.42365 215.53079 214.90393 214.36307 214.20432 213.78381 213.52054
 214.16212 215.09096 216.11897 217.26825 218.80405 221.64392 226.30186 230.83830
 234.51479 238.44470 242.36899 246.15547 249.84662 253.66280 257.27841 260.42700
 263.39319 266.19681 268.87485 271.16751 272.98621 274.44687 276.05096 277.37064
 278.57635 279.96558 281.49991 282.84720 284.01312 285.04468 285.98584 286.83844
 287.60526 288.28812 288.88467 289.64487
 366.78100 356.34108 345.77916 334.65123 323.06031 311.26039 299.13647 286.94554
 274.66362 262.56670 250.58178 239.88886 230.01693 221.12701 213.31509 206.32317
 200.16324 195.10732 191.69540 189.74348 188.78656 188.85663 189.69771 191.01179
 192.74287 194.84394 197.11302 199.47810 201.92918 204.41526 206.50933 208.35741
 209.98949 211.14057 211.37564 211.60972 211.55280 211.26388 210.90296 210.53903
 210.16211 209.87819 209.69227 209.56234 209.49642 209.83350 210.22558 210.62066
 211.41973 212.60381 213.85989 215.64897 217.58304 219.63212 221.73320 223.82228
 225.88836 227.97843 230.08151 232.19359 234.32867 236.50674 238.76882 241.14490
 243.77198 246.02906 248.03713 249.80821 251.23129 252.36037 253.18844 253.51052
 253.55360 253.33368 252.69976 251.65383 250.26591 248.43299 246.34807 244.18714
 241.98422 239.79430 237.62038 235.46546 233.33153 231.20461 229.23669 227.39977
 225.68884 224.16692 222.80300 221.58108 220.46916 219.43523 218.54531 217.69239
 216.94047 216.12654 215.23062 214.60070 214.05678 214.07524 213.96243 213.49530
 214.09102 215.10568 216.19559 217.38461 218.87560 221.59319 226.32614 230.82541
 234.47968 238.37073 242.24522 245.99759 249.72253 253.61688 257.23212 260.37991
 263.35721 266.19284 268.89075 271.11758 272.82468 274.29300 275.89941 277.17212
 278.35867 280.13553 281.72156 283.11420 284.31940 285.38571 286.35855 287.23987
 288.03253 288.73837 289.35501 290.14084
 366.78100 356.33793 345.77287 334.64180 323.04774 311.24467 299.11761 286.92354
 274.63848 262.53841 250.55035 239.85428 229.97922 221.08615 213.27108 206.27602
 200.11295 195.05389 191.63882 189.68376 188.72369 188.79063 189.62856 190.93950
 192.66743 194.76537 197.03130 199.39323 201.84117 204.32410 206.41504 208.25997
 209.88891 211.03684 211.26878 211.49971 211.43965 211.14758 210.78352 210.41645
 210.03638 209.74932 209.56025 209.42719 209.35812 209.69206 210.08099 210.47293
 211.26886 212.44980 213.70273 215.48867 217.41960 219.46553 221.56347 223.64940
 225.71234 227.79927 229.89921 232.00814 234.14008 236.31501 238.57395 240.94688
 243.57082 245.82475 247.82969 249.59762 251.01755 252.14349 252.96842 253.28736
 253.32729 253.10423 252.46716 251.41810 250.02703 248.19097 246.10290 243.93884
 241.73277 239.53970 237.36264 235.20457 233.06751 230.93744 228.96638 227.12631
 225.41225 223.88718 222.52012 221.29505 220.17999 219.14292 218.24985 217.39379
 216.63872 215.82166 214.92259 214.28953 213.74246 213.95555 214.13275 213.42467
 213.94920 215.16019 216.34474 217.55341 219.08684 221.64955 226.34711 230.80167
 234.42038 238.27521 242.11832 245.85228 249.61594 253.58211 257.17352 260.39120
 263.39377 266.21664 268.81219 270.98007 272.61172 274.17410 275.75366 277.09372
 278.63831 280.07251 281.31357 282.40332 283.34637 284.18079 284.94202 285.63165
 286.25192 286.80426 287.28677 287.90167
 366.78100 356.33841 345.77382 334.64323 323.04964 311.24705 299.12047 286.92688
 274.64229 262.54270 250.55511 239.85952 229.98493 221.09234 213.27775 206.28316
 200.12057 195.06198 191.64740 189.69281 188.73322 188.80063 189.63904 190.95045
 192.67886 194.77727 197.04368 199.40609 201.85450 204.33791 206.42933 208.27474
 209.90415 211.05256 211.28497 211.51638 211.45679 211.16520 210.80161 210.43502
 210.05543 209.76884 209.58026 209.44767 209.37908 209.71349 210.10290 210.49531
 211.29172 212.47313 213.72654 215.51295 217.44436 219.49077 221.58919 223.67560
 225.73901 227.82642 229.92683 232.03624 234.16865 236.34406 238.60347 240.97688
 243.60129 245.85571 247.86112 249.62953 251.04994 252.17635 253.00176 253.32117
 253.36158 253.13899 252.50240 251.45381 250.06322 248.22764 246.14005 243.97646
 241.77087 239.57828 237.40169 235.24410 233.10751 230.97792 229.00733 227.16774
 225.45415 223.92957 222.56298 221.33839 220.22380 219.18721 218.29462 217.43903
 216.68444 215.86785 214.96926 214.33667 213.79008 213.97539 214.18547 213.55605
 213.68300 214.94008 216.36003 217.65877 219.22334 221.78442 226.40076 230.86041
 234.46916 238.30359 242.12288 245.84067 249.67136 253.63866 257.23767 260.47809
 263.51538 266.34525 268.85065 270.89664 272.61951 274.05356 275.64465 277.27466
 279.37222 281.17017 282.72595 284.09207 285.27432 286.32031 287.27463 288.13916
 288.91672 289.60913 290.21402 290.98486
 366.78100 356.34301 345.78302 334.65704 323.06805 311.27006 299.14807 286.95908
 274.67909 262.58411 250.60112 239.91013 230.04014 221.15215 213.34216 206.35218
 200.19419 195.14020 191.73021 189.78022 188.82523 188.89725 189.74026 191.05627
 192.78928 194.89229 197.16330 199.53032 201.98333 204.47134 206.56735 208.41736
 210.05137 211.20439 211.44140 211.67741 211.62242 211.33543 210.97644 210.61446
 210.23947 209.95748 209.77349 209.64550 209.58151 209.92053 210.31454 210.71155
 211.51256 212.69857 213.95658 215.74760 217.68361 219.73462 221.83763 223.92864
 225.99665 228.08867 230.19368 232.30769 234.44470 236.62471 238.88872 241.26674
 243.89575 246.15476 248.16477 249.93778 251.36279 252.49381 253.32382 253.64783
 253.69284 253.47485 252.84286 251.79888 250.41289 248.58190 246.49891 244.33992
 242.13893 239.95095 237.77896 235.62597 233.49398 231.36899 229.40300 227.56802
 225.85903 224.33904 222.97705 221.75706 220.64707 219.61509 218.72710 217.87611
 217.12612 216.31413 215.42014 214.79216 214.25017 214.17584 214.01688 213.86943
 213.86180 214.81126 216.19513 217.47701 219.10112 221.73291 226.32655 230.80086
 234.38338 238.19296 242.00082 245.76566 249.63977 253.58987 257.18323 260.42880
 263.48895 266.33914 268.80429 270.84402 272.56329 274.05206 275.58932 277.44522
 279.39703 281.28540 282.91943 284.35428 285.59598 286.69458 287.69687 288.60489
 289.42157 290.14880 290.78412 291.59375
 366.78100 356.34383 345.78465 334.65948 323.07131 311.27413 299.15296 286.96479
 274.68562 262.59144 250.60927 239.91910 230.04992 221.16275 213.35358 206.36440
 200.20723 195.15406 191.74489 189.79571 188.84154 188.91437 189.75819 191.07502
 192.80885 194.91267 197.18450 199.55233 202.00615 204.49498 206.59181 208.44264
 210.07746 211.23129 211.46912 211.70594 211.65177 211.36560 211.00742 210.64625
 210.27208 209.99091 209.80773 209.68056 209.61739 209.95721 210.35204 210.74987
 211.55169 212.73852 213.99735 215.78917 217.72600 219.77783 221.88166 223.97348
 226.04231 228.13514 230.24096 232.35579 234.49362 236.67444 238.93927 241.31810
 243.94793 246.20775 248.21858 249.99241 251.41823 252.55006 253.38089 253.70571
 253.75154 253.53437 252.90319 251.86002 250.47485 248.64468 246.56250 244.40433
 242.20416 240.01698 237.84581 235.69364 233.56246 231.43829 229.47312 227.63895
 225.93077 224.41160 223.05043 221.83125 220.72208 219.69091 218.80373 217.95356
 217.20439 216.39321 215.50004 214.87287 214.33170 214.23091 213.98212 213.84100
 214.10851 215.02818 216.28633 217.48859 219.00912 221.69684 226.20554 230.67920
 234.21883 237.97046 241.73969 245.54041 249.51352 253.47646 257.07178 260.32050
 263.39661 266.23706 268.73251 270.71371 272.45447 273.97565 275.59216 277.20984
 278.81876 280.63596 282.20926 283.59076 284.78632 285.84409 286.80914 287.68341
 288.46973 289.16995 289.78162 290.56116
 366.78100 356.33923 345.77547 334.64570 323.05293 311.25116 299.12540 286.93263
 274.64886 262.55009 250.56333 239.86856 229.99479 221.10302 213.28926 206.29549
 200.13372 195.07595 191.66219 189.70842 188.74965 188.81788 189.65712 190.96935
 192.69858 194.79781 197.06505 199.42828 201.87751 204.36174 206.45398 208.30021
 209.93044 211.07967 211.31291 211.54514 211.48637 211.19560 210.83284 210.46707
 210.08830 209.80253 209.61477 209.48300 209.41523 209.75046 210.14070 210.53393
 211.33116 212.51339 213.76763 215.55486 217.48709 219.53432 221.63356 223.72079
 225.78502 227.87325 229.97449 232.08472 234.21795 236.39418 238.65442 241.02865
 243.65388 245.90911 247.91535 249.68458 251.10581 252.23304 253.05928 253.37951
 253.42074 253.19897 252.56321 251.51544 250.12567 248.29091 246.20414 244.04137
 241.83660 239.64484 237.46907 235.31230 233.17653 231.04777 229.07800 227.23923
 225.52646 224.00270 222.63693 221.41316 220.29939 219.26363 218.37186 217.51709
 216.76332 215.94756 215.04979 214.41802 213.87225 214.03650 214.23636 213.69420
 213.88852 215.05026 216.42012 217.72334 219.24356 221.80818 226.33932 230.70622
 234.20122 237.90186 241.63734 245.44289 249.48407 253.48480 257.09290 260.38013
 263.47968 266.25851 268.63373 270.56235 272.32782 273.89343 275.52658 276.90244
 278.54208 280.36996 281.95172 283.34061 284.54254 285.60599 286.57620 287.45514
 288.24564 288.94962 289.56458 290.34827
 366.78100 356.33675 345.77050 334.63825 323.04301 311.23876 299.11051 286.91526
 274.62901 262.52776 250.53851 239.84127 229.96502 221.07077 213.25452 206.25827
 200.09402 195.03377 191.61753 189.66128 188.70003 188.76578 189.60253 190.91228
 192.63903 194.73579 197.00054 199.36129 201.80804 204.28979 206.37954 208.22330
 209.85105 210.99780 211.22855 211.45830 211.39705 211.10380 210.73856 210.37031
 209.98906 209.70081 209.51056 209.37631 209.30606 209.63882 210.02657 210.41732
 211.21207 212.39182 213.64357 215.42832 217.35808 219.40283 221.49958 223.58433
 225.64608 227.73183 229.83058 231.93834 234.06909 236.24284 238.50059 240.87234
 243.49509 245.74784 247.75160 249.51835 250.93710 252.06185 252.88560 253.20335
 253.24210 253.01786 252.37961 251.32936 249.93711 248.09986 246.01061 243.84536
 241.63812 239.44387 237.26562 235.10637 232.96812 230.83687 228.86463 227.02338
 225.30813 223.78188 222.41363 221.18738 220.07113 219.03289 218.13864 217.28139
 216.52514 215.70689 214.80664 214.17239 213.62415 213.91393 214.41678 213.84009
 213.61217 214.75961 216.27945 217.65042 219.25056 222.02338 226.41650 230.79930
 234.28833 237.96936 241.67982 245.48984 249.54254 253.55901 257.19403 260.50909
 263.64551 266.41891 268.70142 270.53607 272.31552 273.79242 275.39490 277.05975
 278.41827 280.29047 281.92462 283.35953 284.60135 285.70001 286.70239 287.61044
 288.42719 289.15445 289.78979 290.59949
 366.78100 356.33795 345.77291 334.64186 323.04781 311.24476 299.11772 286.92367
 274.63862 262.53857 250.55053 239.85448 229.97943 221.08638 213.27134 206.27629
 200.11324 195.05419 191.63915 189.68410 188.72405 188.79101 189.62896 190.93991
 192.66786 194.76582 197.03177 199.39372 201.84167 204.32463 206.41558 208.26053
 209.88948 211.03744 211.26939 211.50034 211.44029 211.14825 210.78420 210.41715
 210.03711 209.75006 209.56101 209.42796 209.35892 209.69287 210.08182 210.47377
 211.26973 212.45068 213.70363 215.48958 217.42054 219.46649 221.56444 223.65039
 225.71335 227.80030 229.90025 232.00920 234.14116 236.31611 238.57506 240.94802
 243.57197 245.82592 247.83087 249.59883 251.01878 252.14473 252.96968 253.28864
 253.32859 253.10554 252.46849 251.41945 250.02840 248.19235 246.10430 243.94026
 241.73421 239.54116 237.36412 235.20607 233.06902 230.93897 228.96793 227.12788
 225.41383 223.88878 222.52174 221.29669 220.18164 219.14459 218.25155 217.39550
 216.64045 215.82340 214.92436 214.29131 213.74426 213.95534 214.38644 214.11311
 213.68562 214.60443 216.06018 217.41550 219.15343 222.10168 226.29999 230.74483
 234.22198 237.87845 241.58401 245.43750 249.49588 253.50372 257.14648 260.48938
 263.62970 266.42206 268.71582 270.59866 272.28287 273.78024 275.45572 277.47314
 278.75159 280.02643 281.60602 283.01721 284.23846 285.31897 286.30478 287.19785
 288.00104 288.71631 289.34116 290.13745
 366.78100 356.34027 345.77754 334.64880 323.05707 311.25634 299.13161 286.93987
 274.65714 262.55941 250.57368 239.87995 230.00721 221.11648 213.30375 206.31102
 200.15029 195.09355 191.68082 189.72809 188.77036 188.83962 189.67989 190.99316
 192.72343 194.82370 197.09196 199.45623 201.90650 204.39177 206.48504 208.33230
 209.96357 211.11384 211.34811 211.58137 211.52364 211.23391 210.87218 210.50745
 210.12971 209.84498 209.65825 209.52752 209.46079 209.79705 210.18832 210.58259
 211.38086 212.56412 213.81939 215.60766 217.54093 219.58920 221.68946 223.77773
 225.84300 227.93227 230.03453 232.14580 234.28007 236.45734 238.71861 241.09387
 243.72014 245.97641 247.98368 249.75395 251.17621 252.30448 253.13175 253.45302
 253.49528 253.27455 252.63982 251.59309 250.20436 248.37062 246.28489 244.12316
 241.91943 239.72870 237.55396 235.39823 233.26350 231.13577 229.16703 227.32930
 225.61757 224.09484 222.73011 221.50737 220.39464 219.35991 218.46918 217.61545
 216.86271 216.04798 215.15125 214.52052 213.97578 214.07169 214.28458 214.20781
 213.89143 214.66208 216.05106 217.36415 219.10452 222.05412 226.23468 230.64522
 234.05089 237.66031 241.36192 245.27586 249.41154 253.42404 257.05350 260.38718
 263.48059 266.22775 268.55304 270.46323 272.20526 273.74054 275.49304 277.58401
 279.11615 280.27924 281.46021 282.83310 284.03458 285.09756 286.06738 286.94595
 287.73615 288.43982 289.05453 289.83792
 366.78100 356.34186 345.78073 334.65359 323.06346 311.26432 299.14119 286.95105
 274.66992 262.57378 250.58965 239.89751 230.02638 221.13724 213.32611 206.33497
 200.17583 195.12070 191.70956 189.75843 188.80229 188.87316 189.71502 191.02989
 192.76175 194.86362 197.13348 199.49935 201.95121 204.43808 206.53294 208.38180
 210.01467 211.16653 211.40240 211.63726 211.58113 211.29299 210.93286 210.56972
 210.19359 209.91045 209.72532 209.59618 209.53105 209.86891 210.26178 210.65764
 211.45750 212.64237 213.89923 215.68910 217.62396 219.67383 221.77569 223.86556
 225.93242 228.02329 230.12715 232.24002 234.37588 236.55475 238.81761 241.19447
 243.82234 246.08020 248.08907 249.86093 251.28480 252.41466 253.24353 253.56639
 253.61026 253.39112 252.75799 251.71285 250.32572 248.49358 246.40944 244.24931
 242.04717 239.85804 237.68490 235.53077 233.39763 231.27150 229.30436 227.46823
 225.75809 224.23696 222.87382 221.65269 220.54155 219.50841 218.61928 217.76714
 217.01601 216.20287 215.30774 214.67860 214.13547 214.17352 214.24944 214.14311
 213.99680 214.73421 216.12108 217.47255 219.18483 222.09404 226.29259 230.59380
 233.98433 237.53217 241.22243 245.19032 249.39395 253.39990 257.01294 260.33643
 263.40335 266.10754 268.40964 270.32974 272.13031 273.68311 275.54410 277.51083
 279.02670 280.18408 281.18787 282.55734 283.74249 284.79105 285.74771 286.61435
 287.39383 288.08795 288.69431 289.46704
 366.78100 356.33919 345.77539 334.64558 323.05277 311.25097 299.12516 286.93235
 274.64854 262.54974 250.56293 239.86812 229.99432 221.10251 213.28870 206.29490
 200.13309 195.07528 191.66147 189.70767 188.74886 188.81705 189.65625 190.96844
 192.69763 194.79683 197.06402 199.42721 201.87640 204.36060 206.45279 208.29898
 209.92918 211.07837 211.31156 211.54376 211.48495 211.19414 210.83133 210.46553
 210.08672 209.80091 209.61311 209.48130 209.41349 209.74869 210.13888 210.53207
 211.32926 212.51146 213.76565 215.55284 217.48504 219.53223 221.63142 223.71862
 225.78281 227.87100 229.97219 232.08239 234.21558 236.39177 238.65197 241.02616
 243.65135 245.90655 247.91274 249.68193 251.10312 252.23032 253.05651 253.37670
 253.41790 253.19609 252.56028 251.51248 250.12267 248.28786 246.20106 244.03825
 241.83344 239.64163 237.46583 235.30902 233.17321 231.04441 229.07460 227.23579
 225.52299 223.99918 222.63337 221.40956 220.29576 219.25995 218.36814 217.51334
 216.75953 215.94372 215.04592 214.41411 213.86830 214.06804 214.44257 214.06734
 213.84538 214.71844 216.15404 217.56390 219.29373 222.19493 226.43660 230.65521
 234.02260 237.52864 241.19113 245.18643 249.41629 253.41080 257.02429 260.35144
 263.40790 266.08426 268.29083 270.21988 272.07089 273.69858 275.48010 277.18976
 278.96671 279.94623 281.12646 282.18393 283.09909 283.90875 284.64746 285.31665
 285.91855 286.45453 286.92273 287.51944
 366.78100 356.33567 345.76834 334.63501 323.03869 311.23336 299.10403 286.90770
 274.62037 262.51804 250.52772 239.82939 229.95206 221.05673 213.23940 206.24207
 200.07675 195.01542 191.59809 189.64076 188.67843 188.74310 189.57877 190.88745
 192.61312 194.70879 196.97246 199.33213 201.77780 204.25848 206.34715 208.18982
 209.81649 210.96216 211.19183 211.42051 211.35818 211.06385 210.69752 210.32819
 209.94586 209.65654 209.46521 209.32988 209.25855 209.59022 209.97689 210.36656
 211.16024 212.33891 213.58958 215.37325 217.30192 219.34559 221.44127 223.52494
 225.58561 227.67028 229.76795 231.87462 234.00430 236.17697 238.43364 240.80431
 243.42598 245.67765 247.68032 249.44600 250.86367 251.98734 252.81001 253.12668
 253.16435 252.93903 252.29970 251.24837 249.85504 248.01671 245.92638 243.76006
 241.55173 239.35640 237.17707 235.01674 232.87741 230.74509 228.77176 226.92943
 225.21310 223.68577 222.31644 221.08911 219.97179 218.93246 218.03713 217.17880
 216.42147 215.60214 214.70082 214.06549 213.51616 213.90331 214.67030 214.19644
 213.64532 214.53015 215.99699 217.50511 219.34232 222.28963 226.56801 230.74815
 234.08350 237.56232 241.19992 245.20247 249.43002 253.41324 257.03769 260.37103
 263.42264 266.06104 268.21817 270.14255 272.04282 273.66696 275.34570 277.03314
 278.52478 279.43152 280.71133 281.93790 282.99939 283.93854 284.79535 285.57159
 286.26971 286.89142 287.43451 288.12662
 366.78100 356.33749 345.77199 334.64048 323.04598 311.24247 299.11496 286.92046
 274.63495 262.53445 250.54594 239.84943 229.97393 221.08042 213.26492 206.26941
 200.10590 195.04640 191.63089 189.67539 188.71488 188.78137 189.61887 190.92936
 192.65685 194.75435 197.01984 199.38134 201.82883 204.31132 206.40182 208.24631
 209.87481 211.02230 211.25379 211.48429 211.42378 211.13128 210.76677 210.39926
 210.01876 209.73125 209.54175 209.40824 209.33873 209.67223 210.06072 210.45222
 211.24771 212.42820 213.68070 215.46619 217.39669 219.44218 221.53967 223.62517
 225.68766 227.77416 229.87365 231.98214 234.11364 236.28813 238.54662 240.91912
 243.54261 245.79611 247.80060 249.56809 250.98759 252.11308 252.93758 253.25607
 253.29556 253.07206 252.43455 251.38505 249.99354 248.15703 246.06853 243.90402
 241.69752 239.50401 237.32650 235.16800 233.03049 230.89999 228.92848 227.08797
 225.37347 223.84796 222.48046 221.25495 220.13944 219.10194 218.20843 217.35193
 216.59642 215.77891 214.87941 214.24590 213.69839 213.99095 214.63000 214.46414
 213.74234 214.37621 215.81746 217.36639 219.19646 222.17659 226.55663 230.72925
 234.03630 237.49454 241.13387 245.17773 249.40646 253.38620 257.01004 260.34354
 263.39258 266.02887 268.19400 270.10007 271.99710 273.63715 275.24844 276.91190
 278.14563 279.57236 281.14264 282.52142 283.71466 284.77036 285.73352 286.60611
 287.39087 288.08972 288.70023 289.47824
 366.78100 356.34189 345.78078 334.65367 323.06356 311.26445 299.14133 286.95122
 274.67011 262.57400 250.58989 239.89778 230.02667 221.13756 213.32645 206.33534
 200.17623 195.12111 191.71000 189.75889 188.80278 188.87367 189.71556 191.03045
 192.76234 194.86423 197.13412 199.50001 201.95189 204.43878 206.53367 208.38256
 210.01545 211.16734 211.40323 211.63812 211.58201 211.29390 210.93379 210.57067
 210.19456 209.91145 209.72634 209.59723 209.53212 209.87001 210.26290 210.65879
 211.45868 212.64357 213.90045 215.69034 217.62523 219.67512 221.77701 223.86690
 225.93379 228.02468 230.12857 232.24146 234.37735 236.55623 238.81912 241.19601
 243.82390 246.08179 248.09068 249.86257 251.28646 252.41635 253.24524 253.56813
 253.61201 253.39290 252.75979 251.71468 250.32757 248.49546 246.41135 244.25124
 242.04913 239.86002 237.68691 235.53279 233.39968 231.27357 229.30646 227.47035
 225.76024 224.23913 222.87602 221.65491 220.54380 219.51069 218.62157 217.76946
 217.01835 216.20524 215.31013 214.68102 214.13791 214.22531 214.49934 214.57889
 213.94267 214.31476 215.72345 217.29283 219.18985 222.07648 226.50424 230.64082
 233.90741 237.34766 241.01242 245.13829 249.38228 253.34225 256.96674 260.31375
 263.38287 266.02075 268.23975 270.20090 272.01392 273.69073 275.29794 276.89471
 279.08823 280.98688 282.62985 284.07251 285.32098 286.42560 287.43335 288.34634
 289.16745 289.89865 290.53741 291.35147
 366.78100 356.34227 345.78154 334.65481 323.06508 311.26635 299.14362 286.95389
 274.67316 262.57743 250.59370 239.90197 230.03124 221.14251 213.33178 206.34105
 200.18232 195.12759 191.71686 189.76613 188.81041 188.88168 189.72395 191.03922
 192.77149 194.87376 197.14403 199.51030 201.96257 204.44984 206.54511 208.39438
 210.02765 211.17992 211.41619 211.65146 211.59573 211.30800 210.94827 210.58554
 210.20981 209.92708 209.74235 209.61362 209.54889 209.88716 210.28043 210.67670
 211.47697 212.66224 213.91951 215.70978 217.64505 219.69532 221.79759 223.88786
 225.95513 228.04640 230.15067 232.26394 234.40022 236.57949 238.84276 241.22003
 243.84830 246.10657 248.11584 249.88811 251.31238 252.44265 253.27192 253.59519
 253.63946 253.42073 252.78800 251.74327 250.35654 248.52481 246.44108 244.28135
 242.07962 239.89089 237.71816 235.56443 233.43170 231.30597 229.33924 227.50351
 225.79378 224.27305 222.91032 221.68959 220.57886 219.54613 218.65740 217.80567
 217.05494 216.24221 215.34748 214.71876 214.17603 214.28499 214.51855 214.53249
 214.08841 214.28117 215.65633 217.24709 219.19939 222.11525 226.46507 230.59727
 233.85832 237.30017 241.01422 245.17029 249.38019 253.31911 256.94196 260.29382
 263.35724 266.07117 268.33896 270.30368 272.16330 273.72879 275.37064 277.76273
 280.05670 282.02298 283.72449 285.21854 286.51147 287.65543 288.69910 289.64459
 290.49496 291.25220 291.91373 292.75677
 366.78100 356.34021 345.77743 334.64864 323.05686 311.25607 299.13129 286.93950
 274.65672 262.55893 250.57314 239.87936 230.00657 221.11579 213.30300 206.31022
 200.14943 195.09265 191.67986 189.72707 188.76929 188.83850 189.67872 190.99193
 192.72215 194.82236 197.09058 199.45479 201.90500 204.39022 206.48343 208.33065
 209.96186 211.11208 211.34629 211.57951 211.52172 211.23193 210.87015 210.50536
 210.12758 209.84279 209.65601 209.52522 209.45844 209.79465 210.18586 210.58008
 211.37829 212.56151 213.81672 215.60494 217.53815 219.58637 221.68658 223.77479
 225.84001 227.92922 230.03144 232.14265 234.27687 236.45408 238.71530 241.09051
 243.71672 245.97294 247.98015 249.75037 251.17258 252.30080 253.12801 253.44923
 253.49144 253.27065 252.63587 251.58908 250.20030 248.36651 246.28073 244.11894
 241.91515 239.72437 237.54958 235.39380 233.25901 231.13123 229.16244 227.32466
 225.61287 224.09008 222.72530 221.50251 220.38973 219.35494 218.46416 217.61037
 216.85759 216.04280 215.14601 214.51523 213.97044 214.22098 214.63919 214.42879
 214.18242 214.58078 215.65265 217.01009 219.07680 222.13269 226.46939 230.56648
 233.80731 237.26190 241.01115 245.16685 249.34421 253.25583 256.86960 260.20386
 263.23734 265.95642 268.27618 270.31995 272.24548 273.80869 275.45422 277.95074
 280.20944 282.14551 283.82086 285.29193 286.56503 287.69138 288.71899 289.64996
 290.48727 291.23288 291.88425 292.71432
 366.78100 356.33882 345.77463 334.64445 323.05127 311.24909 299.12290 286.92972
 274.64554 262.54635 250.55917 239.86399 229.98980 221.09762 213.28344 206.28926
 200.12707 195.06889 191.65471 189.70052 188.74134 188.80916 189.64797 190.95979
 192.68861 194.78743 197.05424 199.41706 201.86588 204.34969 206.44151 208.28733
 209.91715 211.06596 211.29878 211.53060 211.47141 211.18023 210.81705 210.45086
 210.07168 209.78550 209.59732 209.46513 209.39695 209.73177 210.12158 210.51440
 211.31122 212.49303 213.74685 215.53367 217.46549 219.51230 221.61112 223.69794
 225.76175 227.84957 229.95039 232.06021 234.19302 236.36884 238.62866 241.00247
 243.62729 245.88211 247.88792 249.65674 251.07756 252.20438 253.03019 253.35001
 253.39083 253.16864 252.53246 251.48428 250.09409 248.25891 246.17173 244.00855
 241.80336 239.61118 237.43500 235.27781 233.14163 231.01245 229.04227 227.20308
 225.48990 223.96572 222.59953 221.37535 220.26117 219.22498 218.33280 217.47762
 216.72344 215.90725 215.00907 214.37689 213.83070 214.18178 214.75218 214.34894
 214.11174 214.77982 215.69926 216.82838 218.93498 222.13470 226.47389 230.53137
 233.74060 237.19171 240.97079 245.14519 249.31281 253.21660 256.83447 260.15411
 263.14047 265.79758 268.11945 270.26562 272.25861 273.81790 275.46042 278.18936
 280.59033 282.64835 284.42923 285.99295 287.34622 288.54355 289.63589 290.62549
 291.51553 292.30811 293.00049 293.88287
 366.78100 356.33873 345.77445 334.64418 323.05091 311.24863 299.12236 286.92909
 274.64481 262.54554 250.55827 239.86299 229.98872 221.09645 213.28217 206.28790
 200.12563 195.06735 191.65308 189.69881 188.73953 188.80726 189.64599 190.95771
 192.68644 194.78517 197.05189 199.41462 201.86335 204.34707 206.43880 208.28453
 209.91425 211.06298 211.29571 211.52743 211.46816 211.17689 210.81361 210.44734
 210.06807 209.78179 209.59352 209.46125 209.39298 209.72770 210.11743 210.51016
 211.30688 212.48861 213.74234 215.52906 217.46079 219.50752 221.60624 223.69297
 225.75670 227.84442 229.94515 232.05488 234.18760 236.36333 238.62306 240.99678
 243.62151 245.87624 247.88196 249.65069 251.07142 252.19814 253.02387 253.34360
 253.38432 253.16205 252.52578 251.47750 250.08723 248.25196 246.16468 244.00141
 241.79614 239.60386 237.42759 235.27032 233.13404 231.00477 229.03450 227.19522
 225.48195 223.95768 222.59140 221.36713 220.25286 219.21658 218.32431 217.46904
 216.71476 215.89849 215.00022 214.36794 213.82167 214.18927 214.82199 214.35986
 213.99300 214.81944 215.71886 216.74126 218.87741 222.15591 226.56325 230.57179
 233.75229 237.18880 240.98387 245.17361 249.33748 253.23911 256.85550 260.16241
 263.11188 265.71255 268.02728 270.21338 272.22998 273.82504 275.53571 278.14651
 280.47592 282.47260 284.20038 285.71750 287.03046 288.19205 289.25186 290.21198
 291.07547 291.84442 292.51617 293.37222
 366.78100 356.33950 345.77600 334.64650 323.05400 311.25250 299.12700 286.93450
 274.65100 262.55250 250.56600 239.87150 229.99800 221.10650 213.29300 206.29950
 200.13800 195.08050 191.66700 189.71350 188.75500 188.82350 189.66300 190.97550
 192.70500 194.80450 197.07200 199.43550 201.88500 204.36950 206.46200 208.30850
 209.93900 211.08850 211.32200 211.55450 211.49600 211.20550 210.84300 210.47750
 210.09900 209.81350 209.62600 209.49450 209.42700 209.76250 210.15300 210.54650
 211.34400 212.52650 213.78100 215.56850 217.50100 219.54850 221.64800 223.73550
 225.80000 227.88850 229.99000 232.10050 234.23400 236.41050 238.67100 241.04550
 243.67100 245.92650 247.93300 249.70250 251.12400 252.25150 253.07800 253.39850
 253.44000 253.21850 252.58300 251.53550 250.14600 248.31150 246.22500 244.06250
 241.85800 239.66650 237.49100 235.33450 233.19900 231.07050 229.10100 227.26250
 225.55000 224.02650 222.66100 221.43750 220.32400 219.28850 218.39700 217.54250
 216.78900 215.97350 215.07600 214.44450 213.89900 214.23759 214.85838 214.45135
 213.97861 214.80019 215.62994 216.65019 218.81685 222.15207 226.59718 230.57788
 233.72307 237.12227 240.92412 245.14346 249.30814 253.19838 256.81085 260.10901
 263.02969 265.59375 267.94528 270.20810 272.21429 273.79953 275.29944 277.76730
 279.99023 281.89563 283.54446 284.99225 286.24515 287.35367 288.36505 289.28125
 290.10529 290.83911 291.48013 292.29709
 366.78100 356.34096 345.77892 334.65088 323.05984 311.25980 299.13576 286.94472
 274.66268 262.56564 250.58060 239.88756 230.01552 221.12548 213.31344 206.32140
 200.16136 195.10532 191.69329 189.74125 188.78421 188.85417 189.69513 191.00909
 192.74005 194.84101 197.10997 199.47493 201.92589 204.41185 206.50581 208.35377
 209.98573 211.13669 211.37165 211.60561 211.54857 211.25953 210.89849 210.53445
 210.15741 209.87337 209.68733 209.55729 209.49125 209.82821 210.22017 210.61513
 211.41409 212.59805 213.85401 215.64297 217.57693 219.62590 221.72686 223.81582
 225.88178 227.97174 230.07470 232.18666 234.32162 236.49958 238.76154 241.13750
 243.76446 246.02142 248.02938 249.80034 251.22330 252.35226 253.18022 253.50218
 253.54514 253.32510 252.69106 251.64502 250.25698 248.42394 246.33890 244.17786
 241.97482 239.78478 237.61074 235.45570 233.32166 231.19462 229.22658 227.38954
 225.67851 224.15647 222.79243 221.57039 220.45835 219.42431 218.53427 217.68123
 216.92919 216.11515 215.21911 214.58907 214.04503 214.33296 214.89043 214.53847
 213.77736 214.46527 215.40025 216.56505 218.77615 222.27441 226.63870 230.59001
 233.69264 237.09998 240.93901 245.15039 249.31694 253.19682 256.80045 260.09299
 262.96255 265.53561 267.95895 270.23349 272.22934 273.75995 274.95361 275.97339
 276.85849 277.61716 278.27365 278.85013 279.34900 279.79037 280.19305 280.55786
 280.88599 281.17816 281.43341 281.75867
 366.78100 356.34269 345.78238 334.65607 323.06675 311.26844 299.14613 286.95682
 274.67651 262.58120 250.59788 239.90657 230.03626 221.14795 213.33764 206.34733
 200.18902 195.13470 191.72439 189.77408 188.81877 188.89046 189.73315 191.04884
 192.78152 194.88421 197.15490 199.52159 201.97428 204.46197 206.55765 208.40734
 210.04103 211.19372 211.43041 211.66610 211.61079 211.32347 210.96416 210.60185
 210.22654 209.94423 209.75992 209.63161 209.56729 209.90598 210.29967 210.69636
 211.49705 212.68274 213.94042 215.73111 217.66680 219.71749 221.82018 223.91087
 225.97856 228.07024 230.17493 232.28862 234.42531 236.60500 238.86869 241.24638
 243.87506 246.13375 248.14344 249.91613 251.34082 252.47151 253.30119 253.62488
 253.66957 253.45126 252.81895 251.77464 250.38833 248.55701 246.47370 244.31439
 242.11308 239.92477 237.75246 235.59915 233.46683 231.34152 229.37521 227.53990
 225.83059 224.31028 222.94796 221.72765 220.61734 219.58503 218.69672 217.84541
 217.09510 216.28278 215.38847 214.76016 214.21785 214.44211 214.90170 214.70586
 213.59683 214.30334 215.29420 216.39656 218.63704 222.39525 226.75833 230.71634
 233.80405 237.18068 241.01793 245.27124 249.43690 253.33611 256.95477 260.24231
 263.12454 265.61313 267.99112 270.25208 272.22113 274.01266 276.03314 277.83594
 279.40067 280.74188 281.90250 282.92160 283.80353 284.58383 285.29572 285.94064
 286.52069 287.03723 287.48846 288.06351
 366.78100 356.34301 345.78303 334.65704 323.06805 311.27007 299.14808 286.95909
 274.67911 262.58412 250.60113 239.91015 230.04016 221.15217 213.34218 206.35220
 200.19421 195.14022 191.73024 189.78025 188.82526 188.89728 189.74029 191.05630
 192.78932 194.89233 197.16334 199.53036 201.98337 204.47138 206.56740 208.41741
 210.05142 211.20444 211.44145 211.67746 211.62248 211.33549 210.97650 210.61451
 210.23953 209.95754 209.77355 209.64557 209.58158 209.92059 210.31461 210.71162
 211.51263 212.69865 213.95666 215.74767 217.68369 219.73470 221.83771 223.92873
 225.99674 228.08875 230.19377 232.30778 234.44479 236.62481 238.88882 241.26683
 243.89585 246.15486 248.16487 249.93788 251.36290 252.49391 253.32392 253.64794
 253.69295 253.47496 252.84298 251.79899 250.41300 248.58202 246.49903 244.34004
 242.13906 239.95107 237.77908 235.62610 233.49411 231.36912 229.40314 227.56815
 225.85916 224.33918 222.97719 221.75720 220.64721 219.61523 218.72724 217.87625
 217.12627 216.31428 215.42029 214.79231 214.25032 214.48752 214.92644 214.78003
 213.70259 214.27234 215.11455 216.12819 218.53372 222.23697 226.69048 230.66495
 233.77652 237.19901 241.05934 245.33156 249.49402 253.37967 257.00192 260.36658
 263.37930 265.95227 268.27148 270.46164 272.24072 273.92636 275.48410 276.87396
 278.08032 279.11438 280.00916 280.79483 281.47479 282.07635 282.62521 283.12244
 283.56964 283.96786 284.31573 284.75906
 366.78100 356.34203 345.78106 334.65409 323.06412 311.26515 299.14219 286.95222
 274.67125 262.57528 250.59131 239.89934 230.02837 221.13940 213.32843 206.33746
 200.17849 195.12352 191.71256 189.76159 188.80562 188.87665 189.71868 191.03371
 192.76574 194.86777 197.13780 199.50383 201.95586 204.44289 206.53793 208.38696
 210.01999 211.17202 211.40805 211.64308 211.58711 211.29914 210.93917 210.57620
 210.20023 209.91726 209.73230 209.60333 209.53836 209.87639 210.26942 210.66545
 211.46548 212.65051 213.90754 215.69757 217.63260 219.68263 221.78467 223.87470
 225.94173 228.03276 230.13679 232.24982 234.38585 236.56488 238.82791 241.20494
 243.83297 246.09100 248.10004 249.87207 251.29610 252.42613 253.25516 253.57819
 253.62222 253.40325 252.77028 251.72531 250.33834 248.50637 246.42241 244.26244
 242.06047 239.87150 237.69853 235.54456 233.41159 231.28562 229.31865 227.48268
 225.77271 224.25175 222.88878 221.66781 220.55684 219.52387 218.63490 217.78293
 217.03196 216.21899 215.32402 214.69505 214.15208 214.46158 215.00200 214.68188
 213.89023 214.25845 215.04163 216.04146 218.55693 222.09076 226.59299 230.53668
 233.63881 237.10573 241.03720 245.30655 249.43738 253.28899 256.92374 260.32010
 263.38428 266.08240 268.47351 270.81430 272.91165 273.94016 275.59485 277.07669
 278.36285 279.46530 280.41928 281.25696 281.98190 282.62326 283.20844 283.73856
 284.21533 284.63989 285.01080 285.48346
 366.78100 356.33993 345.77686 334.64780 323.05573 311.25466 299.12959 286.93753
 274.65446 262.55639 250.57032 239.87626 230.00319 221.11212 213.29905 206.30599
 200.14492 195.08785 191.67478 189.72172 188.76365 188.83258 189.67251 190.98545
 192.71538 194.81531 197.08324 199.44718 201.89711 204.38204 206.47497 208.32191
 209.95284 211.10277 211.33670 211.56964 211.51157 211.22150 210.85943 210.49437
 210.11630 209.83123 209.64416 209.51310 209.44603 209.78196 210.17289 210.56683
 211.36476 212.54769 213.80262 215.59056 217.52349 219.57142 221.67135 223.75929
 225.82422 227.91315 230.01508 232.12601 234.25995 236.43688 238.69781 241.07274
 243.69868 245.95461 247.96154 249.73147 251.15341 252.28134 253.10827 253.42920
 253.47114 253.25007 252.61500 251.56793 250.17887 248.34480 246.25873 244.09666
 241.89260 239.70153 237.52646 235.37039 233.23533 231.10726 229.13819 227.30012
 225.58806 224.06499 222.69992 221.47685 220.36379 219.32872 218.43765 217.58358
 216.83052 216.01545 215.11838 214.48731 213.94225 214.36328 215.12680 214.60490
 214.06233 214.43459 215.03154 215.97673 218.55537 222.23396 226.65634 230.58888
 233.65610 237.11411 241.03488 245.28841 249.38078 253.18872 256.76111 260.04202
 263.01334 265.75153 268.30557 270.69028 272.87271 274.72125 276.07446 278.10315
 280.56100 282.66776 284.49081 286.09158 287.47693 288.70258 289.82083 290.83386
 291.74496 292.55634 293.26511 294.16840
 366.78100 356.33830 345.77361 334.64291 323.04921 311.24652 299.11982 286.92613
 274.64143 262.54173 250.55404 239.85834 229.98364 221.09095 213.27625 206.28155
 200.11886 195.06016 191.64546 189.69077 188.73107 188.79838 189.63668 190.94798
 192.67629 194.77459 197.04089 199.40320 201.85150 204.33480 206.42611 208.27141
 209.90071 211.04902 211.28132 211.51263 211.45293 211.16123 210.79754 210.43084
 210.05114 209.76445 209.57575 209.44305 209.37436 209.70866 210.09796 210.49027
 211.28657 212.46788 213.72118 215.50748 217.43879 219.48509 221.58339 223.66970
 225.73300 227.82030 229.92061 232.02991 234.16221 236.33752 238.59682 240.97013
 243.59443 245.84873 247.85404 249.62234 251.04264 252.16895 252.99425 253.31355
 253.35386 253.13116 252.49446 251.44577 250.05507 248.21938 246.13168 243.96798
 241.76229 239.56959 237.39289 235.23520 233.09850 230.96880 228.99811 227.15841
 225.44471 223.92002 222.55332 221.32863 220.21393 219.17723 218.28454 217.42884
 216.67414 215.85745 214.95875 214.32605 213.77936 214.27184 215.26183 214.68327
 213.91660 214.31400 214.83904 215.84984 218.44994 222.29446 226.62682 230.69392
 233.73732 237.21066 241.10506 245.32265 249.43243 253.24097 256.78088 260.00580
 262.88403 265.53635 267.99442 270.28360 272.42395 274.36804 276.07254 277.43439
 278.69122 280.07571 281.58328 282.98495 284.19797 285.27118 286.25031 287.13733
 287.93512 288.64554 289.26617 290.05707
 366.78100 356.33887 345.77475 334.64462 323.05149 311.24937 299.12324 286.93012
 274.64599 262.54686 250.55974 239.86461 229.99048 221.09836 213.28423 206.29010
 200.12798 195.06985 191.65573 189.70160 188.74247 188.81035 189.64922 190.96109
 192.68997 194.78884 197.05571 199.41859 201.86746 204.35134 206.44321 208.28908
 209.91896 211.06783 211.30070 211.53258 211.47345 211.18232 210.81920 210.45307
 210.07395 209.78782 209.59969 209.46757 209.39944 209.73431 210.12419 210.51706
 211.31394 212.49581 213.74968 215.53656 217.46843 219.51530 221.61418 223.70105
 225.76492 227.85280 229.95367 232.06355 234.19642 236.37229 238.63217 241.00604
 243.63091 245.88579 247.89166 249.66053 251.08141 252.20828 253.03416 253.35403
 253.39490 253.17278 252.53665 251.48852 250.09840 248.26327 246.17614 244.01302
 241.80789 239.61577 237.43964 235.28251 233.14639 231.01726 229.04713 227.20801
 225.49488 223.97075 222.60463 221.38050 220.26638 219.23025 218.33812 217.48300
 216.72887 215.91274 215.01462 214.38249 213.83636 214.29538 215.29216 214.80389
 213.80103 214.00911 214.65984 215.70987 218.28787 222.14671 226.67503 230.56436
 233.72910 237.22536 241.15402 245.36453 249.48769 253.32401 256.88931 260.15009
 263.02142 265.56573 267.95383 270.22855 272.28061 274.15884 275.93054 277.34579
 278.47940 279.64059 280.71439 281.38638 282.25616 283.37146 284.39001 285.31271
 286.14261 286.88162 287.52722 288.34995
 366.78100 356.34003 345.77706 334.64809 323.05613 311.25516 299.13019 286.93822
 274.65525 262.55728 250.57132 239.87735 230.00438 221.11341 213.30044 206.30747
 200.14651 195.08954 191.67657 189.72360 188.76563 188.83466 189.67470 190.98773
 192.71776 194.81779 197.08582 199.44985 201.89989 204.38492 206.47795 208.32498
 209.95601 211.10604 211.34008 211.57311 211.51514 211.22517 210.86320 210.49823
 210.12027 209.83530 209.64833 209.51736 209.45039 209.78642 210.17746 210.57149
 211.36952 212.55255 213.80758 215.59561 217.52865 219.57668 221.67671 223.76474
 225.82977 227.91880 230.02083 232.13187 234.26590 236.44293 238.70396 241.07899
 243.70502 245.96106 247.96809 249.73812 251.16015 252.28818 253.11521 253.43625
 253.47828 253.25731 252.62234 251.57537 250.18640 248.35244 246.26647 244.10450
 241.90053 239.70956 237.53459 235.37863 233.24366 231.11569 229.14672 227.30875
 225.59678 224.07382 222.70885 221.48588 220.37291 219.33794 218.44697 217.59301
 216.84004 216.02507 215.12810 214.49713 213.95216 214.36400 215.27805 214.88602
 213.80580 213.75571 214.46915 215.68312 218.28549 222.12286 226.72925 230.54060
 233.69312 237.19145 241.14401 245.38326 249.51717 253.35605 256.92578 260.19012
 263.08096 265.61200 267.92670 270.20361 272.26776 274.04843 275.79202 277.28082
 278.30856 279.37457 280.67264 281.57693 282.18240 283.18549 284.21967 285.15656
 285.99921 286.74957 287.40506 288.24045
 366.78100 356.34003 345.77706 334.64810 323.05613 311.25516 299.13019 286.93823
 274.65526 262.55729 250.57132 239.87735 230.00439 221.11342 213.30045 206.30748
 200.14652 195.08955 191.67658 189.72361 188.76564 188.83468 189.67471 190.98774
 192.71777 194.81781 197.08584 199.44987 201.89990 204.38494 206.47797 208.32500
 209.95603 211.10606 211.34010 211.57313 211.51516 211.22519 210.86323 210.49826
 210.12029 209.83532 209.64835 209.51739 209.45042 209.78645 210.17748 210.57152
 211.36955 212.55258 213.80761 215.59564 217.52868 219.57671 221.67674 223.76477
 225.82981 227.91884 230.02087 232.13190 234.26593 236.44297 238.70400 241.07903
 243.70506 245.96110 247.96813 249.73816 251.16019 252.28823 253.11526 253.43629
 253.47832 253.25735 252.62239 251.57542 250.18645 248.35248 246.26652 244.10455
 241.90058 239.70961 237.53464 235.37868 233.24371 231.11574 229.14677 227.30881
 225.59684 224.07387 222.70890 221.48593 220.37297 219.33800 218.44703 217.59306
 216.84010 216.02513 215.12816 214.49719 213.95222 214.38307 215.32140 214.96104
 213.82668 213.66824 214.35793 215.74168 218.37852 222.15712 226.77338 230.61151
 233.67447 237.17903 241.15292 245.42105 249.55295 253.38503 256.94440 260.19833
 263.07605 265.59763 267.92654 270.18320 272.26001 274.01559 275.68060 277.08987
 278.14389 279.26624 280.60422 281.49805 282.66180 283.75278 284.74811 285.64981
 286.46078 287.18295 287.81384 288.61783
 366.78100 356.34065 345.77830 334.64995 323.05860 311.25825 299.13389 286.94254
 274.66019 262.56284 250.57749 239.88414 230.01179 221.12144 213.30909 206.31674
 200.15639 195.10004 191.68768 189.73533 188.77798 188.84763 189.68828 191.00193
 192.73258 194.83323 197.10188 199.46653 201.91718 204.40283 206.49647 208.34412
 209.97577 211.12642 211.36107 211.59472 211.53737 211.24802 210.88667 210.52232
 210.14497 209.86062 209.67426 209.54391 209.47756 209.81421 210.20586 210.60051
 211.39916 212.58281 213.83846 215.62711 217.56076 219.60941 221.71005 223.79870
 225.86435 227.95400 230.05665 232.16830 234.30295 236.48060 238.74225 241.11790
 243.74455 246.00120 248.00884 249.77949 251.20214 252.33079 253.15844 253.48009
 253.52274 253.30239 252.66804 251.62169 250.23334 248.39999 246.31463 244.15328
 241.94993 239.75958 237.58523 235.42988 233.29553 231.16818 229.19983 227.36248
 225.65113 224.12878 222.76442 221.54207 220.42972 219.39537 218.50502 217.65167
 216.89932 216.08497 215.18862 214.55827 214.01392 214.43048 215.33113 215.03329
 213.85402 213.62347 214.29102 215.72183 218.34740 222.10751 226.79922 230.62407
 233.67619 237.18053 241.17802 245.48587 249.62344 253.43521 256.96130 260.19089
 263.06357 265.60703 267.93439 270.16821 272.25406 274.02316 275.70364 277.00095
 277.98767 279.20276 280.63376 281.96051 283.18768 284.27341 285.26395 286.16132
 286.96841 287.68713 288.31497 289.11511
 366.78100 356.34280 345.78260 334.65640 323.06719 311.26899 299.14679 286.95759
 274.67739 262.58219 250.59899 239.90778 230.03758 221.14938 213.33918 206.34898
 200.19078 195.13657 191.72637 189.77617 188.82097 188.89277 189.73557 191.05137
 192.78416 194.88696 197.15776 199.52456 201.97736 204.46516 206.56096 208.41075
 210.04455 211.19735 211.43415 211.66995 211.61475 211.32754 210.96834 210.60614
 210.23094 209.94874 209.76454 209.63634 209.57213 209.91093 210.30473 210.70153
 211.50233 212.68813 213.94593 215.73672 217.67252 219.72332 221.82612 223.91692
 225.98472 228.07652 230.18131 232.29511 234.43191 236.61171 238.87551 241.25331
 243.88210 246.14090 248.15070 249.92350 251.34830 252.47910 253.30890 253.63269
 253.67749 253.45929 252.82709 251.78289 250.39669 248.56549 246.48228 244.32308
 242.12188 239.93368 237.76148 235.60828 233.47608 231.35087 229.38467 227.54947
 225.84027 224.32007 222.95787 221.73766 220.62746 219.59526 218.70706 217.85586
 217.10566 216.29346 215.39925 214.77105 214.22885 214.55038 215.26410 215.13403
 213.94785 213.66901 214.19109 215.46541 218.16376 222.01805 226.76639 230.60942
 233.67276 237.19862 241.22206 245.55469 249.68724 253.47408 256.97168 260.19012
 263.06403 265.61548 267.92297 270.13763 272.21783 274.02472 275.73013 276.98801
 277.96719 279.26816 280.76724 282.10187 283.32462 284.40640 285.39340 286.28754
 287.09174 287.80786 288.43347 289.23071
 366.78100 356.34489 345.78679 334.66268 323.07557 311.27946 299.15936 286.97225
 274.69414 262.60103 250.61993 239.93082 230.06271 221.17660 213.36850 206.38039
 200.22428 195.17217 191.76407 189.81596 188.86285 188.93675 189.78164 191.09953
 192.83442 194.93932 197.21221 199.58110 202.03599 204.52589 206.62378 208.47567
 210.11156 211.26646 211.50535 211.74324 211.69013 211.40503 211.04792 210.68781
 210.31471 210.03460 209.85249 209.72638 209.66428 210.00517 210.40106 210.79995
 211.60285 212.79074 214.05063 215.84352 217.78142 219.83431 221.93920 224.03209
 226.10199 228.19588 230.30277 232.41867 234.55756 236.73945 239.00534 241.38524
 244.01613 246.27702 248.28891 250.06381 251.49070 252.62359 253.45548 253.78138
 253.82827 253.61216 252.98205 251.93995 250.55584 248.72673 246.64563 244.48852
 242.28941 240.10330 237.93320 235.78209 233.65198 231.52887 229.56477 227.73166
 226.02455 224.50644 223.14634 221.92823 220.82012 219.79001 218.90391 218.05480
 217.30669 216.49659 215.60448 214.97837 214.43826 214.66869 215.20131 215.23108
 214.07878 213.68951 214.07048 215.21156 217.99477 221.93652 226.71561 230.57413
 233.65155 237.20648 241.26021 245.61879 249.74670 253.51535 256.98621 260.19131
 263.06482 265.61337 267.89682 270.10468 272.19351 274.00943 275.71777 276.97699
 278.04007 279.27365 280.75293 282.05811 283.25003 284.30460 285.26672 286.13834
 286.92227 287.62036 288.23019 289.00739
 366.78100 356.34552 345.78804 334.66456 323.07808 311.28260 299.16312 286.97664
 274.69916 262.60668 250.62620 239.93772 230.07024 221.18476 213.37728 206.38980
 200.23432 195.18284 191.77536 189.82788 188.87540 188.94992 189.79543 191.11395
 192.84947 194.95499 197.22851 199.59803 202.05355 204.54407 206.64259 208.49511
 210.13163 211.28715 211.52667 211.76519 211.71271 211.42823 211.07175 210.71227
 210.33979 210.06031 209.87883 209.75335 209.69187 210.03339 210.42991 210.82943
 211.63295 212.82147 214.08199 215.87551 217.81403 219.86755 221.97307 224.06659
 226.13711 228.23163 230.33915 232.45567 234.59519 236.77771 239.04423 241.42475
 244.05626 246.31778 248.33030 250.10582 251.53334 252.66686 253.49938 253.82590
 253.87342 253.65794 253.02846 251.98698 250.60350 248.77502 246.69454 244.53806
 242.33958 240.15410 237.98462 235.83414 233.70466 231.58218 229.61870 227.78622
 226.07974 224.56226 223.20278 221.98530 220.87782 219.84834 218.96286 218.11438
 217.36690 216.55742 215.66594 215.04046 214.50098 214.71831 215.21684 215.23170
 214.20770 213.70787 213.94797 215.01305 217.87723 221.88226 226.69173 230.54781
 233.63547 237.21771 241.30392 245.69412 249.83034 253.57599 257.02213 260.21301
 263.08493 265.62943 267.89038 270.07132 272.15991 273.99197 275.71115 276.97830
 278.02341 279.27185 280.73199 282.03473 283.21808 284.26508 285.22028 286.08563
 286.86389 287.55698 288.16241 288.93399
 366.78100 356.34479 345.78658 334.66237 323.07516 311.27895 299.15874 286.97153
 274.69332 262.60011 250.61891 239.92970 230.06149 221.17528 213.36707 206.37886
 200.22265 195.17044 191.76223 189.81402 188.86081 188.93460 189.77939 191.09718
 192.83197 194.93676 197.20955 199.57834 202.03314 204.52293 206.62072 208.47251
 210.10830 211.26309 211.50188 211.73967 211.68646 211.40125 211.04404 210.68383
 210.31062 210.03041 209.84820 209.72199 209.65978 210.00057 210.39637 210.79516
 211.59795 212.78574 214.04553 215.83832 217.77611 219.82890 221.93369 224.02648
 226.09627 228.19006 230.29685 232.41264 234.55143 236.73322 238.99901 241.37880
 244.00960 246.27039 248.28218 250.05697 251.48376 252.61655 253.44834 253.77413
 253.82092 253.60471 252.97450 251.93229 250.54808 248.71887 246.63766 244.48045
 242.28124 240.09503 237.92482 235.77362 233.64341 231.52020 229.55599 227.72278
 226.01557 224.49736 223.13715 221.91894 220.81073 219.78052 218.89431 218.04510
 217.29689 216.48668 215.59447 214.96826 214.42805 214.69698 215.29480 215.22287
 214.25909 213.67061 213.82747 214.88257 217.79924 221.85834 226.69156 230.55222
 233.64609 237.25128 241.36137 245.77554 249.91241 253.64586 257.05942 260.22858
 263.09601 265.63678 267.88208 270.03723 272.12103 273.96964 275.68396 276.96027
 278.00583 279.28714 280.75113 282.05954 283.25217 284.30734 285.27002 286.14215
 286.92651 287.62500 288.23520 289.01282
 366.78100 356.34450 345.78599 334.66149 323.07398 311.27748 299.15697 286.96947
 274.69096 262.59746 250.61595 239.92645 230.05795 221.17144 213.36294 206.37443
 200.21793 195.16542 191.75692 189.80841 188.85491 188.92840 189.77290 191.09040
 192.82489 194.92939 197.20188 199.57038 202.02487 204.51437 206.61186 208.46336
 210.09885 211.25335 211.49185 211.72934 211.67584 211.39033 211.03283 210.67232
 210.29882 210.01831 209.83581 209.70930 209.64680 209.98729 210.38279 210.78129
 211.58378 212.77128 214.03077 215.82327 217.76076 219.81326 221.91775 224.01025
 226.07974 228.17324 230.27974 232.39523 234.53373 236.71522 238.98072 241.36021
 243.99071 246.25120 248.26270 250.03719 251.46369 252.59619 253.42768 253.75318
 253.79967 253.58317 252.95266 251.91016 250.52565 248.69615 246.61464 244.45714
 242.25764 240.07113 237.90063 235.74912 233.61862 231.49511 229.53061 227.69710
 225.98960 224.47109 223.11059 221.89209 220.78358 219.75308 218.86657 218.01707
 217.26856 216.45806 215.56555 214.93905 214.39854 214.68689 215.33844 215.34863
 214.30807 213.53447 213.63710 214.73517 217.70009 221.82085 226.68581 230.56215
 233.66408 237.29453 241.43108 245.85934 250.00447 253.72041 257.09970 260.24808
 263.10928 265.64255 267.85526 269.99490 272.09064 273.93106 275.66782 276.98248
 278.02515 279.22852 280.62509 281.93387 283.11243 284.15515 285.10648 285.96832
 286.74347 287.43372 288.03671 288.80518
 366.78100 356.34510 345.78720 334.66330 323.07640 311.28050 299.16060 286.97370
 274.69580 262.60290 250.62200 239.93309 230.06519 221.17929 213.37139 206.38349
 200.22759 195.17569 191.76779 189.81989 188.86699 188.94109 189.78619 191.10429
 192.83939 194.94449 197.21759 199.58669 202.04179 204.53189 206.62999 208.48209
 210.11819 211.27328 211.51238 211.75048 211.69758 211.41268 211.05578 210.69588
 210.32298 210.04308 209.86118 209.73528 209.67338 210.01448 210.41058 210.80968
 211.61278 212.80088 214.06098 215.85408 217.79218 219.84528 221.95038 224.04347
 226.11357 228.20767 230.31477 232.43087 234.56997 236.75207 239.01817 241.39827
 244.02937 246.29047 248.30257 250.07767 251.50477 252.63787 253.46997 253.79607
 253.84317 253.62727 252.99737 251.95547 250.57156 248.74266 246.66176 244.50486
 242.30596 240.12006 237.95016 235.79926 233.66936 231.54646 229.58256 227.74966
 226.04276 224.52486 223.16496 221.94706 220.83916 219.80926 218.92336 218.07446
 217.32656 216.51666 215.62475 214.99885 214.45895 214.72633 215.33742 215.43459
 214.52460 213.51758 213.39865 214.49301 217.54533 221.72440 226.64867 230.52118
 233.64288 237.30602 241.48398 245.95087 250.11400 253.82246 257.18723 260.31812
 263.17676 265.72180 267.93387 269.94003 272.01740 273.89633 275.63577 277.01141
 278.08762 279.32730 280.62503 281.97940 283.17764 284.23779 285.20502 286.08124
 286.86932 287.57111 288.18414 288.96542
 366.78100 356.34406 345.78512 334.66019 323.07225 311.27531 299.15437 286.96644
 274.68750 262.59356 250.61162 239.92169 230.05275 221.16581 213.35687 206.36794
 200.21100 195.15806 191.74912 189.80019 188.84625 188.91931 189.76337 191.08044
 192.81450 194.91856 197.19062 199.55868 202.01275 204.50181 206.59887 208.44993
 210.08500 211.23906 211.47712 211.71418 211.66025 211.37431 211.01637 210.65543
 210.28150 210.00056 209.81762 209.69068 209.62775 209.96781 210.36287 210.76093
 211.56300 212.75006 214.00912 215.80118 217.73824 219.79031 221.89437 223.98643
 226.05549 228.14856 230.25462 232.36968 234.50774 236.68881 238.95387 241.33293
 243.96299 246.22306 248.23412 250.00818 251.43424 252.56631 253.39737 253.72243
 253.76849 253.55156 252.92062 251.87768 250.49274 248.66280 246.58087 244.42293
 242.22299 240.03605 237.86512 235.71318 233.58224 231.45830 229.49337 227.65943
 225.95149 224.43255 223.07162 221.85268 220.74374 219.71280 218.82587 217.97593
 217.22699 216.41605 215.52312 214.89618 214.35524 214.69527 215.42146 215.34143
 214.75208 213.72377 213.27661 214.22408 217.33975 221.57990 226.57321 230.42984
 233.56950 237.28146 241.52466 246.01265 250.19878 253.92953 257.30157 260.42648
 263.29514 265.86826 268.10580 270.05652 271.98044 273.80743 275.57523 277.01443
 278.27551 279.53549 281.01917 282.52692 283.83176 284.98618 286.03943 286.99362
 287.85178 288.61600 289.28357 290.13434
 366.78100 356.34348 345.78396 334.65843 323.06991 311.27239 299.15087 286.96234
 274.68282 262.58830 250.60578 239.91526 230.04573 221.15821 213.34869 206.35917
 200.20165 195.14812 191.73860 189.78908 188.83456 188.90703 189.75051 191.06699
 192.80047 194.90395 197.17542 199.54290 201.99638 204.48486 206.58134 208.43181
 210.06629 211.21977 211.45725 211.69372 211.63920 211.35268 210.99416 210.63264
 210.25811 209.97659 209.79307 209.66555 209.60202 209.94150 210.33598 210.73346
 211.53494 212.72141 213.97989 215.77137 217.70785 219.75933 221.86280 223.95428
 226.02276 228.11524 230.22071 232.33519 234.47267 236.65315 238.91763 241.29610
 243.92558 246.18506 248.19554 249.96901 251.39449 252.52597 253.35645 253.68093
 253.72640 253.50888 252.87736 251.83384 250.44832 248.61779 246.53527 244.37675
 242.17623 239.98870 237.81718 235.66466 233.53314 231.40862 229.44309 227.60857
 225.90005 224.38053 223.01901 221.79948 220.68996 219.65844 218.77092 217.92039
 217.17087 216.35935 215.46583 214.83831 214.29678 214.68161 215.47839 215.30946
 214.82060 214.05086 213.34843 214.01091 217.11815 221.39435 226.40544 230.24965
 233.43565 237.23055 241.53436 246.03207 250.23212 253.98022 257.36316 260.48956
 263.36716 265.96771 268.19739 270.13593 272.02206 273.84698 275.53613 277.06656
 278.43649 279.99408 281.69214 283.24557 284.58990 285.77930 286.86447 287.84753
 288.73169 289.51904 290.20685 291.08340
 366.78100 356.34712 345.79123 334.66935 323.08447 311.29058 299.17270 286.98782
 274.71193 262.62105 250.64217 239.95528 230.08940 221.20552 213.39963 206.41375
 200.25987 195.20998 191.80410 189.85822 188.90734 188.98345 189.83057 191.15069
 192.88780 194.99492 197.27004 199.64115 202.09827 204.59039 206.69050 208.54462
 210.18274 211.33985 211.58097 211.82109 211.77020 211.48732 211.13244 210.77455
 210.40367 210.12579 209.94590 209.82202 209.76214 210.10525 210.50337 210.90449
 211.70960 212.89972 214.16184 215.95695 217.89707 219.95219 222.05930 224.15442
 226.22654 228.32265 230.43177 232.54989 234.69101 236.87512 239.14324 241.52536
 244.15847 246.42159 248.43571 250.21282 251.64194 252.77706 253.61117 253.93929
 253.98841 253.77452 253.14664 252.10676 250.72487 248.89799 246.81911 244.66422
 242.46734 240.28346 238.11557 235.96669 233.83881 231.71792 229.75604 227.92516
 226.22027 224.70439 223.34651 222.13062 221.02474 219.99686 219.11297 218.26609
 217.52021 216.71232 215.82244 215.19856 214.66068 214.86356 215.33092 215.41656
 214.85352 214.26530 213.57761 213.97337 216.95805 221.23447 226.24953 230.03589
 233.26485 237.13239 241.49457 246.00414 250.20050 253.93936 257.32159 260.45712
 263.35059 265.95828 268.19354 270.10202 271.99399 273.86346 275.59387 277.05807
 278.76636 280.58594 282.32660 283.85504 285.17776 286.34805 287.41574 288.38303
 289.25296 290.02765 290.70441 291.56686
 366.78100 356.35081 345.79863 334.68044 323.09926 311.30907 299.19488 287.01370
 274.74151 262.65433 250.67914 239.99596 230.13377 221.25358 213.45140 206.46921
 200.31903 195.27284 191.87065 189.92847 188.98128 189.06110 189.91191 191.23572
 192.97654 195.08735 197.36617 199.74098 202.20180 204.69761 206.80142 208.65924
 210.30105 211.46187 211.70668 211.95049 211.90331 211.62412 211.27294 210.91875
 210.55156 210.27738 210.10119 209.98101 209.92482 210.27163 210.67345 211.07826
 211.88708 213.08089 214.34671 216.14552 218.08933 220.14815 222.25896 224.35778
 226.43359 228.53340 230.64622 232.76803 234.91285 237.10066 239.37247 241.75829
 244.39510 246.66192 248.67973 250.46055 251.89336 253.03217 253.86999 254.20180
 254.25462 254.04443 253.42024 252.38406 251.00587 249.18269 247.10750 244.95631
 242.76313 240.58294 238.41876 236.27357 234.14939 232.03220 230.07401 228.24683
 226.54564 225.03346 223.67927 222.46708 221.36490 220.34071 219.46053 218.61734
 217.87515 217.07097 216.18478 215.56460 215.03041 215.05608 215.19933 215.45674
 214.93506 214.32538 213.69934 213.99622 216.89323 221.14484 226.11340 229.89853
 233.15103 237.05861 241.46147 245.97919 250.17519 253.90703 257.27814 260.41205
 263.31970 265.94852 268.16956 269.99072 271.85184 273.76855 275.63431 277.15305
 279.17996 281.15131 282.85718 284.35507 285.65137 286.79825 287.84460 288.79254
 289.64508 290.40430 291.06754 291.91272
 366.78100 356.35060 345.79820 334.67980 323.09840 311.30800 299.19360 287.01220
 274.73980 262.65240 250.67700 239.99360 230.13120 221.25080 213.44840 206.46600
 200.31560 195.26920 191.86679 189.92439 188.97699 189.05659 189.90719 191.23079
 192.97139 195.08199 197.36059 199.73519 202.19579 204.69139 206.79499 208.65259
 210.29419 211.45479 211.69939 211.94299 211.89559 211.61619 211.26479 210.91039
 210.54299 210.26859 210.09219 209.97179 209.91539 210.26199 210.66359 211.06819
 211.87679 213.07039 214.33599 216.13459 218.07819 220.13679 222.24738 224.34598
 226.42158 228.52118 230.63378 232.75538 234.89998 237.08758 239.35918 241.74478
 244.38138 246.64798 248.66558 250.44618 251.87878 253.01738 253.85498 254.18658
 254.23918 254.02878 253.40438 252.36798 250.98958 249.16618 247.09078 244.93938
 242.74598 240.56558 238.40118 236.25578 234.13138 232.01398 230.05558 228.22818
 226.52678 225.01438 223.65997 222.44757 221.34517 220.32077 219.44037 218.59697
 217.85457 217.05017 216.16377 215.54337 215.00897 215.06738 215.23030 215.40926
 215.03046 214.29524 213.63268 214.10725 216.93797 221.11273 226.06169 229.82037
 233.07387 237.00586 241.45607 246.01262 250.23479 253.97342 257.37097 260.53802
 263.47809 266.13757 268.32138 270.06985 271.84488 273.91037 275.63611 277.34860
 279.57410 281.56833 283.29401 284.80930 286.12064 287.28085 288.33936 289.29828
 290.16074 290.92877 291.59970 292.45471
 366.78100 356.34962 345.79625 334.67687 323.09449 311.30312 299.18774 287.00536
 274.73199 262.64361 250.66723 239.98286 230.11948 221.23811 213.43473 206.45135
 200.29998 195.25260 191.84922 189.90585 188.95747 189.03609 189.88572 191.20834
 192.94796 195.05759 197.33521 199.70883 202.16846 204.66308 206.76570 208.62233
 210.26295 211.42257 211.66620 211.90882 211.86044 211.58007 211.22769 210.87232
 210.50394 210.22856 210.05119 209.92981 209.87243 210.21806 210.61868 211.02230
 211.82993 213.02255 214.28717 216.08480 218.02742 220.08504 222.19467 224.29229
 226.36691 228.46554 230.57716 232.69778 234.84141 237.02803 239.29865 241.68328
 244.31890 246.58453 248.60115 250.38077 251.81240 252.95002 253.78664 254.11727
 254.16889 253.95751 253.33214 252.29476 250.91538 249.09101 247.01463 244.86225
 242.66788 240.48650 238.32112 236.17475 234.04937 231.93099 229.97162 228.14324
 226.44086 224.92749 223.57211 222.35874 221.25536 220.22998 219.34861 218.50423
 217.76085 216.95548 216.06810 215.44672 214.91135 215.02452 215.26013 215.38371
 215.22490 214.33163 213.50044 213.90486 216.82393 221.11986 225.97266 229.74680
 233.00487 236.96622 241.44467 245.99904 250.20215 253.96083 257.37848 260.60187
 263.62048 266.37250 268.68475 270.46545 272.11124 273.69730 275.61209 277.34763
 279.42575 281.47083 283.24051 284.79443 286.13922 287.32901 288.41449 289.39789
 290.28232 291.06995 291.75797 292.63480
 366.78100 356.34868 345.79435 334.67403 323.09071 311.29838 299.18206 286.99873
 274.72441 262.63509 250.65776 239.97244 230.10812 221.22579 213.42147 206.43715
 200.28482 195.23650 191.83217 189.88785 188.93853 189.01620 189.86488 191.18656
 192.92523 195.03391 197.31059 199.68326 202.14194 204.63561 206.73729 208.59297
 210.23264 211.39132 211.63400 211.87567 211.82635 211.54502 211.19170 210.83538
 210.46605 210.18973 210.01141 209.88908 209.83076 210.17544 210.57511 210.97779
 211.78446 212.97614 214.23982 216.03649 217.97817 220.03485 222.14352 224.24020
 226.31388 228.41155 230.52223 232.64190 234.78458 236.97026 239.23993 241.62361
 244.25829 246.52296 248.53864 250.31732 251.74799 252.88467 253.72034 254.05002
 254.10070 253.88837 253.26205 252.22373 250.84340 249.01808 246.94076 244.78743
 242.59211 240.40978 238.24346 236.09614 233.96981 231.85049 229.89017 228.06084
 226.35752 224.84320 223.48687 222.27255 221.16822 220.14190 219.25958 218.41425
 217.66993 216.86361 215.97528 215.35296 214.81664 214.97609 215.28508 215.31445
 215.40723 214.53659 213.49545 213.89783 216.74170 221.04515 225.79700 229.62157
 232.88754 236.89572 241.41327 245.96593 250.13577 253.86272 257.26758 260.49350
 263.55698 266.37140 268.78442 270.69080 272.39929 274.08395 275.57309 277.12177
 279.00815 280.88513 282.66986 284.23697 285.59320 286.79309 287.88782 288.87958
 289.77155 290.56586 291.25974 292.14401
 366.78100 356.34527 345.78753 334.66380 323.07706 311.28133 299.16159 286.97486
 274.69712 262.60439 250.62365 239.93492 230.06718 221.18145 213.37371 206.38598
 200.23024 195.17851 191.77077 189.82304 188.87030 188.94457 189.78984 191.10810
 192.84337 194.94863 197.22190 199.59116 202.04643 204.53669 206.63496 208.48722
 210.12349 211.27875 211.51802 211.75628 211.70355 211.41881 211.06208 210.70234
 210.32961 210.04988 209.86814 209.74241 209.68067 210.02194 210.41820 210.81747
 211.62073 212.80900 214.06926 215.86253 217.80079 219.85406 221.95932 224.05259
 226.12285 228.21712 230.32438 232.44065 234.57991 236.76218 239.02845 241.40871
 244.03998 246.30124 248.31351 250.08877 251.51604 252.64930 253.48157 253.80783
 253.85510 253.63936 253.00963 251.96789 250.58416 248.75542 246.67469 244.51795
 242.31922 240.13349 237.96375 235.81302 233.68328 231.56055 229.59681 227.76408
 226.05734 224.53961 223.17987 221.96214 220.85440 219.82467 218.93893 218.09020
 217.34246 216.53273 215.64099 215.01526 214.47552 214.80284 215.44353 215.11707
 215.33647 214.82864 213.68341 213.91647 216.68034 220.92867 225.56685 229.46234
 232.71606 236.81404 241.45129 246.04419 250.18564 253.86316 257.21985 260.42728
 263.51898 266.39639 268.90244 270.89648 272.71359 274.48135 275.99643 277.24649
 278.74762 280.16672 281.68271 283.21948 284.54941 285.72607 286.79959 287.77213
 288.64682 289.42575 290.10617 290.97333
 366.78100 356.34465 345.78630 334.66196 323.07461 311.27826 299.15791 286.97056
 274.69221 262.59887 250.61752 239.92817 230.05982 221.17347 213.36513 206.37678
 200.22043 195.16808 191.75973 189.81139 188.85804 188.93169 189.77634 191.09399
 192.82864 194.93330 197.20595 199.57460 202.02925 204.51890 206.61656 208.46821
 210.10386 211.25851 211.49716 211.73481 211.68147 211.39612 211.03877 210.67842
 210.30507 210.02473 209.84238 209.71603 209.65368 209.99433 210.38998 210.78864
 211.59129 212.77894 214.03859 215.83124 217.76890 219.82155 221.92620 224.01885
 226.08850 228.18216 230.28881 232.40446 234.54311 236.72476 238.99041 241.37007
 244.00072 246.26137 248.27302 250.04767 251.47433 252.60698 253.43863 253.76428
 253.81093 253.59458 252.96424 251.92189 250.53754 248.70819 246.62684 244.46950
 242.27015 240.08380 237.91345 235.76210 233.63176 231.50841 229.54406 227.71071
 226.00336 224.48501 223.12467 221.90632 220.79797 219.76762 218.88127 218.03193
 217.28358 216.47323 215.58088 214.95453 214.41418 214.74370 215.47183 215.18311
 215.14032 214.80020 213.75787 213.83969 216.45227 220.69717 225.48192 229.32018
 232.75906 236.85909 241.45734 246.02127 250.16466 253.83247 257.15854 260.31830
 263.37772 266.26852 268.84311 270.99530 272.88940 274.70312 276.36087 277.80490
 279.05026 280.13986 281.20898 282.15506 283.19849 284.22345 285.18173 286.04990
 286.83069 287.52600 288.13339 288.90747
 366.78100 356.34768 345.79236 334.67104 323.08671 311.29339 299.17607 286.99175
 274.71643 262.62611 250.64779 239.96146 230.09614 221.21282 213.40750 206.42218
 200.26886 195.21954 191.81421 189.86889 188.91857 188.99525 189.84293 191.16361
 192.90129 195.00896 197.28464 199.65632 202.11400 204.60668 206.70736 208.56204
 210.20071 211.35839 211.60007 211.84075 211.79043 211.50811 211.15379 210.79646
 210.42614 210.14882 209.96950 209.84618 209.78686 210.13054 210.52921 210.93089
 211.73657 212.92725 214.18993 215.98561 217.92629 219.98196 222.08964 224.18532
 226.25800 228.35468 230.46436 232.58304 234.72471 236.90939 239.17807 241.56075
 244.19443 246.45811 248.47279 250.25046 251.68014 252.81582 253.65050 253.97918
 254.02886 253.81554 253.18821 252.14889 250.76757 248.94125 246.86293 244.70861
 242.51229 240.32896 238.16164 236.01332 233.88600 231.76568 229.80436 227.97404
 226.26971 224.75439 223.39707 222.18175 221.07643 220.04911 219.16579 218.31947
 217.57414 216.76682 215.87750 215.25418 214.71686 214.88179 215.26564 215.37776
 215.35791 214.85355 213.72224 213.59212 216.20761 220.52361 225.34430 229.08974
 232.64815 236.78850 241.46124 246.07216 250.22404 253.87534 257.15533 260.24146
 263.23300 266.11041 268.71313 270.90732 272.83582 274.70248 276.35751 277.78262
 279.09970 280.27841 281.26407 282.08609 282.92685 283.83658 284.76761 285.64285
 286.43005 287.13104 287.74341 288.52380
 366.78100 356.34985 345.79669 334.67754 323.09539 311.30424 299.18908 287.00693
 274.73378 262.64563 250.66947 239.98532 230.12217 221.24102 213.43786 206.45471
 200.30356 195.25641 191.85325 189.91010 188.96195 189.04080 189.89064 191.21349
 192.95334 195.06319 197.34103 199.71488 202.17473 204.66958 206.77242 208.62927
 210.27012 211.42997 211.67381 211.91666 211.86851 211.58836 211.23620 210.88105
 210.51290 210.23775 210.06059 209.93944 209.88229 210.22814 210.62898 211.03283
 211.84068 213.03353 214.29837 216.09622 218.03907 220.09692 222.20676 224.30461
 226.37946 228.47831 230.59015 232.71100 234.85485 237.04170 239.31254 241.69739
 244.33324 246.59909 248.61593 250.39578 251.82763 252.96547 253.80232 254.13317
 254.18502 253.97386 253.34871 252.31156 250.93241 249.10825 247.03210 244.87995
 242.68580 240.50464 238.33949 236.19334 234.06819 231.95003 229.99088 228.16273
 226.46058 224.94742 223.59227 222.37912 221.27597 220.25081 219.36966 218.52551
 217.78236 216.97720 216.09005 215.46890 214.93375 215.00180 215.16722 215.35547
 215.43669 214.86111 213.80403 213.78267 216.29105 220.44356 225.18967 229.08926
 232.57471 236.79695 241.49248 246.12669 250.31363 253.99150 257.28470 260.33801
 263.24890 266.07812 268.67252 270.88770 272.87207 274.72601 276.34006 277.75006
 279.06906 280.24170 281.18665 281.98895 282.96271 284.00998 284.98050 285.85971
 286.65045 287.35461 287.96979 288.75369
 366.78100 356.34891 345.79483 334.67474 323.09166 311.29957 299.18349 287.00040
 274.72631 262.63723 250.66014 239.97506 230.11097 221.22889 213.42480 206.44071
 200.28863 195.24054 191.83646 189.89237 188.94328 189.02120 189.87011 191.19203
 192.93094 195.03986 197.31677 199.68968 202.14860 204.64251 206.74443 208.60034
 210.24026 211.39917 211.64208 211.88400 211.83491 211.55383 211.20074 210.84466
 210.47557 210.19948 210.02140 209.89931 209.84123 210.18614 210.58605 210.98897
 211.79588 212.98780 214.25171 216.04863 217.99054 220.04745 222.15637 224.25328
 226.32720 228.42511 230.53603 232.65594 234.79885 236.98477 239.25468 241.63860
 244.27351 246.53843 248.55434 250.33325 251.76417 252.90108 253.73700 254.06691
 254.11782 253.90574 253.27965 252.24157 250.86148 249.03640 246.95931 244.80622
 242.61114 240.42905 238.26297 236.11588 233.98980 231.87071 229.91062 228.08154
 226.37845 224.86437 223.50828 222.29420 221.19011 220.16402 219.28194 218.43685
 217.69277 216.88668 215.99860 215.37651 214.84042 214.96439 215.23976 215.26137
 215.33922 214.89102 213.92805 213.92490 216.37096 220.43764 225.13800 229.05008
 232.51735 236.77086 241.50162 246.17834 250.39107 254.09167 257.40668 260.46188
 263.33209 266.11774 268.71857 270.97174 272.99216 274.86758 276.44556 277.80222
 279.09131 280.19904 281.00330 281.94656 283.10184 284.16827 285.14124 286.02267
 286.81543 287.52136 288.13806 288.92398
 366.78100 356.34780 345.79261 334.67141 323.08722 311.29402 299.17683 286.99263
 274.71743 262.62724 250.64904 239.96285 230.09765 221.21446 213.40926 206.42406
 200.27087 195.22167 191.81648 189.87128 188.92109 188.99789 189.84569 191.16650
 192.90430 195.01211 197.28791 199.65972 202.11752 204.61033 206.71113 208.56593
 210.20474 211.36254 211.60435 211.84515 211.79496 211.51276 211.15856 210.80137
 210.43117 210.15398 209.97478 209.85159 209.79239 210.13619 210.53500 210.93680
 211.74261 212.93341 214.19622 215.99202 217.93282 219.98863 222.09643 224.19224
 226.26504 228.36185 230.47165 232.59045 234.73226 236.91706 239.18587 241.56867
 244.20248 246.46628 248.48108 250.25889 251.68869 252.82450 253.65930 253.98811
 254.03791 253.82471 253.19752 252.15832 250.77713 248.95093 246.87274 244.71854
 242.52234 240.33915 238.17195 236.02376 233.89656 231.77637 229.81517 227.98498
 226.28078 224.76558 223.40839 222.19319 221.08800 220.06080 219.17761 218.33141
 217.58621 216.77902 215.88982 215.26663 214.72943 214.90155 215.28847 215.28204
 215.22829 214.86974 213.96605 213.90567 216.31880 220.37642 225.05501 228.93410
 232.44485 236.72166 241.46387 246.13649 250.33803 254.04822 257.39496 260.47736
 263.34784 266.13214 268.77219 271.08112 273.15195 275.05731 276.65390 277.98761
 279.21512 280.27673 281.07635 281.89960 282.95804 283.96912 284.89429 285.73242
 286.48624 287.15753 287.74393 288.49124
 366.78100 356.34797 345.79294 334.67191 323.08788 311.29484 299.17781 286.99378
 274.71875 262.62872 250.65069 239.96466 230.09963 221.21660 213.41157 206.42653
 200.27350 195.22447 191.81944 189.87441 188.92438 189.00135 189.84932 191.17029
 192.90825 195.01622 197.29219 199.66416 202.12213 204.61510 206.71607 208.57104
 210.21001 211.36798 211.60994 211.85091 211.80088 211.51885 211.16482 210.80779
 210.43776 210.16073 209.98170 209.85867 209.79963 210.14360 210.54257 210.94454
 211.75051 212.94148 214.20445 216.00042 217.94139 219.99735 222.10532 224.20129
 226.27426 228.37123 230.48120 232.60017 234.74214 236.92711 239.19608 241.57904
 244.21301 246.47698 248.49195 250.26992 251.69989 252.83586 253.67083 253.99980
 254.04976 253.83673 253.20970 252.17067 250.78964 248.96361 246.88558 244.73155
 242.53552 240.35249 238.18545 236.03742 233.91039 231.79036 229.82933 227.99930
 226.29527 224.78024 223.42321 222.20817 221.10314 220.07611 219.19308 218.34705
 217.60202 216.79499 215.90596 215.28293 214.74590 214.89565 215.24500 215.36696
 215.24527 214.74683 213.90627 213.80432 216.24309 220.32785 225.02728 228.80539
 232.37178 236.66978 241.41859 246.07741 250.25256 253.94513 257.29318 260.38171
 263.26633 266.05112 268.71503 271.10681 273.26077 275.23843 276.89798 278.25018
 279.47025 280.56207 281.40964 282.05127 282.80939 283.70706 284.57062 285.33954
 286.03110 286.64694 287.18491 287.87051
 366.78100 356.34792 345.79285 334.67177 323.08770 311.29462 299.17754 286.99347
 274.71839 262.62832 250.65024 239.96416 230.09909 221.21601 213.41094 206.42586
 200.27278 195.22371 191.81863 189.87355 188.92348 189.00040 189.84833 191.16925
 192.90717 195.01510 197.29102 199.66295 202.12087 204.61379 206.71472 208.56964
 210.20857 211.36649 211.60841 211.84934 211.79926 211.51719 211.16311 210.80603
 210.43596 210.15888 209.97981 209.85673 209.79765 210.14158 210.54050 210.94243
 211.74835 212.93927 214.20220 215.99812 217.93904 219.99497 222.10289 224.19882
 226.27174 228.36866 230.47859 232.59751 234.73944 236.92436 239.19328 241.57621
 244.21013 246.47406 248.48898 250.26690 251.69683 252.83275 253.66768 253.99660
 254.04652 253.83345 253.20637 252.16730 250.78622 248.96014 246.88207 244.72799
 242.53192 240.34884 238.18176 236.03369 233.90661 231.78653 229.82546 227.99538
 226.29131 224.77623 223.41915 222.20408 221.09900 220.07193 219.18885 218.34277
 217.59770 216.79062 215.90155 215.27847 214.74139 214.88658 215.22729 215.34146
 215.42009 214.76596 213.82236 213.70494 216.23424 220.36490 225.08885 228.75931
 232.33444 236.64484 241.41360 246.07997 250.23601 253.90515 257.23013 260.28979
 263.13596 265.88193 268.54248 270.99335 273.22668 275.26227 276.97391 278.36548
 279.62448 280.75165 281.64786 282.30756 282.90167 283.62979 284.44540 285.16553
 285.75250 286.27518 286.73181 287.31372
 366.78100 356.34741 345.79183 334.67024 323.08565 311.29207 299.17448 286.98989
 274.71431 262.62372 250.64513 239.95855 230.09296 221.20937 213.40379 206.41820
 200.26461 195.21502 191.80944 189.86385 188.91326 188.98968 189.83709 191.15750
 192.89492 195.00233 197.27774 199.64916 202.10657 204.59898 206.69940 208.55381
 210.19222 211.34964 211.59105 211.83146 211.78088 211.49829 211.14370 210.78612
 210.41553 210.13794 209.95836 209.83477 209.77518 210.11860 210.51701 210.91842
 211.72383 212.91425 214.17666 215.97207 217.91249 219.96790 222.07531 224.17073
 226.24314 228.33955 230.44897 232.56738 234.70879 236.89321 239.16162 241.54403
 244.17745 246.44086 248.45527 250.23269 251.66210 252.79751 253.63193 253.96034
 254.00975 253.79617 253.16858 252.12899 250.74741 248.92082 246.84223 244.68765
 242.49106 240.30747 238.13988 235.99130 233.86371 231.74312 229.78154 227.95095
 226.24636 224.73078 223.37319 222.15760 221.05202 220.02443 219.14084 218.29426
 217.54867 216.74108 215.85150 215.22791 214.69032 214.85855 215.25392 215.28880
 215.47519 214.77965 213.68796 213.60124 216.23491 220.41968 225.15614 228.78183
 232.32639 236.63763 241.42647 246.10948 250.27214 253.94763 257.27344 260.31519
 263.10919 265.78171 268.39716 270.85706 273.13022 275.19104 276.90930 278.32925
 279.62268 280.75427 281.62274 282.27481 282.86871 283.53799 284.32733 285.07831
 285.69839 286.24246 286.71777 287.32349
 366.78100 356.34736 345.79172 334.67008 323.08544 311.29181 299.17417 286.98953
 274.71389 262.62325 250.64461 239.95797 230.09233 221.20870 213.40306 206.41742
 200.26378 195.21414 191.80850 189.86286 188.91222 188.98859 189.83595 191.15631
 192.89367 195.00103 197.27639 199.64775 202.10511 204.59747 206.69784 208.55220
 210.19056 211.34792 211.58928 211.82964 211.77900 211.49636 211.14173 210.78409
 210.41345 210.13581 209.95617 209.83253 209.77289 210.11625 210.51462 210.91598
 211.72134 212.91170 214.17406 215.96942 217.90978 219.96514 222.07250 224.16787
 226.24023 228.33659 230.44595 232.56431 234.70567 236.89003 239.15839 241.54076
 244.17412 246.43748 248.45184 250.22920 251.65856 252.79392 253.62828 253.95664
 254.00601 253.79237 253.16473 252.12509 250.74345 248.91681 246.83817 244.68353
 242.48690 240.30326 238.13562 235.98698 233.85934 231.73870 229.77706 227.94642
 226.24179 224.72615 223.36851 222.15287 221.04723 220.01959 219.13595 218.28931
 217.54367 216.73604 215.84640 215.22276 214.68512 214.85414 215.25227 215.30841
 215.45779 214.78935 213.63467 213.51775 216.18584 220.40565 225.13150 228.74744
 232.28864 236.61652 241.42606 246.12120 250.30151 254.00455 257.35764 260.41263
 263.18494 265.80054 268.35535 270.79648 273.09119 275.17368 276.89224 278.31830
 279.62851 280.74472 281.57309 282.21573 282.82983 283.49670 284.26529 284.98972
 285.60358 286.13724 286.60345 287.19757
 366.78100 356.34757 345.79214 334.67070 323.08627 311.29284 299.17541 286.99097
 274.71554 262.62511 250.64668 239.96025 230.09481 221.21138 213.40595 206.42052
 200.26708 195.21765 191.81222 189.86679 188.91636 188.99292 189.84049 191.16106
 192.89863 195.00620 197.28176 199.65333 202.11090 204.60347 206.70403 208.55860
 210.19717 211.35474 211.59631 211.83687 211.78644 211.50401 211.14958 210.79214
 210.42171 210.14428 209.96485 209.84142 209.78198 210.12555 210.52412 210.92569
 211.73125 212.92182 214.18439 215.97996 217.92053 219.97609 222.08366 224.17923
 226.25180 228.34836 230.45793 232.57650 234.71807 236.90264 239.17120 241.55377
 244.18734 246.45091 248.46547 250.24304 251.67261 252.80818 253.64275 253.97131
 254.02088 253.80745 253.18002 252.14059 250.75915 248.93272 246.85429 244.69986
 242.50342 240.31999 238.15256 236.00413 233.87670 231.75626 229.79483 227.96440
 226.25997 224.74453 223.38710 222.17167 221.06624 220.03881 219.15537 218.30894
 217.56351 216.75608 215.86664 215.24321 214.70578 214.86288 215.23389 215.33699
 215.42642 214.82132 213.72800 213.48393 216.10747 220.32906 225.03178 228.62901
 232.21080 236.57790 241.40826 246.10138 250.28702 254.01003 257.38937 260.46884
 263.24771 265.84174 268.35501 270.78094 273.10056 275.22183 276.96991 278.41281
 279.72433 280.82816 281.62888 282.26501 282.88678 283.56241 284.31729 285.01721
 285.61285 286.13068 286.58307 287.15955
 366.78100 356.34734 345.79168 334.67003 323.08537 311.29171 299.17405 286.98940
 274.71374 262.62308 250.64442 239.95777 230.09211 221.20845 213.40279 206.41714
 200.26348 195.21382 191.80816 189.86251 188.91185 188.98819 189.83553 191.15588
 192.89322 195.00056 197.27590 199.64725 202.10459 204.59693 206.69727 208.55162
 210.18996 211.34730 211.58864 211.82898 211.77833 211.49567 211.14101 210.78335
 210.41270 210.13504 209.95538 209.83172 209.77207 210.11541 210.51375 210.91509
 211.72044 212.91078 214.17312 215.96846 217.90881 219.96415 222.07149 224.16683
 226.23918 228.33552 230.44486 232.56320 234.70455 236.88889 239.15723 241.53957
 244.17292 246.43626 248.45060 250.22794 251.65729 252.79263 253.62697 253.95531
 254.00465 253.79100 253.16334 252.12368 250.74202 248.91537 246.83671 244.68205
 242.48539 240.30174 238.13408 235.98542 233.85776 231.73711 229.77545 227.94479
 226.24013 224.72448 223.36682 222.15116 221.04550 220.01785 219.13419 218.28753
 217.54187 216.73422 215.84456 215.22090 214.68324 214.85040 215.24535 215.33965
 215.38147 214.81224 213.86263 213.49478 216.05196 220.26656 224.93483 228.51183
 232.13907 236.54166 241.38998 246.07092 250.24731 253.97353 257.36392 260.45679
 263.24524 265.83640 268.32666 270.74548 273.09827 275.27499 277.07379 278.54462
 279.85373 280.93506 281.71353 282.32584 282.93179 283.61243 284.37820 285.07687
 285.66037 286.14075 286.56039 287.09515
 366.78100 356.34661 345.79022 334.66783 323.08245 311.28806 299.16967 286.98428
 274.70789 262.61650 250.63711 239.94973 230.08334 221.19895 213.39256 206.40617
 200.25178 195.20139 191.79500 189.84862 188.89723 188.97284 189.81945 191.13906
 192.87567 194.98228 197.25690 199.62751 202.08412 204.57573 206.67534 208.52895
 210.16656 211.32318 211.56379 211.80340 211.75201 211.46862 211.11323 210.75484
 210.38346 210.10507 209.92468 209.80029 209.73990 210.08251 210.48012 210.88073
 211.68535 212.87496 214.13657 215.93118 217.87079 219.92540 222.03201 224.12663
 226.19824 228.29385 230.40246 232.52007 234.66068 236.84429 239.11191 241.49352
 244.12613 246.38874 248.40235 250.17896 251.60757 252.74219 253.57580 253.90341
 253.95202 253.73763 253.10924 252.06885 250.68646 248.85908 246.77969 244.62430
 242.42691 240.24252 238.07413 235.92474 233.79636 231.67497 229.71258 227.88119
 226.17580 224.65941 223.30102 222.08464 220.97825 219.94986 219.06547 218.21808
 217.47169 216.66330 215.77292 215.14853 214.61014 214.81276 215.29144 215.33963
 215.30678 214.72789 213.92223 213.52733 216.04710 220.24820 224.88705 228.46890
 232.10806 236.52739 241.38354 246.05070 250.21539 253.93915 257.33237 260.42853
 263.22076 265.80997 268.28317 270.69052 273.07349 275.31018 277.16385 278.67264
 279.98624 281.04822 281.80835 282.38730 282.94769 283.59549 284.35364 285.06036
 285.64420 286.08356 286.46738 286.95651
 366.78100 356.34599 345.78899 334.66598 323.07997 311.28497 299.16596 286.97995
 274.70295 262.61094 250.63093 239.94293 230.07592 221.19091 213.38391 206.39690
 200.24189 195.19089 191.78388 189.83687 188.88487 188.95986 189.80585 191.12485
 192.86084 194.96683 197.24083 199.61082 202.06682 204.55781 206.65680 208.50980
 210.14679 211.30278 211.54278 211.78177 211.72976 211.44576 211.08975 210.73074
 210.35874 210.07973 209.89872 209.77372 209.71271 210.05470 210.45170 210.85169
 211.65568 212.84468 214.10567 215.89966 217.83866 219.89265 221.99864 224.09264
 226.16363 228.25862 230.36662 232.48361 234.62360 236.80660 239.07359 241.45458
 244.08658 246.34857 248.36156 250.13756 251.56555 252.69954 253.53254 253.85953
 253.90752 253.69252 253.06351 252.02250 250.63950 248.81149 246.73149 244.57548
 242.37747 240.19247 238.02346 235.87345 233.74445 231.62244 229.65943 227.82743
 226.12142 224.60441 223.24541 222.02840 220.92139 219.89239 219.00738 218.15937
 217.41237 216.60336 215.71235 215.08735 214.54834 214.77939 215.32527 215.36020
 215.25429 214.63170 213.87263 213.57162 216.04918 220.27751 224.88515 228.46021
 232.10332 236.52396 241.38623 246.04193 250.19514 253.91434 257.30869 260.40735
 263.20334 265.79153 268.24686 270.63858 273.04721 275.35065 277.27136 278.81464
 280.13480 281.18948 281.95081 282.50980 283.01611 283.57495 284.30652 285.01913
 285.61603 286.05655 286.41248 286.86609
 366.78100 356.34581 345.78862 334.66542 323.07923 311.28404 299.16485 286.97866
 274.70146 262.60927 250.62908 239.94089 230.07370 221.18850 213.38131 206.39412
 200.23893 195.18774 191.78054 189.83335 188.88116 188.95597 189.80178 191.12058
 192.85639 194.96220 197.23601 199.60582 202.06162 204.55243 206.65124 208.50405
 210.14086 211.29666 211.53647 211.77528 211.72309 211.43890 211.08270 210.72351
 210.35132 210.07213 209.89094 209.76574 209.70455 210.04636 210.44317 210.84298
 211.64678 212.83559 214.09640 215.89021 217.82902 219.88282 221.98863 224.08244
 226.15325 228.24806 230.35586 232.47267 234.61248 236.79529 239.06210 241.44290
 244.07471 246.33652 248.34933 250.12514 251.55294 252.68675 253.51956 253.84637
 253.89418 253.67898 253.04979 252.00860 250.62541 248.79722 246.71702 244.56083
 242.36264 240.17745 238.00826 235.85806 233.72887 231.60668 229.64349 227.81130
 226.10510 224.58791 223.22872 222.01153 220.90434 219.87514 218.98995 218.14176
 217.39457 216.58538 215.69418 215.06899 214.52980 214.76813 215.33121 215.39471
 215.23215 214.60080 213.79504 213.55164 216.06479 220.24683 224.87016 228.45377
 232.10437 236.52296 241.38165 246.03140 250.17456 253.89412 257.29398 260.39670
 263.19324 265.77493 268.20438 270.57712 273.00961 275.38232 277.35828 278.93222
 280.27185 281.33002 282.10089 282.64667 283.11588 283.59692 284.24323 284.97067
 285.59805 286.07281 286.40414 286.82639
 366.78100 356.34561 345.78823 334.66484 323.07845 311.28306 299.16368 286.97729
 274.69990 262.60752 250.62713 239.93874 230.07136 221.18597 213.37858 206.39119
 200.23581 195.18442 191.77703 189.82965 188.87726 188.95187 189.79749 191.11610
 192.85171 194.95732 197.23094 199.60055 202.05616 204.54678 206.64539 208.49800
 210.13462 211.29023 211.52984 211.76845 211.71607 211.43168 211.07529 210.71591
 210.34352 210.06413 209.88275 209.75736 209.69597 210.03758 210.43420 210.83381
 211.63742 212.82604 214.08665 215.88026 217.81888 219.87249 221.97810 224.07171
 226.14233 228.23694 230.34455 232.46117 234.60078 236.78339 239.05001 241.43062
 244.06223 246.32384 248.33646 250.11207 251.53968 252.67330 253.50591 253.83252
 253.88014 253.66475 253.03536 251.99397 250.61059 248.78220 246.70181 244.54543
 242.34704 240.16165 237.99227 235.84188 233.71249 231.59010 229.62672 227.79433
 226.08794 224.57056 223.21117 221.99378 220.88640 219.85701 218.97162 218.12323
 217.37585 216.56646 215.67507 215.04969 214.51030 214.75740 215.34120 215.42923
 215.18994 214.57939 213.74252 213.49649 216.04257 220.19289 224.83319 228.46231
 232.10999 236.52328 241.36961 246.01711 250.15315 253.87746 257.28467 260.39005
 263.18875 265.76660 268.17996 270.53314 272.97821 275.40750 277.44476 279.05115
 280.40057 281.46307 282.24203 282.77542 283.22147 283.64993 284.21088 284.90997
 285.56107 286.06424 286.38727 286.79889
 366.78100 356.34491 345.78682 334.66273 323.07563 311.27954 299.15945 286.97236
 274.69427 262.60118 250.62008 239.93099 230.06290 221.17681 213.36872 206.38063
 200.22454 195.17244 191.76435 189.81626 188.86317 188.93708 189.78199 191.09990
 192.83480 194.93971 197.21262 199.58153 202.03644 204.52635 206.62425 208.47616
 210.11207 211.26698 211.50589 211.74380 211.69071 211.40561 211.04852 210.68843
 210.31534 210.03525 209.85316 209.72707 209.66497 210.00588 210.40179 210.80070
 211.60361 212.79152 214.05142 215.84433 217.78224 219.83515 221.94006 224.03297
 226.10288 228.19678 230.30369 232.41960 234.55851 236.74042 239.00633 241.38624
 244.01714 246.27805 248.28996 250.06487 251.49178 252.62469 253.45659 253.78250
 253.82941 253.61332 252.98323 251.94114 250.55705 248.72795 246.64686 244.48977
 242.29068 240.10459 237.93450 235.78341 233.65331 231.53022 229.56613 227.73304
 226.02595 224.50786 223.14776 221.92967 220.82158 219.79149 218.90540 218.05631
 217.30822 216.49812 215.60603 214.97994 214.43985 214.71994 215.38170 215.45494
 215.13972 214.52562 213.71692 213.45988 216.02959 220.13467 224.78296 228.47443
 232.12688 236.53247 241.36028 245.99567 250.12503 253.85776 257.27484 260.38580
 263.18805 265.76059 268.15189 270.49460 272.95645 275.44351 277.52594 279.17017
 280.54379 281.61697 282.38821 282.88141 283.29752 283.71054 284.25476 284.95233
 285.60764 286.12033 286.43286 286.83118
 366.78100 356.34440 345.78581 334.66121 323.07361 311.27701 299.15642 286.96882
 274.69022 262.59662 250.61503 239.92543 230.05683 221.17023 213.36164 206.37304
 200.21644 195.16384 191.75525 189.80665 188.85305 188.92645 189.77086 191.08826
 192.82266 194.92706 197.19947 199.56787 202.02227 204.51167 206.60908 208.46048
 210.09588 211.25028 211.48869 211.72609 211.67249 211.38689 211.02930 210.66870
 210.29510 210.01450 209.83191 209.70531 209.64271 209.98311 210.37852 210.77692
 211.57932 212.76672 214.02613 215.81853 217.75593 219.80833 221.91274 224.00514
 226.07454 228.16794 230.27435 232.38975 234.52815 236.70955 238.97496 241.35436
 243.98476 246.24516 248.25657 250.03097 251.45737 252.58977 253.42118 253.74658
 253.79298 253.57638 252.94579 251.90319 250.51859 248.68899 246.60740 244.44980
 242.25020 240.06360 237.89301 235.74141 233.61081 231.48721 229.52262 227.68902
 225.98142 224.46282 223.10223 221.88363 220.77503 219.74443 218.85784 218.00824
 217.25964 216.44904 215.55645 214.92985 214.38925 214.69228 215.40823 215.49466
 215.14252 214.39766 213.62920 213.38869 215.99043 220.09132 224.75417 228.49855
 232.14299 236.53819 241.34335 245.97577 250.10489 253.84660 257.27078 260.38348
 263.18881 265.76163 268.14508 270.46545 272.92740 275.46161 277.60156 279.27661
 280.64917 281.73041 282.49265 282.97934 283.37753 283.74417 284.22574 284.86642
 285.50354 286.01498 286.37720 286.83884
 366.78100 356.34388 345.78476 334.65964 323.07152 311.27440 299.15328 286.96516
 274.68604 262.59192 250.60980 239.91968 230.05056 221.16344 213.35432 206.36520
 200.20808 195.15496 191.74584 189.79672 188.84260 188.91548 189.75936 191.07624
 192.81012 194.91400 197.18588 199.55376 202.00764 204.49652 206.59340 208.44428
 210.07916 211.23304 211.47092 211.70780 211.65368 211.36756 211.00944 210.64832
 210.27420 209.99308 209.80996 209.68284 209.61972 209.95960 210.35448 210.75236
 211.55424 212.74112 214.00000 215.79188 217.72876 219.78064 221.88452 223.97640
 226.04528 228.13816 230.24404 232.35892 234.49680 236.67768 238.94256 241.32144
 243.95132 246.21120 248.22208 249.99596 251.42184 252.55372 253.38460 253.70948
 253.75536 253.53824 252.90712 251.86400 250.47888 248.64876 246.56664 244.40852
 242.20840 240.02128 237.85016 235.69804 233.56692 231.44280 229.47768 227.64356
 225.93544 224.41632 223.05521 221.83609 220.72697 219.69585 218.80873 217.95861
 217.20949 216.39837 215.50525 214.87813 214.33701 214.66931 215.45442 215.49536
 215.19670 214.30064 213.43594 213.18842 215.93736 220.04045 224.69193 228.59778
 232.21170 236.59715 241.35905 245.97078 250.10193 253.84071 257.25424 260.35828
 263.15854 265.72739 268.12988 270.50519 273.01773 275.54324 277.70758 279.43954
 280.83496 281.88824 282.51736 282.86542 283.29584 283.81351 284.43906 285.14850
 285.82764 286.36618 286.82059 287.39966
 354.97500 345.04800 334.58700 324.11500 313.32600 302.53700 291.65000 280.76700
 269.93100 259.19300 248.62200 238.61700 229.08700 220.35500 212.54000 205.53500
 199.46400 194.49300 191.14300 189.19000 188.08900 188.01400 188.72400 189.90600
 191.46900 193.38200 195.40300 197.55600 199.80700 202.06000 204.28800 206.47900
 208.55200 210.37800 212.02500 213.65900 214.99800 216.11800 217.17200 218.25900
 219.49400 220.64500 221.67900 222.61400 223.54500 224.98200 226.57100 228.19000
 229.79700 231.81100 233.86500 235.97200 238.24200 240.55300 242.89900 245.25300
 247.48800 249.53500 251.36600 252.84800 254.09800 255.16700 256.02700 256.25300
 256.09500 255.54300 253.93500 252.56600 251.38400 250.24500 249.05200 247.70100
 246.01600 243.99600 241.78400 239.39300 236.81300 234.22300 231.65800 229.14400
 226.74000 224.47300 222.33500 220.32500 218.44000 216.67700 214.96200 213.47200
 212.20000 211.10800 210.26000 209.63900 209.24400 209.03100 209.05800 209.33300
 209.78400 210.62600 211.33100 212.39100 213.62500 214.84668 217.72949 219.47640
 220.32566 220.86828 220.88710 220.27371 219.43733 218.84250 219.04934 220.86203
 222.60583 225.72206 229.03064 232.61777 236.12270 239.51333 242.70767 245.68587
 248.41061 250.90679 253.19353 254.91714 256.48655 257.94920 259.39966 260.69384
 261.81714 262.77997 263.71679 264.54570 265.26305 265.89772 266.47676 267.00133
 267.47312 267.89325 268.26027 268.72800
