|-------------------------------------------------------------------------|
|   File Name : in_temp.dat
|   Subject   : temperature profiles used for initial guess atmosphere
|   File Type : input of gmtr
|   Data Type : atmospherical data
|   Author/s  : WRF-Chem
|   Date      : Fri Jul 26 15:39:24 2024
|-------------------------------------------------------------------------|

 WRF-Chem temperature
#
 values of T (K)    (8f10.5)
#
 354.97500 345.04800 334.58700 324.11500 313.32600 302.53700 291.65000 280.76700
 269.93100 259.19300 248.62200 238.61700 229.08700 220.35500 212.54000 205.53500
 199.46400 194.49300 191.14300 189.19000 188.08900 188.01400 188.72400 189.90600
 191.46900 193.38200 195.40300 197.55600 199.80700 202.06000 204.28800 206.47900
 208.55200 210.37800 212.02500 213.65900 214.99800 216.11800 217.17200 218.25900
 219.49400 220.64500 221.67900 222.61400 223.54500 224.98200 226.57100 228.19000
 229.79700 231.81100 233.86500 235.97200 238.24200 240.55300 242.89900 245.25300
 247.48800 249.53500 251.36600 252.84800 254.09800 255.16700 256.02700 256.25300
 256.09500 255.54300 253.93500 252.56600 251.38400 250.24500 249.05200 247.70100
 246.01600 243.99600 241.78400 239.39300 236.81300 234.22300 231.65800 229.14400
 226.74000 224.47300 222.33500 220.32500 218.44000 216.67700 214.96200 213.47200
 212.20000 211.10800 210.26000 209.63900 209.24400 209.03100 209.05800 209.33300
 209.78400 210.62600 211.33100 212.39100 213.62500 214.84668 217.72949 219.47640
 220.32566 220.86828 220.88710 220.27371 219.43733 218.84250 219.04934 220.86203
 222.60583 225.72206 229.03064 232.61777 236.12270 239.51333 242.70767 245.68587
 248.41061 250.90679 253.19353 254.91714 256.48655 257.94920 259.39966 260.69384
 261.81714 262.77997 263.71679 264.54570 265.26305 265.89772 266.47676 267.00133
 267.47312 267.89325 268.26027 268.72800
 366.78100 356.33500 345.76700 334.63300 323.03600 311.23000 299.10000 286.90300
 274.61500 262.51200 250.52100 239.82200 229.94400 221.04800 213.23000 206.23200
 200.06600 195.00400 191.58600 189.62800 188.66500 188.72900 189.56400 190.87200
 192.59700 194.69200 196.95500 199.31400 201.75900 204.23900 206.32700 208.16900
 209.79500 210.94000 211.16900 211.39700 211.33400 211.03900 210.67200 210.30200
 209.91900 209.62900 209.43700 209.30100 209.22900 209.56000 209.94600 210.33500
 211.12800 212.30600 213.55600 215.33900 217.26700 219.31000 221.40500 223.48800
 225.54800 227.63200 229.72900 231.83500 233.96400 236.13600 238.39200 240.76200
 243.38300 245.63400 247.63600 249.40100 250.81800 251.94100 252.76300 253.07900
 253.11600 252.89000 252.25000 251.19800 249.80400 247.96500 245.87400 243.70700
 241.49800 239.30200 237.12200 234.96100 232.82100 230.68800 228.71400 226.87100
 225.15400 223.62600 222.25600 221.02800 219.91000 218.87000 217.97400 217.11500
 216.35700 215.53700 214.63500 213.99900 213.44900 212.85855 212.01316 212.61654
 214.26826 216.08686 218.14273 220.53346 223.40855 226.78828 231.49734 235.90155
 239.42278 243.28576 247.23140 251.11907 254.80144 258.23331 261.38913 264.27520
 266.89312 269.26852 271.44504 273.08845 274.58484 275.98591 277.39845 278.65879
 279.75272 280.69038 281.56708 282.34086 283.01050 283.60295 284.14348 284.63317
 285.07358 285.46577 285.80838 286.24500
 381.81900 372.39900 361.20600 349.77600 337.62200 324.85300 311.81000 298.35300
 284.86000 271.32400 258.56100 246.30400 236.08700 226.79600 218.44800 211.29000
 205.52200 200.89400 197.38100 194.84800 193.01500 192.31500 192.25000 192.43100
 192.91200 193.53700 194.13600 194.71200 195.26200 195.83100 196.39300 196.97600
 197.60400 198.14900 198.58400 199.05700 199.69500 200.37800 201.05400 201.70800
 202.31300 202.85700 203.35500 203.86200 204.56900 205.29700 206.02600 206.98700
 208.19300 209.44100 210.96900 212.57600 214.46200 216.51300 218.63000 220.85300
 223.34100 225.96200 228.73900 231.69700 234.70600 237.70600 240.69200 243.65700
 246.73700 249.69900 252.52100 255.06300 257.29000 259.23300 260.63300 261.68000
 262.46100 262.79800 262.69100 262.22400 261.06900 259.52500 257.70700 255.50700
 253.00100 250.30200 247.39800 244.45200 241.65400 239.05400 236.73300 234.59000
 232.59500 230.72500 228.83400 226.82600 224.66600 222.38700 220.10400 217.71500
 215.45900 213.06600 210.54600 208.09300 205.35400 202.08130 196.05959 200.71215
 209.01611 216.90438 223.84126 229.78593 235.00632 240.20838 245.98943 250.68668
 254.32982 257.93487 261.55666 264.96801 268.15192 271.06452 273.76717 276.25691
 278.57680 280.74479 282.77456 284.60533 286.27232 287.81705 289.31715 290.65561
 291.81734 292.81312 293.70701 294.49387 295.17482 295.77730 296.32696 296.82492
 297.27278 297.67160 298.02000 298.46400
 399.33000 389.90700 379.81300 368.66800 357.52200 345.30100 333.07400 320.22700
 307.21600 293.84800 280.37600 267.29600 254.61000 242.98700 232.15100 221.97700
 212.67200 204.28600 197.66900 192.82100 189.48600 187.45200 186.81400 187.08900
 187.78100 189.05400 190.64800 192.54200 194.63000 196.75200 198.67100 200.15800
 201.53500 202.48700 202.97500 203.34000 203.53900 203.49700 203.38500 203.24700
 203.00500 202.78600 202.60300 202.43700 202.42600 202.88800 203.42000 203.95100
 204.89500 205.99200 207.30100 208.95800 210.73800 213.10000 215.56400 218.18000
 220.96600 223.91800 226.96100 230.09200 233.29300 236.55700 239.95500 243.53700
 246.84500 249.39000 251.54200 253.47400 255.19500 256.48400 257.43100 258.05900
 258.21200 258.04000 257.58200 256.64300 255.23900 253.50700 251.40800 249.05600
 246.57600 243.99400 241.38900 238.83000 236.34400 233.98600 231.96900 230.11800
 228.42300 226.89900 225.54800 224.29700 223.10500 221.96500 220.95800 220.11300
 219.49000 218.92000 218.32500 217.88100 217.42300 216.96366 216.35568 216.80261
 217.73415 218.28582 218.64258 219.10077 220.44626 222.53987 226.38451 230.35736
 233.59734 237.39164 241.29814 245.22796 248.98002 252.51130 255.78595 258.80109
 261.54781 264.05210 266.34239 268.04198 269.58951 271.01303 272.35754 273.55718
 274.59842 275.49092 276.28989 276.99307 277.60161 278.14001 278.63122 279.07623
 279.47646 279.83287 280.14422 280.54100
 399.73800 389.78500 379.66200 368.15100 356.64100 344.35000 331.79200 318.88800
 305.72600 292.49300 279.20900 266.73800 254.69600 244.21100 234.45700 225.43300
 217.56900 210.45100 204.30000 199.30600 195.45800 192.57600 191.02700 190.38600
 190.23900 190.53400 191.16600 191.92500 192.79500 193.76600 194.73200 195.31200
 195.80000 196.05200 196.11500 196.11500 196.03900 195.72300 195.34000 194.98900
 194.75100 194.79200 195.13300 195.59800 196.50600 198.13600 199.85800 201.56600
 204.17900 206.82300 209.89300 213.28400 216.82800 220.60500 224.38700 228.20900
 232.03200 235.82500 239.56000 243.25800 246.84500 250.20100 253.70900 257.46800
 261.53000 264.22100 266.60100 268.68100 270.32900 271.74100 272.83600 273.47400
 273.89800 274.00200 273.75700 273.28800 272.37100 271.10000 269.58900 267.77900
 265.81600 263.72100 261.39300 258.91600 256.29800 253.42300 250.33100 247.11400
 243.83700 240.52900 237.24900 233.99900 230.72800 227.51500 224.25400 220.95200
 217.62700 213.65600 210.12100 206.78900 204.01000 201.99491 199.07309 198.76551
 199.40006 200.48994 201.46112 202.31912 203.45100 204.96110 207.47502 210.85391
 213.70530 217.29629 220.99574 224.72316 228.28753 231.64854 234.68024 237.40893
 239.70644 241.60899 243.46854 245.67368 247.68154 249.52395 251.24767 252.78566
 254.12057 255.26479 256.23740 257.09036 257.82852 258.48160 259.07744 259.61723
 260.10271 260.53504 260.91270 261.39400
 399.73800 389.78500 379.66200 368.15100 356.64100 344.35000 331.79200 318.88800
 305.72600 292.49300 279.20900 266.73800 254.69600 244.21100 234.45700 225.43300
 217.56900 210.45100 204.30000 199.30600 195.45800 192.57600 191.02700 190.38600
 190.23900 190.53400 191.16600 191.92500 192.79500 193.76600 194.73200 195.31200
 195.80000 196.05200 196.11500 196.11500 196.03900 195.72300 195.34000 194.98900
 194.75100 194.79200 195.13300 195.59800 196.50600 198.13600 199.85800 201.56600
 204.17900 206.82300 209.89300 213.28400 216.82800 220.60500 224.38700 228.20900
 232.03200 235.82500 239.56000 243.25800 246.84500 250.20100 253.70900 257.46800
 261.53000 264.22100 266.60100 268.68100 270.32900 271.74100 272.83600 273.47400
 273.89800 274.00200 273.75700 273.28800 272.37100 271.10000 269.58900 267.77900
 265.81600 263.72100 261.39300 258.91600 256.29800 253.42300 250.33100 247.11400
 243.83700 240.52900 237.24900 233.99900 230.72800 227.51500 224.25400 220.95200
 217.62700 213.65600 210.12100 206.78900 204.01000 201.99491 199.07309 198.76551
 199.40006 200.48994 201.46112 202.31912 203.45100 204.96110 207.47502 210.85391
 213.70530 217.29629 220.99574 224.72316 228.28753 231.64854 234.68024 237.40893
 239.70644 241.60899 243.46854 245.67368 247.68154 249.52395 251.24767 252.78566
 254.12057 255.26479 256.23740 257.09036 257.82852 258.48160 259.07744 259.61723
 260.10271 260.53504 260.91270 261.39400
 399.33000 389.90700 379.81300 368.66800 357.52200 345.30100 333.07400 320.22700
 307.21600 293.84800 280.37600 267.29600 254.61000 242.98700 232.15100 221.97700
 212.67200 204.28600 197.66900 192.82100 189.48600 187.45200 186.81400 187.08900
 187.78100 189.05400 190.64800 192.54200 194.63000 196.75200 198.67100 200.15800
 201.53500 202.48700 202.97500 203.34000 203.53900 203.49700 203.38500 203.24700
 203.00500 202.78600 202.60300 202.43700 202.42600 202.88800 203.42000 203.95100
 204.89500 205.99200 207.30100 208.95800 210.73800 213.10000 215.56400 218.18000
 220.96600 223.91800 226.96100 230.09200 233.29300 236.55700 239.95500 243.53700
 246.84500 249.39000 251.54200 253.47400 255.19500 256.48400 257.43100 258.05900
 258.21200 258.04000 257.58200 256.64300 255.23900 253.50700 251.40800 249.05600
 246.57600 243.99400 241.38900 238.83000 236.34400 233.98600 231.96900 230.11800
 228.42300 226.89900 225.54800 224.29700 223.10500 221.96500 220.95800 220.11300
 219.49000 218.92000 218.32500 217.88100 217.42300 216.96366 216.35568 216.80261
 217.73415 218.28582 218.64258 219.10077 220.44626 222.53987 226.38451 230.35736
 233.59734 237.39164 241.29814 245.22796 248.98002 252.51130 255.78595 258.80109
 261.54781 264.05210 266.34239 268.04198 269.58951 271.01303 272.35754 273.55718
 274.59842 275.49092 276.28989 276.99307 277.60161 278.14001 278.63122 279.07623
 279.47646 279.83287 280.14422 280.54100
 381.81900 372.39900 361.20600 349.77600 337.62200 324.85300 311.81000 298.35300
 284.86000 271.32400 258.56100 246.30400 236.08700 226.79600 218.44800 211.29000
 205.52200 200.89400 197.38100 194.84800 193.01500 192.31500 192.25000 192.43100
 192.91200 193.53700 194.13600 194.71200 195.26200 195.83100 196.39300 196.97600
 197.60400 198.14900 198.58400 199.05700 199.69500 200.37800 201.05400 201.70800
 202.31300 202.85700 203.35500 203.86200 204.56900 205.29700 206.02600 206.98700
 208.19300 209.44100 210.96900 212.57600 214.46200 216.51300 218.63000 220.85300
 223.34100 225.96200 228.73900 231.69700 234.70600 237.70600 240.69200 243.65700
 246.73700 249.69900 252.52100 255.06300 257.29000 259.23300 260.63300 261.68000
 262.46100 262.79800 262.69100 262.22400 261.06900 259.52500 257.70700 255.50700
 253.00100 250.30200 247.39800 244.45200 241.65400 239.05400 236.73300 234.59000
 232.59500 230.72500 228.83400 226.82600 224.66600 222.38700 220.10400 217.71500
 215.45900 213.06600 210.54600 208.09300 205.35400 202.08130 196.05959 200.71215
 209.01611 216.90438 223.84126 229.78593 235.00632 240.20838 245.98943 250.68668
 254.32982 257.93487 261.55666 264.96801 268.15192 271.06452 273.76717 276.25691
 278.57680 280.74479 282.77456 284.60533 286.27232 287.81705 289.31715 290.65561
 291.81734 292.81312 293.70701 294.49387 295.17482 295.77730 296.32696 296.82492
 297.27278 297.67160 298.02000 298.46400
 366.78100 356.33835 345.77370 334.64306 323.04941 311.24676 299.12011 286.92646
 274.64182 262.54217 250.55452 239.85887 229.98422 221.09158 213.27693 206.28228
 200.11963 195.06098 191.64634 189.69169 188.73204 188.79939 189.63774 190.94909
 192.67745 194.77580 197.04215 199.40450 201.85285 204.33621 206.42756 208.27291
 209.90226 211.05061 211.28297 211.51432 211.45467 211.16302 210.79937 210.43273
 210.05308 209.76643 209.57778 209.44513 209.37649 209.71084 210.10019 210.49254
 211.28889 212.47025 213.72360 215.50995 217.44130 219.48765 221.58601 223.67236
 225.73571 227.82306 229.92341 232.03277 234.16512 236.34047 238.59982 240.97317
 243.59752 245.85188 247.85723 249.62558 251.04593 252.17228 252.99764 253.31699
 253.35734 253.13469 252.49804 251.44940 250.05875 248.22310 246.13545 243.97180
 241.76616 239.57351 237.39686 235.23921 233.10256 230.97292 229.00227 227.16262
 225.44897 223.92432 222.55768 221.33303 220.21838 219.18173 218.28908 217.43344
 216.67879 215.86214 214.96349 214.33084 213.78419 213.18192 211.77045 212.62846
 214.42325 216.27852 217.40579 217.75192 218.71275 222.86368 228.46960 233.27176
 237.04828 240.81885 244.57111 248.23787 251.73219 254.70944 257.28998 259.83984
 262.47772 265.00653 267.38165 269.48260 271.50723 273.46207 275.09549 276.68311
 278.33807 280.00995 281.54282 282.90527 284.08865 285.13892 286.10068 286.97482
 287.76660 288.47696 289.10364 289.93893
 366.78100 356.33831 345.77362 334.64294 323.04925 311.24656 299.11987 286.92618
 274.64150 262.54181 250.55412 239.85843 229.98374 221.09106 213.27637 206.28168
 200.11899 195.06030 191.64562 189.69093 188.73124 188.79855 189.63686 190.94818
 192.67649 194.77480 197.04111 199.40342 201.85174 204.33505 206.42636 208.27167
 209.90098 211.04930 211.28161 211.51292 211.45323 211.16154 210.79785 210.43117
 210.05148 209.76479 209.57610 209.44341 209.37473 209.70904 210.09835 210.49066
 211.28697 212.46829 213.72160 215.50791 217.43922 219.48553 221.58385 223.67016
 225.73347 227.82078 229.92109 232.03041 234.16272 236.33803 238.59734 240.97065
 243.59497 245.84928 247.85459 249.62290 251.04321 252.16953 252.99484 253.31415
 253.35446 253.13177 252.49509 251.44640 250.05571 248.22002 246.13233 243.96865
 241.76296 239.57027 237.39358 235.23589 233.09921 230.96952 228.99883 227.15914
 225.44545 223.92077 222.55408 221.32939 220.21470 219.17801 218.28533 217.42964
 216.67495 215.85826 214.95957 214.32689 213.78020 213.19232 211.81363 212.74370
 214.55553 216.39653 217.46265 217.87373 218.80447 222.88615 228.41570 233.18182
 236.94473 240.71661 244.47423 248.11925 251.53307 254.47177 257.10812 259.74066
 262.32245 264.79868 267.20239 269.34897 271.38815 273.33179 274.96103 276.55835
 278.22253 279.90259 281.43741 282.80023 283.98361 285.03458 285.99643 286.87204
 287.66351 288.37405 289.00110 289.83713
 366.78100 356.33834 345.77368 334.64302 323.04936 311.24670 299.12004 286.92638
 274.64173 262.54207 250.55441 239.85875 229.98409 221.09143 213.27677 206.28211
 200.11945 195.06079 191.64613 189.69147 188.73181 188.79915 189.63749 190.94884
 192.67718 194.77552 197.04186 199.40420 201.85254 204.33588 206.42722 208.27256
 209.90190 211.05024 211.28258 211.51392 211.45426 211.16260 210.79895 210.43229
 210.05263 209.76597 209.57731 209.44465 209.37599 209.71033 210.09967 210.49201
 211.28835 212.46969 213.72303 215.50937 217.44071 219.48705 221.58540 223.67174
 225.73508 227.82242 229.92276 232.03210 234.16444 236.33978 238.59912 240.97246
 243.59680 245.85114 247.85648 249.62482 251.04516 252.17151 252.99685 253.31619
 253.35653 253.13387 252.49721 251.44855 250.05789 248.22223 246.13457 243.97091
 241.76525 239.57259 237.39593 235.23827 233.10162 230.97196 229.00130 227.16164
 225.44798 223.92332 222.55666 221.33200 220.21734 219.18068 218.28802 217.43236
 216.67770 215.86104 214.96238 214.32973 213.78307 213.20985 211.87369 212.84605
 214.67412 216.47583 217.54243 217.97414 218.89781 222.87209 228.35922 233.10042
 236.84235 240.60977 244.37019 247.99742 251.33592 254.23897 256.93079 259.64578
 262.17227 264.58841 267.01712 269.20587 271.26022 273.19629 274.81720 276.42010
 278.10367 279.79300 281.33545 282.69986 283.88498 284.93680 285.89957 286.77579
 287.57010 288.28436 288.92252 289.75708
 366.78100 356.33833 345.77366 334.64299 323.04932 311.24664 299.11997 286.92630
 274.64163 262.54196 250.55429 239.85862 229.98395 221.09127 213.27660 206.28193
 200.11926 195.06059 191.64592 189.69125 188.73158 188.79890 189.63723 190.94856
 192.67689 194.77522 197.04155 199.40388 201.85221 204.33553 206.42686 208.27219
 209.90152 211.04985 211.28218 211.51351 211.45384 211.16216 210.79849 210.43182
 210.05215 209.76548 209.57681 209.44414 209.37547 209.70979 210.09912 210.49145
 211.28778 212.46911 213.72244 215.50877 217.44010 219.48642 221.58475 223.67108
 225.73441 227.82174 229.92207 232.03140 234.16373 236.33905 238.59838 240.97171
 243.59604 245.85037 247.85570 249.62403 251.04436 252.17068 252.99601 253.31534
 253.35567 253.13300 252.49633 251.44766 250.05699 248.22131 246.13364 243.96997
 241.76430 239.57163 237.39496 235.23729 233.10062 230.97094 229.00027 227.16060
 225.44693 223.92226 222.55559 221.33092 220.21625 219.17957 218.28690 217.43123
 216.67656 215.85989 214.96122 214.32855 213.78188 213.22791 211.95055 212.94276
 214.76404 216.52438 217.60970 218.07047 219.04434 222.85582 228.30363 233.02328
 236.73520 240.49966 244.26193 247.87613 251.13954 254.00424 256.75189 259.55200
 262.03427 264.39111 266.84961 269.08893 271.15982 273.07300 274.72083 276.33475
 278.02158 279.69464 281.22522 282.58896 283.77380 284.82617 285.78912 286.66669
 287.46616 288.18158 288.84647 289.69382
 366.78100 356.33792 345.77284 334.64175 323.04767 311.24459 299.11751 286.92342
 274.63834 262.53826 250.55018 239.85409 229.97901 221.08593 213.27085 206.27576
 200.11268 195.05360 191.63852 189.68343 188.72335 188.79027 189.62819 190.93910
 192.66702 194.76494 197.03086 199.39277 201.84069 204.32361 206.41453 208.25944
 209.88836 211.03628 211.26820 211.49911 211.43903 211.14695 210.78287 210.41578
 210.03570 209.74862 209.55954 209.42645 209.35737 209.69129 210.08021 210.47212
 211.26804 212.44896 213.70188 215.48779 217.41871 219.46463 221.56255 223.64846
 225.71138 227.79830 229.89822 232.00713 234.13905 236.31397 238.57289 240.94580
 243.56972 245.82364 247.82856 249.59647 251.01639 252.14231 252.96723 253.28614
 253.32606 253.10298 252.46590 251.41681 250.02573 248.18965 246.10157 243.93749
 241.73140 239.53832 237.36124 235.20316 233.06607 230.93599 228.96491 227.12483
 225.41074 223.88566 222.51858 221.29350 220.17841 219.14133 218.24825 217.39217
 216.63708 215.82000 214.92092 214.28784 213.74075 213.22171 212.01682 213.05980
 214.85313 216.59357 217.70949 218.17520 219.15637 222.85840 228.28328 232.94708
 236.64024 240.39632 244.16191 247.75458 250.94327 253.78218 256.59430 259.47586
 261.90082 264.18948 266.67831 268.95316 271.05298 272.97659 274.61606 276.22705
 277.91711 279.58984 281.12030 282.48352 283.66690 284.71820 285.67828 286.55405
 287.34772 288.06024 288.70596 289.54379
 366.78100 356.33724 345.77149 334.63973 323.04497 311.24122 299.11346 286.91870
 274.63295 262.53219 250.54344 239.84668 229.97092 221.07717 213.26141 206.26565
 200.10190 195.04214 191.62638 189.67063 188.70987 188.77611 189.61336 190.92360
 192.65085 194.74809 197.01333 199.37458 201.82182 204.30406 206.39431 208.23855
 209.86679 211.01404 211.24528 211.47552 211.41477 211.12201 210.75725 210.38950
 210.00874 209.72099 209.53123 209.39747 209.32772 209.66096 210.04920 210.44045
 211.23569 212.41593 213.66818 215.45342 217.38366 219.42891 221.52615 223.61140
 225.67364 227.75988 229.85913 231.96737 234.09861 236.27286 238.53110 240.90334
 243.52659 245.77983 247.78407 249.55132 250.97056 252.09581 252.92005 253.23829
 253.27754 253.05378 252.41602 251.36627 249.97451 248.13775 246.04900 243.88424
 241.67748 239.48373 237.30597 235.14721 233.00946 230.87870 228.90695 227.06619
 225.35143 223.82568 222.45792 221.23216 220.11641 219.07865 218.18489 217.32814
 216.57238 215.75462 214.85487 214.22111 213.67336 213.20114 212.09154 213.19270
 214.93079 216.66086 217.81282 218.30669 219.36267 222.89648 228.27383 232.87381
 236.53938 240.29640 244.06010 247.62093 250.73917 253.55502 256.42627 259.36075
 261.75323 264.00385 266.46033 268.76984 270.89569 272.82700 274.47397 276.10440
 277.81335 279.49908 281.03928 282.40527 283.59042 284.64304 285.60590 286.48230
 287.27609 287.98886 288.61981 289.45993
 366.78100 356.33670 345.77039 334.63809 323.04279 311.23848 299.11018 286.91487
 274.62857 262.52727 250.53796 239.84066 229.96436 221.07005 213.25375 206.25745
 200.09314 195.03284 191.61653 189.66023 188.69893 188.76462 189.60132 190.91102
 192.63771 194.73441 196.99911 199.35980 201.80650 204.28819 206.37789 208.22159
 209.84928 210.99598 211.22668 211.45637 211.39507 211.10177 210.73646 210.36816
 209.98685 209.69855 209.50825 209.37394 209.30364 209.63634 210.02403 210.41473
 211.20943 212.38912 213.64082 215.42551 217.35521 219.39991 221.49660 223.58130
 225.64300 227.72869 229.82739 231.93509 234.06578 236.23948 238.49717 240.86887
 243.49157 245.74426 247.74796 249.51466 250.93335 252.05805 252.88175 253.19944
 253.23814 253.01384 252.37553 251.32523 249.93292 248.09562 246.00632 243.84101
 241.63371 239.43941 237.26110 235.10180 232.96350 230.83219 228.85989 227.01858
 225.30328 223.77698 222.40867 221.18237 220.06607 219.02776 218.13346 217.27616
 216.51985 215.70155 214.80124 214.16694 213.61864 213.18896 212.17583 213.31639
 215.00687 216.72206 217.90518 218.41400 219.51903 222.91051 228.25220 232.80304
 236.44121 240.19490 243.95200 247.47760 250.52779 253.31761 256.23816 259.23126
 261.58975 263.79672 266.24753 268.58237 270.73407 272.67383 274.33493 275.98672
 277.71143 279.40756 280.94763 282.31259 283.49805 284.55292 285.51453 286.39127
 287.18506 287.89795 288.52728 289.36514
 366.78100 356.33619 345.76938 334.63657 323.04076 311.23595 299.10714 286.91133
 274.62452 262.52271 250.53290 239.83509 229.95828 221.06347 213.24666 206.24985
 200.08504 195.02423 191.60742 189.65061 188.68880 188.75399 189.59018 190.89936
 192.62555 194.72174 196.98593 199.34612 201.79231 204.27350 206.36269 208.20588
 209.83307 210.97926 211.20945 211.43864 211.37683 211.08302 210.71721 210.34840
 209.96659 209.67778 209.48697 209.35216 209.28135 209.61354 210.00073 210.39092
 211.18511 212.36430 213.61549 215.39968 217.32887 219.37306 221.46925 223.55344
 225.61463 227.69982 229.79801 231.90520 234.03539 236.20858 238.46577 240.83696
 243.45915 245.71134 247.71453 249.48072 250.89890 252.02309 252.84628 253.16347
 253.20166 252.97685 252.33804 251.28723 249.89442 248.05661 245.96680 243.80099
 241.59318 239.39837 237.21956 235.05975 232.92094 230.78913 228.81632 226.97451
 225.25870 223.73189 222.36308 221.13627 220.01946 218.98065 218.08584 217.22803
 216.47122 215.65241 214.75160 214.11679 213.56798 213.17984 212.26323 213.43271
 215.07658 216.78326 217.99776 218.50917 219.67635 222.91318 228.23042 232.73773
 236.34969 240.10022 243.84798 247.33562 250.31952 253.08409 256.04803 259.09668
 261.43243 263.60565 266.05383 268.41226 270.59103 272.54614 274.22427 275.88977
 277.61227 279.31104 280.85126 282.21753 283.40402 284.46005 285.42368 286.30359
 287.10739 287.82870 288.46100 289.30380
 366.78100 356.33560 345.76819 334.63479 323.03839 311.23298 299.10358 286.90718
 274.61977 262.51737 250.52697 239.82856 229.95116 221.05576 213.23835 206.24095
 200.07555 195.01414 191.59674 189.63934 188.67693 188.74153 189.57713 190.88572
 192.61132 194.70692 196.97051 199.33011 201.77571 204.25630 206.34490 208.18750
 209.81409 210.95969 211.18929 211.41788 211.35548 211.06108 210.69467 210.32527
 209.94287 209.65346 209.46206 209.32666 209.25525 209.58685 209.97345 210.36304
 211.15664 212.33524 213.58583 215.36943 217.29803 219.34162 221.43722 223.52082
 225.58141 227.66601 229.76361 231.87020 233.99980 236.17240 238.42899 240.79959
 243.42119 245.67278 247.67538 249.44098 250.85857 251.98217 252.80477 253.12136
 253.15896 252.93356 252.29415 251.24275 249.84935 248.01094 245.92054 243.75414
 241.54573 239.35033 237.17093 235.01052 232.87112 230.73872 228.76531 226.92291
 225.20651 223.67910 222.30970 221.08230 219.96489 218.92549 218.03009 217.17168
 216.41428 215.59488 214.69347 214.05807 213.50867 213.16676 212.35899 213.55608
 215.13136 216.83324 218.09232 218.60791 219.84291 222.91663 228.20528 232.67638
 236.26736 240.01768 243.75229 247.19852 250.11711 252.85429 255.85167 258.94876
 261.27829 263.42584 265.86343 268.24252 270.44986 272.42438 274.11572 275.78012
 277.50644 279.23193 280.77591 282.14325 283.33099 284.38651 285.35336 286.23709
 287.04047 287.76468 288.39792 289.24039
 366.78100 356.33494 345.76689 334.63283 323.03578 311.22972 299.09967 286.90261
 274.61455 262.51150 250.52044 239.82139 229.94333 221.04727 213.22922 206.23116
 200.06511 195.00305 191.58500 189.62694 188.66388 188.72783 189.56277 190.87072
 192.59566 194.69061 196.95355 199.31249 201.75744 204.23738 206.32533 208.16727
 209.79321 210.93816 211.16710 211.39505 211.33199 211.03694 210.66988 210.29982
 209.91677 209.62671 209.43466 209.29860 209.22654 209.55749 209.94343 210.33238
 211.12532 212.30327 213.55321 215.33615 217.26410 219.30704 221.40199 223.48493
 225.54488 227.62882 229.72576 231.83171 233.96065 236.13260 238.38854 240.75848
 243.37943 245.63037 247.63232 249.39726 250.81421 251.93715 252.75909 253.07504
 253.11198 252.88593 252.24587 251.19382 249.79976 247.96070 245.86965 243.70259
 241.49354 239.29748 237.11742 234.95637 232.81631 230.68326 228.70920 226.86615
 225.14909 223.62103 222.25098 221.02292 219.90487 218.86481 217.96876 217.10970
 216.35164 215.53159 214.62953 213.99348 213.44342 213.15121 212.46089 213.68434
 215.18170 216.87346 218.18771 218.69476 220.03497 222.90471 228.18407 232.62038
 236.18724 239.93858 243.65732 247.05914 249.91638 252.62851 255.65067 258.78247
 261.11295 263.24811 265.67804 268.07785 270.31744 272.31985 274.02866 275.69473
 277.41019 279.14056 280.68622 282.05246 283.24002 284.29532 285.26392 286.14749
 286.95480 287.67911 288.31332 289.15924
 366.78100 356.33432 345.76564 334.63096 323.03328 311.22660 299.09593 286.89825
 274.60957 262.50589 250.51421 239.81453 229.93585 221.03917 213.22049 206.22181
 200.05513 194.99246 191.57378 189.61510 188.65142 188.71474 189.54906 190.85638
 192.58070 194.67502 196.93734 199.29566 201.73998 204.21931 206.30663 208.14795
 209.77327 210.91759 211.14591 211.37323 211.30955 211.01387 210.64619 210.27551
 209.89184 209.60116 209.40848 209.27180 209.19912 209.52944 209.91476 210.30308
 211.09540 212.27272 213.52204 215.30437 217.23169 219.27401 221.36833 223.45065
 225.50997 227.59329 229.68961 231.79493 233.92325 236.09457 238.34989 240.71922
 243.33954 245.58986 247.59118 249.35550 250.77182 251.89414 252.71546 253.03078
 253.06710 252.84042 252.19975 251.14707 249.75239 247.91271 245.82103 243.65335
 241.44367 239.24699 237.06631 234.90463 232.76395 230.63028 228.65560 226.81192
 225.09424 223.56556 222.19488 220.96620 219.84752 218.80684 217.91016 217.05048
 216.29180 215.47113 214.56845 213.93177 213.38109 213.13768 212.56262 213.82048
 215.22856 216.91312 218.27411 218.79225 220.20453 222.92198 228.14835 232.55318
 236.10515 239.86693 243.57063 246.92276 249.71523 252.40192 255.44162 258.59772
 260.94043 263.08081 265.50574 267.92343 270.19543 272.22797 273.95459 275.61810
 277.31876 279.05042 280.59598 281.96252 283.15152 284.20804 285.17627 286.06247
 286.87021 287.59427 288.23099 289.07663
 366.78100 356.33412 345.76524 334.63036 323.03248 311.22560 299.09472 286.89684
 274.60797 262.50409 250.51221 239.81233 229.93345 221.03657 213.21769 206.21881
 200.05193 194.98905 191.57017 189.61129 188.64741 188.71053 189.54466 190.85178
 192.57590 194.67002 196.93214 199.29026 201.73438 204.21350 206.30062 208.14174
 209.76686 210.91098 211.13910 211.36622 211.30234 211.00647 210.63859 210.26771
 209.88383 209.59295 209.40007 209.26319 209.19031 209.52043 209.90555 210.29367
 211.08579 212.26291 213.51203 215.29416 217.22128 219.26340 221.35752 223.43964
 225.49876 227.58188 229.67800 231.78312 233.91124 236.08236 238.33748 240.70660
 243.32672 245.57684 247.57797 249.34209 250.75821 251.88033 252.70145 253.01657
 253.05269 252.82581 252.18493 251.13205 249.73717 247.89729 245.80541 243.63753
 241.42765 239.23078 237.04990 234.88802 232.74714 230.61326 228.63838 226.79450
 225.07662 223.54774 222.17686 220.94798 219.82910 218.78822 217.89134 217.03147
 216.27259 215.45171 214.54883 213.91195 213.36107 213.14561 212.63657 213.98940
 215.28050 216.91248 218.37685 218.87036 220.43764 222.88187 228.12646 232.51280
 236.03362 239.79935 243.47978 246.76984 249.49640 252.16464 255.22295 258.39954
 260.77252 262.93304 265.35254 267.78262 270.08319 272.14685 273.88895 275.54404
 277.23166 278.96384 280.51074 281.87790 283.06711 284.12326 285.09259 285.97916
 286.78775 287.51465 288.15048 288.99948
 366.78100 356.33318 345.76336 334.62753 323.02871 311.22089 299.08907 286.89024
 274.60042 262.49560 250.50278 239.80196 229.92213 221.02431 213.20449 206.20467
 200.03685 194.97302 191.55320 189.59338 188.62856 188.69073 189.52391 190.83009
 192.55327 194.64645 196.90762 199.26480 201.70798 204.18616 206.27234 208.11251
 209.73669 210.87987 211.10705 211.33322 211.26840 210.97158 210.60276 210.23094
 209.84611 209.55429 209.36047 209.22265 209.14883 209.47800 209.86218 210.24936
 211.04054 212.21671 213.46489 215.24607 217.17225 219.21343 221.30660 223.38778
 225.44596 227.52814 229.62332 231.72749 233.85467 236.02485 238.27903 240.64720
 243.26638 245.51556 247.51574 249.27892 250.69409 251.81527 252.63545 252.94963
 252.98480 252.75698 252.11516 251.06134 249.66552 247.82469 245.73187 243.56305
 241.35223 239.15441 236.97258 234.80976 232.66794 230.53312 228.55729 226.71247
 224.99365 223.46383 222.09201 220.86218 219.74236 218.70054 217.80272 216.94190
 216.18207 215.36025 214.45643 213.81861 213.26678 213.11745 212.76460 214.09840
 215.39781 216.91357 218.33762 219.02258 220.61116 223.01483 228.10229 232.43596
 235.93521 239.70387 243.36156 246.59448 249.26799 251.92897 255.00467 258.19940
 260.61609 262.80240 265.21399 267.65244 269.97986 272.07590 273.83347 275.47910
 277.14832 278.88040 280.42798 281.79449 282.98434 284.04141 285.01047 285.89807
 286.70847 287.43729 288.07742 288.92188
 366.78100 356.33203 345.76105 334.62408 323.02410 311.21513 299.08215 286.88218
 274.59120 262.48523 250.49125 239.78928 229.90830 221.00933 213.18835 206.18738
 200.01840 194.95343 191.53245 189.57148 188.60550 188.66653 189.49855 190.80358
 192.52560 194.61763 196.87766 199.23368 201.67571 204.15273 206.23776 208.07678
 209.69981 210.84183 211.06786 211.29288 211.22691 210.92893 210.55896 210.18598
 209.80001 209.50703 209.31206 209.17308 209.09811 209.42613 209.80916 210.19518
 210.98521 212.16023 213.40726 215.18729 217.11231 219.15234 221.24436 223.32439
 225.38141 227.46244 229.55646 231.65949 233.78551 235.95454 238.20756 240.57459
 243.19261 245.44064 247.43966 249.20169 250.61571 251.73574 252.55476 252.86779
 252.90181 252.67284 252.02986 250.97489 249.57792 247.73594 245.64197 243.47199
 241.26002 239.06104 236.87807 234.71409 232.57112 230.43514 228.45817 226.61219
 224.89222 223.36124 221.98827 220.75729 219.63632 218.59334 217.69437 216.83239
 216.07142 215.24844 214.34347 213.70449 213.15152 213.07895 212.90747 214.21765
 215.47510 216.93167 218.34830 219.18761 220.70920 223.19159 228.05887 232.32864
 235.82159 239.59866 243.23706 246.41795 249.04480 251.69902 254.78743 257.99414
 260.46164 262.68021 265.08524 267.53043 269.88458 272.01715 273.79407 275.43610
 277.07419 278.79800 280.34430 281.71173 282.90070 283.95773 284.92792 285.81616
 286.62799 287.35751 287.99591 288.84354
 366.78100 356.33122 345.75944 334.62167 323.02089 311.21111 299.07733 286.87656
 274.58478 262.47800 250.48322 239.78045 229.89867 220.99889 213.17711 206.17533
 200.00556 194.93978 191.51800 189.55622 188.58945 188.64967 189.48089 190.78511
 192.50633 194.59756 196.85678 199.21200 201.65322 204.12945 206.21367 208.05189
 209.67411 210.81534 211.04056 211.26478 211.19800 210.89922 210.52845 210.15467
 209.76789 209.47411 209.27834 209.13856 209.06278 209.39000 209.77222 210.15745
 210.94667 212.12089 213.36711 215.14634 217.07056 219.10978 221.20100 223.28023
 225.33645 227.41667 229.50989 231.61211 233.73734 235.90556 238.15778 240.52400
 243.14123 245.38845 247.38667 249.14789 250.56112 251.68034 252.49856 252.81078
 252.84400 252.61423 251.97045 250.91467 249.51689 247.67412 245.57934 243.40856
 241.19578 238.99600 236.81223 234.64745 232.50367 230.36689 228.38912 226.54234
 224.82156 223.28978 221.91601 220.68423 219.56245 218.51867 217.61889 216.75612
 215.99434 215.17056 214.26478 213.62501 213.07123 213.05792 213.02649 214.37032
 215.52899 216.95416 218.40834 219.34309 220.79956 223.35811 228.00703 232.21303
 235.70914 239.49664 243.11087 246.23318 248.81180 251.46153 254.56351 257.77872
 260.30341 262.56363 264.96606 267.41620 269.79324 271.96094 273.76053 275.40082
 277.00858 278.72739 280.27362 281.64120 282.83060 283.88770 284.85849 285.74823
 286.56259 287.29257 287.92880 288.78018
 366.78100 356.33057 345.75813 334.61970 323.01827 311.20783 299.07340 286.87197
 274.57953 262.47210 250.47666 239.77323 229.89080 220.99036 213.16793 206.16550
 199.99506 194.92863 191.50620 189.54376 188.57633 188.63590 189.46646 190.77003
 192.49059 194.58116 196.83973 199.19429 201.63486 204.11043 206.19399 208.03156
 209.65313 210.79369 211.01826 211.24183 211.17439 210.87496 210.50353 210.12909
 209.74166 209.44722 209.25079 209.11036 209.03392 209.36049 209.74206 210.12662
 210.91519 212.08876 213.33432 215.11289 217.03646 219.07502 221.16559 223.24416
 225.29972 227.37929 229.47185 231.57342 233.69799 235.86555 238.11712 240.48269
 243.09925 245.34582 247.34339 249.10395 250.51652 251.63509 252.45265 252.76422
 252.79678 252.56635 251.92192 250.86548 249.46705 247.62362 245.52818 243.35675
 241.14332 238.94288 236.75845 234.59302 232.44858 230.31115 228.33272 226.48528
 224.76385 223.23141 221.85698 220.62455 219.50211 218.45768 217.55725 216.69381
 215.93138 215.10695 214.20051 213.56008 213.00565 213.04451 213.13635 214.52618
 215.60031 216.97870 218.47006 219.49490 220.92320 223.50098 227.95709 232.10237
 235.60208 239.39357 242.96910 246.02319 248.55908 251.21413 254.33316 257.55380
 260.13971 262.44775 264.85669 267.31104 269.70804 271.90720 273.72998 275.37741
 276.97144 278.65430 280.19772 281.56345 282.75278 283.80792 284.77646 285.66376
 286.47510 287.20001 287.82428 288.65665
 366.78100 356.33005 345.75709 334.61814 323.01618 311.20523 299.07028 286.86832
 274.57537 262.46741 250.47146 239.76751 229.88455 220.98360 213.16064 206.15769
 199.98674 194.91978 191.49683 189.53387 188.56592 188.62497 189.45501 190.75806
 192.47810 194.56815 196.82620 199.18024 201.62029 204.09533 206.17838 208.01543
 209.63647 210.77652 211.00056 211.22361 211.15566 210.85570 210.48375 210.10879
 209.72084 209.42589 209.22893 209.08798 209.01102 209.33707 209.71812 210.10216
 210.89021 212.06325 213.30830 215.08634 217.00939 219.04744 221.13748 223.21553
 225.27057 227.34962 229.44167 231.54271 233.66676 235.83380 238.08485 240.44990
 243.06594 245.31199 247.30903 249.06908 250.48113 251.59917 252.41622 252.72726
 252.75931 252.52836 251.88340 250.82645 249.42749 247.58354 245.48759 243.31563
 241.10168 238.90072 236.71577 234.54982 232.40486 230.26691 228.28795 226.44000
 224.71805 223.18509 221.81014 220.57718 219.45423 218.40928 217.50832 216.64437
 215.88141 215.05646 214.14951 213.50855 212.95360 213.03868 213.23969 214.67416
 215.69292 217.01418 218.54378 219.66116 221.08217 223.62842 227.91304 232.00298
 235.50024 239.27895 242.80074 245.78749 248.29222 250.96213 254.10065 257.32581
 259.96945 262.34082 264.73862 267.19882 269.61426 271.84097 273.68582 275.35245
 276.95544 278.60397 280.14508 281.51370 282.70175 283.75839 284.72833 285.61694
 286.42841 287.15695 287.77780 288.61203
 366.78100 356.32998 345.75696 334.61794 323.01592 311.20490 299.06988 286.86786
 274.57485 262.46683 250.47081 239.76679 229.88377 220.98275 213.15973 206.15671
 199.98569 194.91867 191.49565 189.53263 188.56461 188.62359 189.45357 190.75656
 192.47654 194.56652 196.82450 199.17848 201.61846 204.09344 206.17642 208.01340
 209.63438 210.77436 210.99834 211.22132 211.15330 210.85328 210.48127 210.10625
 209.71823 209.42321 209.22619 209.08517 209.00815 209.33413 209.71511 210.09909
 210.88707 212.06005 213.30503 215.08301 217.00599 219.04398 221.13396 223.21194
 225.26692 227.34590 229.43788 231.53886 233.66284 235.82982 238.08080 240.44578
 243.06176 245.30774 247.30472 249.06471 250.47669 251.59467 252.41165 252.72263
 252.75461 252.52359 251.87857 250.82155 249.42253 247.57851 245.48249 243.31047
 241.09645 238.89543 236.71042 234.54440 232.39938 230.26136 228.28234 226.43432
 224.71230 223.17928 221.80426 220.57124 219.44822 218.40320 217.50218 216.63816
 215.87514 215.05013 214.14311 213.50209 212.94707 213.05908 213.32375 214.80637
 215.79646 217.05826 218.63387 219.84145 221.26056 223.74860 227.87541 231.91989
 235.40010 239.14925 242.60722 245.53053 248.01611 250.70825 253.86882 257.09979
 259.80499 262.23294 264.63858 267.10596 269.53714 271.78738 273.65802 275.34464
 276.96652 278.53909 280.07449 281.44162 282.62952 283.68381 284.65314 285.53989
 286.35379 287.08200 287.70117 288.53339
 366.78100 356.33070 345.75841 334.62011 323.01882 311.20852 299.07423 286.87293
 274.58064 262.47334 250.47805 239.77475 229.89245 220.99216 213.16986 206.16757
 199.99727 194.93098 191.50868 189.54639 188.57909 188.63880 189.46950 190.77320
 192.49391 194.58461 196.84332 199.19802 201.63873 204.11443 206.19814 208.03584
 209.65755 210.79825 211.02295 211.24666 211.17936 210.88007 210.50877 210.13448
 209.74718 209.45289 209.25659 209.11630 209.04000 209.36670 209.74841 210.13311
 210.92182 212.09552 213.34123 215.11993 217.04364 219.08234 221.17305 223.25175
 225.30745 227.38716 229.47986 231.58157 233.70627 235.87398 238.12568 240.49139
 243.10809 245.35480 247.35250 249.11320 250.52591 251.64461 252.46232 252.77402
 252.80673 252.57643 251.93214 250.87584 249.47755 247.63425 245.53895 243.36766
 241.15436 238.95407 236.76977 234.60448 232.46018 230.32289 228.34459 226.49730
 224.77600 223.24370 221.86941 220.63711 219.51482 218.47052 217.57023 216.70693
 215.94464 215.12034 214.21405 213.57375 213.01945 213.12534 213.37616 214.90878
 215.91536 217.10866 218.72032 219.98950 221.40419 223.82262 227.81509 231.83069
 235.28264 238.99684 242.38849 245.25383 247.72157 250.44194 253.64090 256.90576
 259.68799 262.14215 264.58139 267.04987 269.47824 271.73813 273.61987 275.31146
 276.94626 278.49271 280.01175 281.37830 282.56372 283.61646 284.58096 285.46320
 286.26352 286.97916 287.60309 288.39642
 366.78100 356.33095 345.75890 334.62086 323.01981 311.20976 299.07571 286.87467
 274.58262 262.47557 250.48052 239.77748 229.89543 220.99538 213.17333 206.17129
 200.00124 194.93519 191.51314 189.55109 188.58405 188.64400 189.47495 190.77890
 192.49986 194.59081 196.84976 199.20471 201.64567 204.12162 206.20557 208.04352
 209.66548 210.80643 211.03138 211.25533 211.18828 210.88924 210.51819 210.14414
 209.75709 209.46305 209.26700 209.12695 209.05090 209.37786 209.75981 210.14476
 210.93371 212.10767 213.35362 215.13257 217.05652 219.09547 221.18643 223.26538
 225.32133 227.40128 229.49424 231.59619 233.72114 235.88909 238.14105 240.50700
 243.12395 245.37090 247.36886 249.12981 250.54276 251.66171 252.47966 252.79162
 252.82457 252.59452 251.95047 250.89443 249.49638 247.65333 245.55828 243.38724
 241.17419 238.97414 236.79009 234.62505 232.48100 230.34395 228.36590 226.51885
 224.79781 223.26576 221.89171 220.65966 219.53762 218.49357 217.59352 216.73047
 215.96843 215.14438 214.23833 213.59828 213.04424 213.17216 213.48737 214.96118
 216.01495 217.16716 218.80972 220.12820 221.54704 223.88863 227.75473 231.74379
 235.16025 238.83302 242.14981 244.95854 247.41426 250.17438 253.42102 256.73090
 259.59650 262.13196 264.59875 267.05493 269.46036 271.69971 273.60638 275.28909
 276.88641 278.46530 280.00024 281.36694 282.55206 283.60333 284.56668 285.45328
 286.26169 286.99942 287.65817 288.49765
 366.78100 356.32998 345.75696 334.61794 323.01592 311.20490 299.06988 286.86786
 274.57484 262.46682 250.47080 239.76678 229.88376 220.98274 213.15973 206.15671
 199.98569 194.91867 191.49565 189.53263 188.56461 188.62359 189.45357 190.75655
 192.47653 194.56651 196.82449 199.17847 201.61845 204.09343 206.17641 208.01339
 209.63437 210.77435 210.99833 211.22131 211.15329 210.85327 210.48125 210.10623
 209.71821 209.42320 209.22618 209.08516 209.00814 209.33412 209.71510 210.09908
 210.88706 212.06004 213.30502 215.08300 217.00598 219.04396 221.13394 223.21192
 225.26690 227.34588 229.43786 231.53884 233.66282 235.82980 238.08078 240.44576
 243.06174 245.30772 247.30470 249.06468 250.47666 251.59465 252.41163 252.72261
 252.75459 252.52357 251.87855 250.82153 249.42251 247.57849 245.48247 243.31045
 241.09643 238.89541 236.71039 234.54437 232.39935 230.26133 228.28231 226.43429
 224.71227 223.17925 221.80423 220.57121 219.44819 218.40317 217.50215 216.63813
 215.87512 215.05010 214.14308 213.50206 212.94704 213.15904 213.68208 214.98506
 216.06187 217.20442 218.88304 220.29967 221.75204 223.98610 227.70813 231.68703
 235.05400 238.68411 241.91112 244.65646 247.12468 249.94186 253.22701 256.53815
 259.46884 262.09677 264.59698 267.05838 269.45477 271.67831 273.61108 275.32053
 276.91730 278.45178 279.97354 281.34055 282.52640 283.57831 284.54865 285.43872
 286.27707 287.06287 287.74930 288.62411
 366.78100 356.32910 345.75521 334.61531 323.01241 311.20052 299.06462 286.86172
 274.56783 262.45893 250.46203 239.75714 229.87324 220.97134 213.14745 206.14355
 199.97166 194.90376 191.47986 189.51597 188.54707 188.60517 189.43428 190.73638
 192.45548 194.54459 196.80169 199.15479 201.59390 204.06800 206.15010 207.98621
 209.60631 210.74541 210.96852 211.19062 211.12172 210.82083 210.44793 210.07203
 209.68314 209.38724 209.18934 209.04745 208.96955 209.29466 209.67476 210.05786
 210.84497 212.01707 213.26117 215.03828 216.96038 218.99748 221.08659 223.16369
 225.21779 227.29590 229.38700 231.48710 233.61021 235.77631 238.02641 240.39052
 243.00562 245.25072 247.24683 249.00593 250.41703 251.53414 252.35024 252.66034
 252.69145 252.45955 251.81365 250.75576 249.35586 247.51097 245.41407 243.24117
 241.02628 238.82438 236.63848 234.47159 232.32569 230.18679 228.20690 226.35800
 224.63510 223.10121 221.72531 220.49141 219.36752 218.32162 217.41972 216.55483
 215.79093 214.96503 214.05714 213.41524 212.85934 213.14787 213.86450 215.11021
 216.00909 217.08437 218.88382 220.46869 222.04057 224.20801 227.76955 231.69646
 234.96997 238.49397 241.62953 244.32497 246.85797 249.73990 253.04495 256.35645
 259.33841 262.03275 264.59143 267.06744 269.45453 271.66830 273.61453 275.33792
 276.95209 278.52341 280.05844 281.43231 282.62866 283.70255 284.70676 285.66940
 286.55588 287.34534 288.03494 288.91382
 366.78100 356.32926 345.75552 334.61578 323.01304 311.20131 299.06557 286.86283
 274.56909 262.46035 250.46361 239.75887 229.87513 220.97339 213.14965 206.14592
 199.97418 194.90644 191.48270 189.51896 188.55022 188.60848 189.43774 190.74000
 192.45927 194.54853 196.80579 199.15905 201.59831 204.07257 206.15483 207.99109
 209.61135 210.75062 210.97388 211.19614 211.12740 210.82666 210.45392 210.07818
 209.68944 209.39370 209.19596 209.05423 208.97649 209.30175 209.68201 210.06527
 210.85253 212.02479 213.26905 215.04631 216.96858 219.00584 221.09510 223.17236
 225.22662 227.30488 229.39614 231.49640 233.61966 235.78593 238.03619 240.40045
 243.01571 245.26097 247.25723 249.01649 250.42775 251.54501 252.36127 252.67154
 252.70280 252.47106 251.82532 250.76758 249.36784 247.52310 245.42636 243.25362
 241.03889 238.83715 236.65141 234.48467 232.33893 230.20019 228.22045 226.37171
 224.64897 223.11524 221.73950 220.50576 219.38202 218.33628 217.43454 216.56980
 215.80606 214.98032 214.07258 213.43085 212.87511 213.18471 213.98041 215.28044
 215.98201 217.01640 218.92232 220.64481 222.29739 224.42566 227.87212 231.71252
 234.89984 238.28970 241.32001 243.97552 246.57812 249.54146 252.88388 256.22705
 259.25320 262.03223 264.64127 267.12051 269.49417 271.69421 273.65085 275.38107
 276.98459 278.61240 280.17044 281.55151 282.76770 283.90100 285.00317 286.00168
 286.89972 287.69943 288.39804 289.28833
 366.78100 356.33048 345.75795 334.61943 323.01791 311.20738 299.07286 286.87134
 274.57881 262.47129 250.47577 239.77224 229.88972 220.98920 213.16667 206.16415
 199.99363 194.92710 191.50458 189.54206 188.57453 188.63401 189.46449 190.76796
 192.48844 194.57892 196.83740 199.19187 201.63235 204.10783 206.19130 208.02878
 209.65026 210.79073 211.01521 211.23869 211.17116 210.87164 210.50012 210.12559
 209.73807 209.44355 209.24702 209.10650 209.02998 209.35645 209.73793 210.12241
 210.91088 212.08436 213.32984 215.10831 217.03179 219.07027 221.16074 223.23922
 225.29470 227.37417 229.46665 231.56813 233.69260 235.86008 238.11156 240.47703
 243.09351 245.33999 247.33746 249.09794 250.51042 251.62889 252.44637 252.75785
 252.79032 252.55980 251.91528 250.85876 249.46023 247.61671 245.52119 243.34966
 241.13614 238.93562 236.75109 234.58557 232.44105 230.30352 228.32500 226.47748
 224.75595 223.22343 221.84891 220.61638 219.49386 218.44934 217.54881 216.68529
 215.92277 215.09824 214.19172 213.55120 212.99667 213.27652 214.03790 215.37907
 216.14226 217.19843 219.07774 220.84906 222.50261 224.56502 227.95903 231.69421
 234.81299 238.05798 240.96619 243.58371 246.24393 249.30341 252.71815 256.12897
 259.24313 262.09436 264.74890 267.24042 269.58453 271.76044 273.68448 275.38980
 276.99554 278.72391 280.30103 281.72202 283.06226 284.29669 285.42291 286.44321
 287.36084 288.17801 288.89185 289.80157
 366.78100 356.33180 345.76060 334.62340 323.02320 311.21400 299.08080 286.88060
 274.58940 262.48320 250.48900 239.78679 229.90559 221.00639 213.18519 206.18399
 200.01479 194.94959 191.52839 189.56719 188.60099 188.66179 189.49359 190.79839
 192.52019 194.61199 196.87179 199.22759 201.66939 204.14619 206.23099 208.06979
 209.69258 210.83438 211.06018 211.28498 211.21878 210.92058 210.55038 210.17718
 209.79098 209.49778 209.30258 209.16338 209.08818 209.41598 209.79878 210.18458
 210.97438 212.14918 213.39598 215.17578 217.10058 219.14037 221.23217 223.31197
 225.36877 227.44957 229.54337 231.64617 233.77197 235.94077 238.19357 240.56037
 243.17817 245.42597 247.42477 249.18657 250.60037 251.72017 252.53897 252.85177
 252.88557 252.65636 252.01316 250.95796 249.56076 247.71856 245.62436 243.45416
 241.24196 239.04276 236.85956 234.69536 232.55216 230.41596 228.43876 226.59256
 224.87236 223.34116 221.96796 220.73676 219.61556 218.57236 217.67315 216.81095
 216.04975 215.22655 214.32135 213.68215 213.12895 213.37216 214.07124 215.46278
 216.30241 217.39609 219.25938 221.02475 222.63297 224.65646 228.00922 231.65338
 234.69995 237.79546 240.55986 243.11812 245.83928 249.01358 252.52646 255.98944
 259.18100 262.12122 264.82684 267.34409 269.67569 271.81570 273.71506 275.40048
 277.03271 278.83508 280.42059 281.86423 283.27380 284.52090 285.65872 286.68948
 287.61658 288.44211 289.16330 290.08240
 366.78100 356.33184 345.76067 334.62351 323.02335 311.21418 299.08102 286.88085
 274.58969 262.48353 250.48936 239.78720 229.90604 221.00687 213.18571 206.18454
 200.01538 194.95022 191.52905 189.56789 188.60173 188.66256 189.49440 190.79923
 192.52107 194.61291 196.87274 199.22858 201.67042 204.14725 206.23209 208.07093
 209.69376 210.83560 211.06143 211.28627 211.22011 210.92194 210.55178 210.17862
 209.79245 209.49929 209.30412 209.16496 209.08980 209.41763 209.80047 210.18631
 210.97614 212.15098 213.39781 215.17765 217.10249 219.14232 221.23416 223.31400
 225.37083 227.45167 229.54551 231.64834 233.77418 235.94301 238.19585 240.56269
 243.18052 245.42836 247.42720 249.18903 250.60287 251.72270 252.54154 252.85438
 252.88821 252.65905 252.01589 250.96072 249.56356 247.72139 245.62723 243.45707
 241.24490 239.04574 236.86258 234.69841 232.55525 230.41908 228.44192 226.59576
 224.87559 223.34443 221.97127 220.74010 219.61894 218.57578 217.67661 216.81445
 216.05328 215.23012 214.32496 213.68579 213.13263 213.39558 214.12090 215.57254
 216.43864 217.50804 219.27917 221.03969 222.74863 224.82037 228.08205 231.67633
 234.62315 237.57292 240.18173 242.68173 245.47279 248.74782 252.33200 255.82721
 259.08072 262.04565 264.78989 267.35327 269.71335 271.85416 273.76813 275.49316
 277.13116 278.92633 280.49759 281.90512 283.18951 284.41202 285.52734 286.53775
 287.44650 288.25574 288.96268 289.86362
 366.78100 356.32949 345.75598 334.61648 323.01397 311.20246 299.06695 286.86445
 274.57094 262.46243 250.46592 239.76141 229.87791 220.97640 213.15289 206.14938
 199.97788 194.91037 191.48686 189.52335 188.55484 188.61334 189.44283 190.74532
 192.46481 194.55431 196.81180 199.16529 201.60478 204.07927 206.16177 207.99826
 209.61875 210.75824 210.98174 211.20423 211.13572 210.83521 210.46271 210.08720
 209.69869 209.40318 209.20567 209.06417 208.98666 209.31215 209.69264 210.07614
 210.86363 212.03612 213.28061 215.05810 216.98060 219.01809 221.10758 223.18507
 225.23957 227.31806 229.40955 231.51004 233.63353 235.80003 238.05052 240.41501
 243.03050 245.27600 247.27249 249.03198 250.44347 251.56096 252.37746 252.68795
 252.71944 252.48793 251.84243 250.78492 249.38541 247.54090 245.44439 243.27189
 241.05738 238.85587 236.67036 234.50386 232.35835 230.21984 228.24033 226.39182
 224.66932 223.13581 221.76030 220.52679 219.40329 218.35778 217.45627 216.59176
 215.82825 215.00275 214.09524 213.45373 212.89822 213.29526 214.29778 215.70847
 216.47417 217.61191 219.31776 221.01920 222.82822 224.93716 228.12737 231.68301
 234.55370 237.35997 239.81740 242.26534 245.11456 248.48184 252.13846 255.67496
 258.93552 261.93137 264.70441 267.29611 269.66382 271.79077 273.72437 275.51416
 277.23364 278.95789 280.52606 281.92014 283.15140 284.30838 285.40454 286.39761
 287.29074 288.08609 288.78091 289.66635
 366.78100 356.32937 345.75574 334.61611 323.01348 311.20185 299.06622 286.86359
 274.56996 262.46132 250.46469 239.76006 229.87643 220.97480 213.15117 206.14754
 199.97591 194.90828 191.48465 189.52102 188.55239 188.61076 189.44013 190.74250
 192.46187 194.55124 196.80860 199.16197 201.60134 204.07571 206.15808 207.99445
 209.61482 210.75419 210.97756 211.19993 211.13130 210.83067 210.45804 210.08241
 209.69378 209.39815 209.20052 209.05888 208.98125 209.30662 209.68699 210.07036
 210.85773 212.03010 213.27447 215.05184 216.97421 219.01158 221.10095 223.17832
 225.23269 227.31106 229.40243 231.50279 233.62616 235.79253 238.04290 240.40727
 243.02264 245.26801 247.26438 249.02375 250.43512 251.55249 252.36886 252.67923
 252.71060 252.47897 251.83334 250.77571 249.37607 247.53144 245.43481 243.26218
 241.04755 238.84592 236.66029 234.49366 232.34803 230.20940 228.22977 226.38114
 224.65851 223.12488 221.74925 220.51562 219.39199 218.34635 217.44472 216.58009
 215.81646 214.99083 214.08320 213.44157 212.88594 213.30992 214.39377 215.83522
 216.69586 217.82735 219.49294 221.18176 222.96225 225.02116 228.15958 231.68213
 234.44295 237.07278 239.38783 241.80048 244.71806 248.19849 251.94669 255.54460
 258.85205 261.86069 264.68356 267.29373 269.62909 271.70004 273.59930 275.37808
 277.29080 279.09485 280.67627 282.09171 283.40506 284.61273 285.71451 286.71268
 287.61038 288.40982 289.10818 289.99820
 366.78100 356.32958 345.75615 334.61673 323.01431 311.20288 299.06746 286.86503
 274.57161 262.46319 250.46676 239.76234 229.87892 220.97749 213.15407 206.15064
 199.97922 194.91180 191.48837 189.52495 188.55653 188.61510 189.44468 190.74726
 192.46683 194.55641 196.81398 199.16756 201.60714 204.08171 206.16429 208.00087
 209.62144 210.76102 210.98459 211.20717 211.13875 210.83832 210.46590 210.09048
 209.70205 209.40663 209.20921 209.06778 208.99036 209.31593 209.69651 210.08009
 210.86766 212.04024 213.28482 215.06239 216.98497 219.02254 221.11212 223.18970
 225.24427 227.32285 229.41443 231.51500 233.63858 235.80516 238.05573 240.42031
 243.03588 245.28146 247.27804 249.03761 250.44919 251.56677 252.38334 252.69392
 252.72549 252.49407 251.84865 250.79122 249.39180 247.54738 245.45095 243.27853
 241.06411 238.86268 236.67726 234.51083 232.36541 230.22699 228.24756 226.39914
 224.67672 223.14329 221.76787 220.53444 219.41102 218.36560 217.46417 216.59975
 215.83633 215.01090 214.10348 213.46206 212.90663 213.34529 214.48166 215.91942
 216.86429 218.10486 219.77113 221.41185 223.11415 225.10538 228.25467 231.68062
 234.35077 236.80725 238.97203 241.30304 244.26393 247.87257 251.73625 255.36720
 258.67401 261.80051 264.66870 267.30203 269.61758 271.64511 273.51910 275.36151
 277.41013 279.23227 280.84805 282.38898 283.77969 285.01013 286.13272 287.14972
 288.06439 288.87891 289.59045 290.49722
 366.78100 356.33023 345.75745 334.61868 323.01691 311.20613 299.07136 286.86959
 274.57682 262.46904 250.47327 239.76950 229.88672 220.98595 213.16318 206.16040
 199.98963 194.92286 191.50009 189.53731 188.56954 188.62877 189.45899 190.76222
 192.48245 194.57267 196.83090 199.18513 201.62535 204.10058 206.18381 208.02104
 209.64226 210.78249 211.00672 211.22994 211.16217 210.86240 210.49062 210.11585
 209.72808 209.43330 209.23653 209.09576 209.01899 209.34521 209.72644 210.11067
 210.89889 212.07212 213.31735 215.09557 217.01880 219.05703 221.14726 223.22548
 225.28071 227.35994 229.45216 231.55339 233.67762 235.84484 238.09607 240.46130
 243.07752 245.32375 247.32098 249.08121 250.49343 251.61166 252.42889 252.74011
 252.77234 252.54157 251.89679 250.84002 249.44125 247.59748 245.50170 243.32993
 241.11616 238.91538 236.73061 234.56484 232.42006 230.28229 228.30352 226.45574
 224.73397 223.20120 221.82643 220.59365 219.47088 218.42611 217.52533 216.66156
 215.89879 215.07401 214.16724 213.52647 212.97169 213.39313 214.55573 216.09979
 216.92993 218.27621 219.97340 221.61440 223.28291 225.18631 228.38475 231.64301
 234.29475 236.58716 238.56035 240.80917 243.89035 247.61533 251.54842 255.18047
 258.51425 261.67511 264.60349 267.26926 269.59152 271.60541 273.46982 275.46811
 277.58002 279.45389 281.25214 282.89307 284.31317 285.56958 286.71588 287.75436
 288.68835 289.52005 290.24664 291.17258
 366.78100 356.33079 345.75857 334.62036 323.01915 311.20893 299.07472 286.87350
 274.58129 262.47408 250.47886 239.77565 229.89344 220.99322 213.17101 206.16880
 199.99858 194.93237 191.51015 189.54794 188.58073 188.64051 189.47130 190.77509
 192.49587 194.58666 196.84544 199.20023 201.64102 204.11680 206.20059 208.03838
 209.66016 210.80095 211.02574 211.24952 211.18231 210.88309 210.51188 210.13767
 209.75045 209.45624 209.26003 209.11981 209.04360 209.37039 209.75217 210.13696
 210.92574 212.09953 213.34532 215.12410 217.04789 219.08668 221.17746 223.25625
 225.31203 227.39182 229.48461 231.58639 233.71118 235.87897 238.13075 240.49654
 243.11333 245.36011 247.35790 249.11868 250.53147 251.65026 252.46804 252.77983
 252.81262 252.58240 251.93819 250.88198 249.48376 247.64055 245.54533 243.37412
 241.16091 238.96069 236.77648 234.61127 232.46705 230.32984 228.35162 226.50441
 224.78320 223.25098 221.87677 220.64456 219.52234 218.47813 217.57792 216.71470
 215.95249 215.12827 214.22206 213.58185 213.02763 213.43491 214.62173 216.23524
 217.02306 218.37119 220.04379 221.70805 223.31096 225.26770 228.44987 231.60092
 234.20398 236.39919 238.28217 240.52448 243.64093 247.44737 251.42480 255.11243
 258.45004 261.60684 264.56497 267.26135 269.57446 271.56262 273.31192 275.65997
 277.80582 279.79553 281.65274 283.28351 284.69476 285.94339 287.08258 288.11459
 289.04276 289.86932 290.59137 291.51157
 366.78100 356.32981 345.75662 334.61743 323.01524 311.20405 299.06887 286.86668
 274.57349 262.46530 250.46911 239.76492 229.88173 220.98054 213.15735 206.15416
 199.98298 194.91579 191.49260 189.52941 188.56122 188.62003 189.44984 190.75265
 192.47246 194.56227 196.82009 199.17390 201.61371 204.08852 206.17133 208.00814
 209.62895 210.76876 210.99257 211.21538 211.14720 210.84701 210.47482 210.09963
 209.71144 209.41625 209.21906 209.07787 209.00068 209.32649 209.70731 210.09112
 210.87893 212.05174 213.29655 215.07436 216.99717 219.03498 221.12479 223.20260
 225.25742 227.33623 229.42804 231.52885 233.65266 235.81947 238.07028 240.43509
 243.05090 245.29671 247.29353 249.05334 250.46515 251.58296 252.39977 252.71058
 252.74239 252.51120 251.86601 250.80882 249.40964 247.56545 245.46926 243.29707
 241.08288 238.88169 236.69650 234.53031 232.38512 230.24693 228.26775 226.41956
 224.69737 223.16418 221.78899 220.55580 219.43261 218.38742 217.48623 216.62204
 215.85886 215.03367 214.12648 213.48529 212.93010 213.39116 214.64139 216.43712
 217.02811 218.25381 220.06195 221.69589 223.31747 225.44872 228.52490 231.67087
 234.11188 236.18480 237.97910 240.18175 243.36203 247.27628 251.32982 255.07469
 258.46002 261.60931 264.57150 267.23648 269.51428 271.54166 273.50195 275.63477
 277.72272 279.55222 281.17575 282.69363 284.06598 285.28015 286.38791 287.39145
 288.29404 289.09781 289.79993 290.69473
 366.78100 356.32692 345.75084 334.60876 323.00368 311.18960 299.05152 286.84644
 274.55035 262.43927 250.44019 239.73311 229.84703 220.94295 213.11687 206.11079
 199.93671 194.86663 191.44055 189.47447 188.50339 188.55931 189.38622 190.68614
 192.40306 194.48998 196.74490 199.09582 201.53274 204.00466 206.08458 207.91850
 209.53642 210.67334 210.89426 211.11418 211.04309 210.74001 210.36493 209.98685
 209.59577 209.29769 209.09761 208.95353 208.87345 209.19637 209.57429 209.95521
 210.74013 211.91005 213.15197 214.92688 216.84680 218.88172 220.96864 223.04356
 225.09548 227.17140 229.26032 231.35824 233.47916 235.64308 237.89100 240.25292
 242.86584 245.10875 247.10267 248.85959 250.26851 251.38343 252.19735 252.50527
 252.53419 252.30011 251.65203 250.59195 249.18987 247.34279 245.24371 243.06862
 240.85154 238.64746 236.45938 234.29030 232.14222 230.00114 228.01906 226.16798
 224.44290 222.90682 221.52874 220.29266 219.16658 218.11850 217.21441 216.34733
 215.58125 214.75317 213.84309 213.19901 212.64093 213.25011 214.71973 216.62971
 217.18921 218.04266 220.08237 221.74429 223.27483 225.32321 228.66830 231.39777
 233.98175 235.91270 237.59155 239.78505 243.05045 247.08466 251.19789 255.01031
 258.45667 261.63187 264.59064 267.23914 269.53903 271.60437 273.59610 275.55042
 277.50018 279.29791 280.85776 282.23395 283.43756 284.49503 285.44461 286.31656
 287.14807 287.88852 288.53537 289.35968
 366.78100 356.32462 345.74625 334.60187 322.99450 311.17812 299.03775 286.83037
 274.53200 262.41862 250.41725 239.70787 229.81949 220.91312 213.08474 206.07637
 199.89999 194.82762 191.39924 189.43087 188.45749 188.51112 189.33574 190.63336
 192.34799 194.43261 196.68524 199.03386 201.46849 203.93811 206.01574 207.84736
 209.46299 210.59761 210.81623 211.03386 210.96048 210.65511 210.27773 209.89736
 209.50398 209.20361 209.00123 208.85485 208.77248 209.09310 209.46873 209.84735
 210.62998 211.79760 213.03723 214.80985 216.72748 218.76010 220.84472 222.91735
 224.96697 227.04060 229.12722 231.22285 233.34147 235.50310 237.74872 240.10835
 242.71897 244.95959 246.95122 248.70584 250.11247 251.22509 252.03672 252.34234
 252.36897 252.13259 251.48222 250.41984 249.01546 247.16609 245.06471 242.88734
 240.66796 238.46159 236.27121 234.09984 231.94946 229.80609 227.82171 225.96833
 224.24096 222.70258 221.32221 220.08383 218.95546 217.90508 216.99871 216.12933
 215.36096 214.53058 213.61820 212.97183 212.41145 213.14046 214.86279 216.72047
 217.47995 218.32750 220.21126 221.98132 223.50145 225.47289 228.64632 231.39037
 233.64357 235.52141 237.17744 239.42908 242.81123 246.95050 251.12964 254.99071
 258.45828 261.64594 264.63223 267.31506 269.63086 271.65930 273.61197 275.54099
 277.40771 279.11423 280.62637 281.97223 283.16266 284.21484 285.12997 285.78940
 286.49893 287.18973 287.81592 288.67188
 366.78100 356.32389 345.74479 334.59968 322.99157 311.17446 299.03336 286.82525
 274.52614 262.41204 250.40993 239.69982 229.81071 220.90361 213.07450 206.06539
 199.88829 194.81518 191.38607 189.41696 188.44286 188.49575 189.31964 190.61654
 192.33043 194.41432 196.66621 199.01411 201.44800 203.91689 205.99379 207.82468
 209.43957 210.57346 210.79136 211.00825 210.93414 210.62804 210.24993 209.86882
 209.47471 209.17361 208.97050 208.82339 208.74029 209.06018 209.43507 209.81297
 210.59486 211.76175 213.00064 214.77254 216.68943 218.72132 220.80522 222.87711
 224.92600 226.99889 229.08479 231.17968 233.29757 235.45847 237.70336 240.06225
 242.67214 244.91204 246.90293 248.65682 250.06272 251.17461 251.98550 252.29039
 252.31629 252.07918 251.42807 250.36497 248.95986 247.10975 245.00764 242.82954
 240.60943 238.40232 236.21122 234.03911 231.88800 229.74389 227.75879 225.90468
 224.17657 222.63747 221.25636 220.01725 218.88814 217.83704 216.92993 216.05982
 215.29072 214.45961 213.54650 212.89939 212.33829 213.11462 214.94878 216.81544
 217.61078 218.47771 220.30278 222.15860 223.67886 225.58945 228.61841 231.34087
 233.46236 235.16249 236.75911 239.09286 242.62566 246.84708 251.04094 254.93596
 258.43274 261.64294 264.63312 267.33221 269.66068 271.68973 273.61478 275.49725
 277.34103 279.03284 280.53284 281.84439 282.97824 284.02652 284.99557 285.63284
 286.34927 287.04089 287.66772 288.52679
 366.78100 356.32402 345.74504 334.60007 322.99209 311.17511 299.03413 286.82615
 274.52718 262.41320 250.41122 239.70124 229.81226 220.90529 213.07631 206.06733
 199.89035 194.81737 191.38840 189.41942 188.44544 188.49846 189.32248 190.61951
 192.33353 194.41755 196.66957 199.01759 201.45161 203.92064 205.99766 207.82868
 209.44370 210.57772 210.79575 211.01277 210.93879 210.63281 210.25483 209.87386
 209.47988 209.17890 208.97592 208.82894 208.74597 209.06599 209.44101 209.81903
 210.60105 211.76808 213.00710 214.77912 216.69614 218.72816 220.81219 222.88421
 224.93323 227.00625 229.09227 231.18730 233.30532 235.46634 237.71136 240.07038
 242.68041 244.92043 246.91145 248.66547 250.07149 251.18352 251.99454 252.29956
 252.32558 252.08860 251.43763 250.37465 248.96967 247.11969 245.01771 242.83974
 240.61976 238.41278 236.22180 234.04982 231.89884 229.75487 227.76989 225.91591
 224.18793 222.64895 221.26798 220.02900 218.90002 217.84904 216.94206 216.07209
 215.30311 214.47213 213.55915 212.91217 212.35120 213.13239 214.97804 216.93497
 217.77626 218.60649 220.42436 222.28850 223.79544 225.66667 228.61403 231.25670
 233.25005 234.79764 236.35826 238.79431 242.45900 246.73389 250.95461 254.89290
 258.42639 261.65695 264.64874 267.34766 269.67468 271.69119 273.56970 275.40125
 277.23862 278.94370 280.45294 281.77237 282.92905 283.97665 284.94553 285.58191
 286.33353 287.02951 287.65915 288.51694
 366.78100 356.32448 345.74596 334.60144 322.99392 311.17741 299.03689 286.82937
 274.53085 262.41733 250.41581 239.70629 229.81777 220.91125 213.08274 206.07422
 199.89770 194.82518 191.39666 189.42814 188.45462 188.50810 189.33258 190.63007
 192.34455 194.42903 196.68151 199.02999 201.46447 203.93395 206.01143 207.84291
 209.45840 210.59288 210.81136 211.02884 210.95532 210.64980 210.27228 209.89176
 209.49824 209.19773 208.99521 208.84869 208.76617 209.08665 209.46213 209.84061
 210.62309 211.79057 213.03005 214.80254 216.72002 218.75250 220.83698 222.90946
 224.95894 227.03242 229.11890 231.21438 233.33287 235.49435 237.73983 240.09931
 242.70979 244.95027 246.94175 248.69623 250.10271 251.21520 252.02668 252.33216
 252.35864 252.12212 251.47160 250.40908 249.00456 247.15504 245.05353 242.87601
 240.65649 238.44997 236.25945 234.08793 231.93741 229.79389 227.80937 225.95586
 224.22834 222.68982 221.30930 220.07078 218.94226 217.89174 216.98522 216.11570
 215.34719 214.51667 213.60415 212.95763 212.39711 213.16753 214.98773 217.04239
 217.99664 218.73961 220.56561 222.41963 223.87073 225.73199 228.62895 231.12357
 232.95891 234.38025 235.94405 238.51813 242.31630 246.63802 250.89966 254.88031
 258.44452 261.68475 264.66431 267.34415 269.65625 271.65778 273.49664 275.29407
 277.13300 278.85794 280.37756 281.70819 282.88425 283.93442 284.89896 285.62924
 286.38303 287.07898 287.70947 288.56781
 366.78100 356.32550 345.74800 334.60449 322.99799 311.18249 299.04299 286.83649
 274.53899 262.42648 250.42598 239.71748 229.82998 220.92448 213.09698 206.08947
 199.91397 194.84247 191.41497 189.44747 188.47497 188.52946 189.35496 190.65346
 192.36896 194.45446 196.70795 199.05745 201.49295 203.96345 206.04195 207.87445
 209.49094 210.62644 210.84594 211.06444 210.99194 210.68744 210.31093 209.93143
 209.53893 209.23943 209.03793 208.89242 208.81092 209.13242 209.50892 209.88842
 210.67192 211.84041 213.08091 214.85441 216.77291 218.80641 220.89191 222.96540
 225.01590 227.09040 229.17790 231.27440 233.39390 235.55639 237.80289 240.16339
 242.77489 245.01639 247.00888 248.76438 250.17188 251.28538 252.09788 252.40438
 252.43187 252.19637 251.54687 250.48537 249.08187 247.23337 245.13286 242.95636
 240.73786 238.53236 236.34286 234.17235 232.02285 229.88035 227.89685 226.04435
 224.31785 222.78034 221.40084 220.16334 219.03584 217.98634 217.08084 216.21233
 215.44483 214.61533 213.70383 213.05833 212.49883 213.23003 214.95757 217.17328
 218.22659 218.85147 220.67282 222.56744 224.03175 225.79886 228.58902 230.97075
 232.63737 233.94585 235.57335 238.29059 242.20378 246.54924 250.85466 254.87917
 258.47269 261.71558 264.67355 267.32141 269.61526 271.61081 273.41830 275.19019
 277.02460 278.76019 280.30600 281.66840 282.84790 283.89651 284.86243 285.73163
 286.50519 287.19858 287.81390 288.64111
 366.78100 356.32534 345.74768 334.60403 322.99737 311.18171 299.04205 286.83540
 274.53774 262.42508 250.42442 239.71576 229.82811 220.92245 213.09479 206.08713
 199.91147 194.83982 191.41216 189.44450 188.47184 188.52619 189.35153 190.64987
 192.36521 194.45055 196.70390 199.05324 201.48858 203.95892 206.03726 207.86961
 209.48595 210.62129 210.84063 211.05898 210.98632 210.68166 210.30500 209.92534
 209.53269 209.23303 209.03137 208.88571 208.80405 209.12540 209.50174 209.88108
 210.66442 211.83277 213.07311 214.84645 216.76479 218.79813 220.88348 222.95682
 225.00716 227.08150 229.16884 231.26519 233.38453 235.54687 237.79321 240.15356
 242.76490 245.00624 246.99858 248.75392 250.16127 251.27461 252.08695 252.39329
 252.42064 252.18498 251.53532 250.47366 249.07000 247.22135 245.12069 242.94403
 240.72537 238.51971 236.33006 234.15940 232.00974 229.86708 227.88343 226.03077
 224.30411 222.76645 221.38679 220.14914 219.02148 217.97182 217.06616 216.19750
 215.42985 214.60019 213.68853 213.04287 212.48322 213.23430 215.00882 217.20148
 218.52023 219.02600 220.75682 222.66650 224.06497 225.84406 228.59665 230.83804
 232.33377 233.52933 235.16679 238.07527 242.11139 246.48468 250.82704 254.88478
 258.50241 261.74390 264.67413 267.28378 269.56436 271.56519 273.35849 275.10919
 276.91882 278.69278 280.24829 281.61456 282.79977 283.85529 284.83032 285.71216
 286.49368 287.19034 287.80627 288.64117
 366.78100 356.32440 345.74581 334.60121 322.99361 311.17701 299.03642 286.82882
 274.53022 262.41663 250.41503 239.70543 229.81684 220.91024 213.08164 206.07304
 199.89645 194.82385 191.39525 189.42666 188.45306 188.50646 189.33087 190.62827
 192.34267 194.42707 196.67948 199.02788 201.46228 203.93169 206.00909 207.84049
 209.45590 210.59030 210.80870 211.02610 210.95251 210.64691 210.26931 209.88872
 209.49512 209.19452 208.99192 208.84533 208.76273 209.08313 209.45854 209.83694
 210.61934 211.78675 213.02615 214.79855 216.71595 218.74836 220.83276 222.90516
 224.95457 227.02797 229.11437 231.20978 233.32818 235.48958 237.73498 240.09439
 242.70479 244.94519 246.93660 248.69100 250.09740 251.20981 252.02121 252.32661
 252.35301 252.11642 251.46582 250.40322 248.99863 247.14903 245.04743 242.86984
 240.65024 238.44364 236.25304 234.08145 231.93085 229.78725 227.80266 225.94906
 224.22146 222.68286 221.30227 220.06367 218.93507 217.88448 216.97788 216.10828
 215.33969 214.50909 213.59649 212.94989 212.38930 213.19820 215.10931 217.23421
 218.61685 219.36899 220.93974 222.67532 224.07339 225.92189 228.65643 230.78583
 231.91371 232.88385 234.84340 237.96829 242.05350 246.45432 250.80434 254.87447
 258.50894 261.75229 264.66473 267.24774 269.52951 271.55966 273.35355 275.08835
 276.86554 278.57440 280.12225 281.48920 282.67349 283.72937 284.70624 285.59436
 286.39145 287.09137 287.71420 288.55728
 366.78100 356.32428 345.74556 334.60083 322.99311 311.17639 299.03567 286.82795
 274.52923 262.41550 250.41378 239.70406 229.81534 220.90862 213.07990 206.07117
 199.89445 194.82173 191.39301 189.42429 188.45057 188.50384 189.32812 190.62540
 192.33968 194.42396 196.67624 199.02451 201.45879 203.92807 206.00535 207.83663
 209.45191 210.58618 210.80446 211.02174 210.94802 210.64230 210.26458 209.88385
 209.49013 209.18941 208.98669 208.83997 208.75725 209.07752 209.45280 209.83108
 210.61336 211.78064 213.01992 214.79219 216.70947 218.74175 220.82603 222.89831
 224.94759 227.02086 229.10714 231.20242 233.32070 235.48198 237.72726 240.08653
 242.69681 244.93709 246.92837 248.68265 250.08893 251.20120 252.01248 252.31776
 252.34404 252.10732 251.45659 250.39387 248.98915 247.13943 245.03771 242.85999
 240.64026 238.43354 236.24282 234.07110 231.92038 229.77666 227.79193 225.93821
 224.21049 222.67177 221.29105 220.05233 218.92360 217.87288 216.96616 216.09644
 215.32772 214.49700 213.58427 212.93755 212.37683 213.20169 215.15054 217.35655
 218.64975 219.64700 221.12868 222.71098 224.15428 226.00055 228.70174 230.69406
 231.50954 232.32047 234.55331 237.86942 241.97786 246.41406 250.77037 254.84866
 258.49966 261.74835 264.64774 267.21146 269.49933 271.55878 273.35028 275.02533
 276.77814 278.47354 280.01849 281.38358 282.56796 283.61688 284.57318 285.45700
 286.28113 287.00403 287.62680 288.48135
 366.78100 356.32458 345.74616 334.60173 322.99431 311.17789 299.03747 286.83005
 274.53162 262.41820 250.41678 239.70736 229.81894 220.91251 213.08409 206.07567
 199.89925 194.82683 191.39840 189.42998 188.45656 188.51014 189.33472 190.63229
 192.34687 194.43145 196.68403 199.03261 201.46718 203.93676 206.01434 207.84592
 209.46150 210.59607 210.81465 211.03223 210.95881 210.65339 210.27596 209.89554
 209.50212 209.20170 208.99928 208.85285 208.77043 209.09101 209.46659 209.84517
 210.62774 211.79532 213.03490 214.80748 216.72506 218.75763 220.84221 222.91479
 224.96437 227.03795 229.12452 231.22010 233.33868 235.50026 237.74584 240.10541
 242.71599 244.95657 246.94815 248.70273 250.10930 251.22188 252.03346 252.33904
 252.36562 252.12919 251.47877 250.41635 249.01193 247.16251 245.06108 242.88366
 240.66424 238.45782 236.26740 234.09597 231.94555 229.80213 227.81771 225.96429
 224.23686 222.69844 221.31802 220.07960 218.95118 217.90075 216.99433 216.12491
 215.35649 214.52607 213.61364 212.96722 212.40680 213.22766 215.16702 217.48055
 218.69583 219.85864 221.33411 222.81812 224.26384 226.03055 228.69640 230.57872
 231.15720 231.83879 234.26476 237.75192 241.90732 246.36577 250.72942 254.81946
 258.48560 261.73926 264.63101 267.17929 269.47034 271.54474 273.30643 274.97052
 276.64975 278.39468 279.94775 281.31427 282.50119 283.55222 284.51227 285.39462
 286.21625 286.95395 287.57941 288.44208
 366.78100 356.32488 345.74675 334.60263 322.99551 311.17938 299.03926 286.83214
 274.53401 262.42089 250.41976 239.71064 229.82252 220.91639 213.08827 206.08015
 199.90402 194.83190 191.40378 189.43565 188.46253 188.51641 189.34128 190.63916
 192.35403 194.43891 196.69179 199.04066 201.47554 203.94542 206.02329 207.85517
 209.47105 210.60592 210.82480 211.04268 210.96955 210.66443 210.28731 209.90718
 209.51406 209.21393 209.01181 208.86569 208.78356 209.10444 209.48032 209.85919
 210.64207 211.80995 213.04982 214.82270 216.74058 218.77345 220.85833 222.93121
 224.98108 227.05496 229.14183 231.23771 233.35659 235.51846 237.76434 240.12422
 242.73509 244.97597 246.96785 248.72272 250.12960 251.24248 252.05435 252.36023
 252.38710 252.15098 251.50086 250.43873 249.03461 247.18549 245.08436 242.90724
 240.68812 238.48199 236.29187 234.12075 231.97062 229.82750 227.84338 225.99025
 224.26313 222.72500 221.34488 220.10676 218.97863 217.92851 217.02239 216.15326
 215.38514 214.55502 213.64289 212.99677 212.43665 213.25589 215.19145 217.56468
 218.77495 220.03378 221.55022 222.98856 224.37584 226.02737 228.64497 230.42668
 230.83875 231.43018 233.99658 237.63585 241.84973 246.31897 250.68797 254.78636
 258.46310 261.71982 264.60172 267.13177 269.42599 271.52600 273.28934 274.89740
 276.58035 278.32965 279.88538 281.25427 282.44064 283.49646 284.45874 285.34293
 286.15939 286.89899 287.52988 288.39655
 366.78100 356.32516 345.74733 334.60349 322.99666 311.18082 299.04098 286.83415
 274.53631 262.42348 250.42264 239.71380 229.82597 220.92013 213.09230 206.08446
 199.90863 194.83679 191.40895 189.44112 188.46828 188.52245 189.34761 190.64577
 192.36094 194.44610 196.69927 199.04843 201.48359 203.95376 206.03192 207.86409
 209.48025 210.61541 210.83458 211.05274 210.97991 210.67507 210.29824 209.91840
 209.52556 209.22573 209.02389 208.87806 208.79622 209.11738 209.49355 209.87271
 210.65588 211.82404 213.06420 214.83737 216.75553 218.78870 220.87386 222.94702
 224.99719 227.07135 229.15852 231.25468 233.37384 235.53601 237.78217 240.14234
 242.75350 244.99467 246.98683 248.74199 250.14916 251.26232 252.07449 252.38065
 252.40781 252.17198 251.52214 250.46031 249.05647 247.20763 245.10680 242.92996
 240.71113 238.50529 236.31545 234.14462 231.99478 229.85195 227.86811 226.01528
 224.28844 222.75060 221.37077 220.13293 219.00510 217.95526 217.04942 216.18059
 215.41275 214.58292 213.67108 213.02524 212.46541 213.28738 215.22940 217.61171
 218.87527 220.19516 221.75473 223.18518 224.50070 226.03377 228.56450 230.22141
 230.53049 231.08284 233.74222 237.52321 241.79593 246.27341 250.64595 254.75150
 258.43869 261.70059 264.57608 267.08701 269.37747 271.49869 273.27145 274.57101
 276.52029 278.31213 279.86697 281.23578 282.42377 283.48114 284.44778 285.33377
 286.14871 286.88815 287.53830 288.43237
 366.78100 356.32548 345.74795 334.60443 322.99791 311.18238 299.04286 286.83634
 274.53881 262.42629 250.42577 239.71724 229.82972 220.92420 213.09667 206.08915
 199.91363 194.84210 191.41458 189.44706 188.47453 188.52901 189.35449 190.65296
 192.36844 194.45392 196.70740 199.05687 201.49235 203.96283 206.04130 207.87378
 209.49026 210.62573 210.84521 211.06369 210.99116 210.68664 210.31012 209.93059
 209.53807 209.23855 209.03702 208.89150 208.80998 209.13145 209.50793 209.88741
 210.67088 211.83936 213.07984 214.85331 216.77179 218.80527 220.89074 222.96422
 225.01470 227.08917 229.17665 231.27313 233.39260 235.55508 237.80156 240.16203
 242.77351 245.01499 247.00746 248.76294 250.17042 251.28389 252.09637 252.40285
 252.43032 252.19480 251.54528 250.48376 249.08023 247.23171 245.13119 242.95466
 240.73614 238.53062 236.34109 234.17057 232.02105 229.87852 227.89500 226.04248
 224.31595 222.77843 221.39891 220.16138 219.03386 217.98434 217.07881 216.21029
 215.44277 214.61324 213.70172 213.05620 212.49667 213.32095 215.26839 217.63995
 218.97975 220.36342 221.94496 223.37279 224.63823 226.06136 228.47240 229.98111
 230.23677 230.79276 233.50493 237.41188 241.74318 246.22641 250.59619 254.70485
 258.39856 261.66312 264.53217 267.02460 269.31186 271.44543 273.17242 274.65295
 276.44788 278.22879 279.79279 281.16895 282.36453 283.42410 284.39474 285.28207
 286.09436 286.83032 287.47742 288.38000
 366.78100 356.32597 345.74894 334.60591 322.99988 311.18484 299.04581 286.83978
 274.54275 262.43072 250.43069 239.72266 229.83563 220.93060 213.10357 206.09653
 199.92150 194.85047 191.42344 189.45641 188.48438 188.53935 189.36532 190.66429
 192.38026 194.46622 196.72019 199.07016 201.50613 203.97710 206.05607 207.88904
 209.50601 210.64198 210.86195 211.08091 211.00888 210.70485 210.32882 209.94979
 209.55776 209.25873 209.05770 208.91267 208.83164 209.15360 209.53057 209.91054
 210.69451 211.86348 213.10445 214.87842 216.79739 218.83136 220.91733 222.99129
 225.04226 227.11723 229.20520 231.30217 233.42214 235.58511 237.83208 240.19305
 242.80501 245.04698 247.03995 248.79592 250.20389 251.31786 252.13083 252.43780
 252.46577 252.23074 251.58170 250.52067 249.11764 247.26961 245.16958 242.99355
 240.77552 238.57049 236.38146 234.21143 232.06239 229.92036 227.93733 226.08530
 224.35927 222.82224 221.44321 220.20618 219.07915 218.03012 217.12508 216.25705
 215.49002 214.66099 213.74996 213.10493 212.54590 213.36555 215.30211 217.65857
 219.07864 220.54086 222.12579 223.54030 224.77414 226.10315 228.38771 229.73351
 229.95056 230.53516 233.28201 237.30185 241.69254 246.17891 250.54420 254.65269
 258.34964 261.61600 264.48340 266.96417 269.25574 271.40704 273.06598 274.64813
 276.39658 278.17102 279.73715 281.11462 282.30945 283.37192 284.34326 285.22946
 286.03763 286.76923 287.41293 288.31979
 366.78100 356.32667 345.75034 334.60801 323.00269 311.18836 299.05003 286.84470
 274.54837 262.43704 250.43772 239.73039 229.84406 220.93973 213.11340 206.10707
 199.93275 194.86242 191.43609 189.46976 188.49843 188.55410 189.38078 190.68045
 192.39712 194.48379 196.73846 199.08913 201.52581 203.99748 206.07715 207.91082
 209.52849 210.66516 210.88584 211.10551 211.03418 210.73085 210.35552 209.97719
 209.58587 209.28754 209.08721 208.94288 208.86255 209.18522 209.56290 209.94357
 210.72824 211.89791 213.13958 214.91425 216.83393 218.86860 220.95527 223.02994
 225.08161 227.15728 229.24596 231.34363 233.46430 235.62797 237.87564 240.23731
 242.84999 245.09266 247.08633 248.84300 250.25167 251.36634 252.18002 252.48769
 252.51636 252.28203 251.63370 250.57337 249.17105 247.32372 245.22439 243.04906
 240.83173 238.62740 236.43908 234.26975 232.12142 229.98009 227.99776 226.14643
 224.42111 222.88478 221.50645 220.27012 219.14379 218.09546 217.19114 216.32381
 215.55748 214.72915 213.81882 213.17449 212.61617 213.42302 215.32932 217.67073
 219.17622 220.71806 222.30011 223.69431 224.89609 226.14812 228.31633 229.49213
 229.66606 230.29951 233.08076 237.19991 241.64258 246.12704 250.48698 254.59047
 258.28418 261.54950 264.41660 266.89478 269.20538 271.38483 273.01010 274.59726
 276.35767 278.13162 279.69708 281.07327 282.26828 283.32852 284.29834 285.18564
 285.99310 286.72485 287.36911 288.27823
 366.78100 356.32746 345.75192 334.61037 323.00583 311.19229 299.05475 286.85021
 274.55466 262.44412 250.44558 239.73904 229.85350 220.94995 213.12441 206.11887
 199.94533 194.87578 191.45024 189.48470 188.51416 188.57062 189.39807 190.69853
 192.41599 194.50345 196.75891 199.11036 201.54782 204.02028 206.10074 207.93520
 209.55365 210.69111 210.91257 211.13303 211.06249 210.75994 210.38540 210.00786
 209.61732 209.31978 209.12023 208.97669 208.89715 209.22061 209.59907 209.98052
 210.76598 211.93644 213.17890 214.95435 216.87481 218.91027 220.99773 223.07319
 225.12564 227.20210 229.29156 231.39002 233.51148 235.67593 237.92439 240.28685
 242.90031 245.14377 247.13822 248.89568 250.30514 251.42060 252.23506 252.54351
 252.57297 252.33943 251.69189 250.63235 249.23080 247.38426 245.28572 243.11118
 240.89463 238.69109 236.50355 234.33501 232.18747 230.04692 228.06538 226.21484
 224.49030 222.95476 221.57721 220.34167 219.21613 218.16859 217.26505 216.39850
 215.63296 214.80542 213.89588 213.25234 212.69479 213.48476 215.35112 217.67374
 219.27325 220.88513 222.47153 223.84709 225.00954 226.19664 228.24910 229.24872
 229.38043 230.08687 232.90703 237.11008 241.59328 246.07407 250.42775 254.52055
 258.20468 261.46841 264.33661 266.81970 269.14822 271.33881 272.96576 274.57617
 276.33392 278.10715 279.67282 281.04871 282.24417 283.30563 284.27597 285.16577
 285.97421 286.71060 287.35715 288.26804
 366.78100 356.32832 345.75363 334.61295 323.00926 311.19658 299.05989 286.85621
 274.56152 262.45184 250.45415 239.74847 229.86378 220.96110 213.13641 206.13173
 199.95904 194.89036 191.46567 189.50099 188.53130 188.58862 189.41693 190.71825
 192.43656 194.52488 196.78119 199.13351 201.57182 204.04514 206.12645 207.96177
 209.58108 210.71940 210.94171 211.16303 211.09334 210.79166 210.41797 210.04129
 209.65160 209.35492 209.15623 209.01355 208.93486 209.25918 209.63849 210.02081
 210.80712 211.97844 213.22175 214.99807 216.91938 218.95570 221.04401 223.12033
 225.17364 227.25096 229.34127 231.44059 233.56290 235.72822 237.97753 240.34085
 242.95516 245.19948 247.19479 248.95311 250.36342 251.47974 252.29505 252.60437
 252.63468 252.40200 251.75531 250.69663 249.29594 247.45026 245.35257 243.17889
 240.96320 238.76052 236.57383 234.40615 232.25946 230.11978 228.13909 226.28941
 224.56572 223.03104 221.65435 220.41967 219.29498 218.24830 217.34561 216.47993
 215.71524 214.88856 213.97987 213.33719 212.78050 213.55113 215.37183 217.67175
 219.36983 221.03865 222.64203 224.00333 225.12335 226.25124 228.18639 229.01212
 229.09897 229.89597 232.75729 237.02708 241.54073 246.01765 250.36359 254.44133
 258.11237 261.37439 264.25040 266.74527 269.09344 271.28174 272.87811 274.56714
 276.34021 278.11423 279.67914 281.05627 282.25104 283.31323 284.28464 285.17325
 285.98587 286.71967 287.36530 288.28156
 366.78100 356.32920 345.75540 334.61559 323.01279 311.20099 299.06519 286.86238
 274.56858 262.45978 250.46298 239.75818 229.87437 220.97257 213.14877 206.14497
 199.97316 194.90536 191.48156 189.51776 188.54895 188.60715 189.43635 190.73855
 192.45775 194.54694 196.80414 199.15734 201.59654 204.07073 206.15293 207.98913
 209.60933 210.74853 210.97172 211.19392 211.12512 210.82432 210.45151 210.07571
 209.68691 209.39111 209.19331 209.05150 208.97370 209.29890 209.67910 210.06229
 210.84949 212.02169 213.26589 215.04308 216.96528 219.00248 221.09168 223.16888
 225.22307 227.30127 229.39247 231.49267 233.61586 235.78206 238.03226 240.39646
 243.01166 245.25685 247.25305 249.01225 250.42345 251.54064 252.35684 252.66704
 252.69824 252.46644 251.82063 250.76283 249.36303 247.51823 245.42142 243.24862
 241.03382 238.83202 236.64622 234.47941 232.33361 230.19481 228.21501 226.36620
 224.64340 223.10960 221.73380 220.49999 219.37619 218.33039 217.42859 216.56379
 215.79998 214.97418 214.06638 213.42458 212.86877 213.61945 215.39302 217.66191
 219.46051 221.18231 222.81148 224.16223 225.24585 226.31470 228.11548 228.76242
 228.81331 229.72244 232.63170 236.95450 241.49104 245.96483 250.30263 254.36427
 258.02151 261.28253 264.16330 266.67111 269.02863 271.18390 272.77789 274.58020
 276.34100 278.11636 279.68387 281.06317 282.26022 283.32339 284.29620 285.18649
 285.99847 286.73587 287.38214 288.29361
 366.78100 356.33002 345.75704 334.61807 323.01609 311.20511 299.07013 286.86815
 274.57518 262.46720 250.47122 239.76724 229.88426 220.98329 213.16031 206.15733
 199.98635 194.91937 191.49640 189.53342 188.56544 188.62446 189.45448 190.75751
 192.47753 194.56755 196.82557 199.17959 201.61962 204.09464 206.17766 208.01468
 209.63570 210.77573 210.99975 211.22277 211.15479 210.85481 210.48284 210.10786
 209.71988 209.42490 209.22793 209.08695 209.00997 209.33599 209.71701 210.10104
 210.88906 212.06208 213.30710 215.08512 217.00815 219.04617 221.13619 223.21421
 225.26923 227.34826 229.44028 231.54130 233.66532 235.83234 238.08337 240.44839
 243.06441 245.31043 247.30745 249.06748 250.47950 251.59752 252.41454 252.72556
 252.75759 252.52661 251.88163 250.82465 249.42567 247.58170 245.48572 243.31374
 241.09976 238.89878 236.71381 234.54783 232.40285 230.26487 228.28589 226.43792
 224.71594 223.18296 221.80798 220.57500 219.45203 218.40705 217.50607 216.64209
 215.87911 215.05414 214.14716 213.50618 212.95120 213.68536 215.41991 217.65622
 219.53647 221.31378 222.98056 224.31650 225.36314 226.38348 228.05467 228.51529
 228.53210 229.57626 232.52902 236.88617 241.43758 245.90477 250.23103 254.27148
 257.91284 261.17291 264.06308 266.59500 268.96585 271.08975 272.68942 274.57489
 276.37189 278.14752 279.71402 281.09106 282.28848 283.35165 284.32309 285.21219
 286.02332 286.75879 287.40881 288.31714
 366.78100 356.33086 345.75872 334.62058 323.01944 311.20929 299.07515 286.87401
 274.58187 262.47473 250.47959 239.77645 229.89431 220.99416 213.17202 206.16988
 199.99974 194.93360 191.51146 189.54932 188.58218 188.64204 189.47289 190.77675
 192.49761 194.58847 196.84733 199.20219 201.64305 204.11891 206.20276 208.04062
 209.66248 210.80334 211.02820 211.25206 211.18492 210.88578 210.51464 210.14049
 209.75335 209.45921 209.26307 209.12293 209.04679 209.37365 209.75551 210.14036
 210.92922 212.10308 213.34894 215.12780 217.05166 219.09052 221.18138 223.26023
 225.31609 227.39595 229.48881 231.59067 233.71553 235.88339 238.13525 240.50111
 243.11796 245.36482 247.36268 249.12354 250.53640 251.65526 252.47312 252.78498
 252.81783 252.58769 251.94355 250.88741 249.48927 247.64613 245.55099 243.37985
 241.16671 238.96656 236.78242 234.61728 232.47314 230.33600 228.35786 226.51072
 224.78958 223.25743 221.88329 220.65115 219.52901 218.48487 217.58473 216.72159
 215.95945 215.13531 214.22916 213.58902 213.03488 213.75146 215.44446 217.65149
 219.60191 221.43832 223.14305 224.47714 225.48889 226.45349 227.98418 228.28223
 228.28015 229.44431 232.44058 236.82507 241.38568 245.84497 250.15839 254.17487
 257.79941 261.05930 263.96194 266.52090 268.89883 270.99289 272.58771 274.43527
 276.40063 278.18933 279.74884 281.12149 282.31516 283.37650 284.34805 285.23651
 286.04987 286.78668 287.43555 288.34448
 366.78100 356.33165 345.76031 334.62296 323.02262 311.21327 299.07993 286.87958
 274.58824 262.48189 250.48755 239.78520 229.90386 221.00451 213.18317 206.18182
 200.01248 194.94713 191.52579 189.56444 188.59810 188.65875 189.49041 190.79506
 192.51672 194.60837 196.86803 199.22368 201.66534 204.14199 206.22665 208.06530
 209.68796 210.82961 211.05527 211.27992 211.21358 210.91523 210.54488 210.17154
 209.78519 209.49185 209.29650 209.15716 209.08181 209.40947 209.79212 210.17778
 210.96743 212.14209 213.38874 215.16840 217.09305 219.13271 221.22436 223.30402
 225.36067 227.44133 229.53498 231.63764 233.76329 235.93195 238.18460 240.55126
 243.16891 245.41657 247.41522 249.17688 250.59053 251.71019 252.52884 252.84150
 252.87515 252.64581 252.00246 250.94712 249.54977 247.70742 245.61308 243.44273
 241.23039 239.03104 236.84770 234.68335 232.54001 230.40366 228.42632 226.57997
 224.85963 223.32828 221.95494 220.72359 219.60225 218.55890 217.65956 216.79721
 216.03587 215.21252 214.30718 213.66783 213.11449 213.81514 215.47052 217.62854
 219.66754 221.57173 223.32208 224.64342 225.60756 226.53270 227.91470 227.99486
 227.98457 229.33881 232.37682 236.77119 241.33942 245.79103 250.09248 254.08748
 257.69785 260.95908 263.87506 266.45444 268.81860 270.86588 272.50266 274.41260
 276.44049 278.22742 279.78329 281.15302 282.34503 283.40530 284.37640 285.26495
 286.07764 286.81470 287.46439 288.37057
 366.78100 356.33238 345.76176 334.62514 323.02551 311.21689 299.08427 286.88465
 274.59403 262.48841 250.49479 239.79316 229.91254 221.01392 213.19330 206.19268
 200.02406 194.95944 191.53881 189.57819 188.61257 188.67395 189.50633 190.81171
 192.53409 194.62646 196.88684 199.24322 201.68560 204.16298 206.24836 208.08774
 209.71111 210.85349 211.07987 211.30525 211.23963 210.94201 210.57239 210.19977
 209.81414 209.52152 209.32690 209.18828 209.11366 209.44204 209.82542 210.21179
 211.00217 212.17755 213.42493 215.20531 217.13069 219.17107 221.26344 223.34382
 225.40120 227.48258 229.57696 231.68034 233.80672 235.97609 238.22947 240.59685
 243.21523 245.46361 247.46299 249.22537 250.63974 251.76012 252.57950 252.89288
 252.92726 252.69864 252.05602 251.00139 249.60477 247.76315 245.66953 243.49991
 241.28829 239.08967 236.90704 234.74342 232.60080 230.46518 228.48856 226.64294
 224.92332 223.39269 222.02007 220.78945 219.66883 218.62621 217.72759 216.86597
 216.10534 215.28272 214.37810 213.73948 213.18686 213.87523 215.50154 217.61359
 219.71147 221.67981 223.45963 224.81566 225.75143 226.64812 227.89177 227.78488
 227.70721 229.15970 232.29573 236.72186 241.28987 245.73297 250.01901 253.99002
 257.58600 260.85275 263.79095 266.40265 268.77399 270.80264 272.39209 274.48209
 276.51486 278.27832 279.82309 281.19000 282.37814 283.43640 284.40491 285.29193
 286.10376 286.84100 287.48813 288.39145
 366.78100 356.33283 345.76267 334.62650 323.02734 311.21917 299.08701 286.88784
 274.59767 262.49251 250.49934 239.79818 229.91801 221.01984 213.19968 206.19951
 200.03135 194.96718 191.54702 189.58685 188.62168 188.68352 189.51635 190.82219
 192.54502 194.63786 196.89869 199.25552 201.69836 204.17619 206.26203 208.10186
 209.72569 210.86853 211.09536 211.32120 211.25603 210.95887 210.58970 210.21753
 209.83237 209.54020 209.34604 209.20787 209.13371 209.46254 209.84637 210.23321
 211.02404 212.19988 213.44771 215.22855 217.15438 219.19521 221.28805 223.36888
 225.42672 227.50855 229.60338 231.70722 233.83405 236.00389 238.25772 240.62556
 243.24439 245.49322 247.49306 249.25589 250.67073 251.79156 252.61140 252.92523
 252.96006 252.73190 252.08973 251.03557 249.63940 247.79823 245.70507 243.53590
 241.32474 239.12657 236.94441 234.78124 232.63907 230.50391 228.52774 226.68258
 224.96341 223.43325 222.06108 220.83091 219.71075 218.66858 217.77042 216.90925
 216.14908 215.32692 214.42275 213.78459 213.23242 213.91896 215.54099 217.62935
 219.72112 221.76080 223.57889 224.95581 225.86217 226.74239 227.88876 227.67140
 227.51810 229.00250 232.23155 236.68274 241.24086 245.67036 249.93445 253.87318
 257.44757 260.71158 263.66248 266.28864 268.62402 270.58963 272.57321 274.54102
 276.56100 278.31165 279.85583 281.22110 282.40839 283.46432 284.43182 285.31763
 286.12698 286.86124 287.50757 288.40823
 366.78100 356.33297 345.76293 334.62690 323.02787 311.21983 299.08780 286.88877
 274.59874 262.49370 250.50067 239.79964 229.91960 221.02157 213.20154 206.20150
 200.03347 194.96944 191.54941 189.58937 188.62434 188.68631 189.51927 190.82524
 192.54821 194.64117 196.90214 199.25911 201.70208 204.18004 206.26601 208.10598
 209.72994 210.87291 211.09988 211.32584 211.26081 210.96378 210.59474 210.22271
 209.83768 209.54565 209.35161 209.21358 209.13955 209.46851 209.85248 210.23945
 211.03041 212.20638 213.45435 215.23532 217.16128 219.20225 221.29522 223.37618
 225.43415 227.51612 229.61108 231.71505 233.84202 236.01199 238.26595 240.63392
 243.25289 245.50185 247.50182 249.26479 250.67975 251.80072 252.62069 252.93465
 252.96962 252.74159 252.09956 251.04552 249.64949 247.80846 245.71542 243.54639
 241.33536 239.13732 236.95529 234.79226 232.65023 230.51519 228.53916 226.69413
 224.97509 223.44506 222.07303 220.84299 219.72296 218.68093 217.78290 216.92186
 216.16183 215.33980 214.43576 213.79773 213.24570 213.94591 215.60020 217.67281
 219.71805 221.80550 223.68042 225.07950 225.95862 226.81534 227.87123 227.59270
 227.38562 228.87907 232.18695 236.65332 241.19786 245.61377 249.85736 253.77104
 257.33157 260.59766 263.56046 266.19147 268.48148 270.40326 272.65665 274.55011
 276.56866 278.34546 279.89166 281.25427 282.44070 283.49438 284.45996 285.34329
 286.15134 286.88394 287.52942 288.42480
 366.78100 356.33316 345.76333 334.62749 323.02866 311.22082 299.08898 286.89015
 274.60031 262.49547 250.50264 239.80180 229.92197 221.02413 213.20429 206.20446
 200.03662 194.97278 191.55295 189.59311 188.62828 188.69044 189.52360 190.82977
 192.55293 194.64610 196.90726 199.26442 201.70759 204.18575 206.27191 208.11208
 209.73624 210.87941 211.10657 211.33273 211.26790 210.97106 210.60222 210.23039
 209.84555 209.55372 209.35988 209.22204 209.14821 209.47737 209.86154 210.24870
 211.03986 212.21603 213.46419 215.24535 217.17152 219.21268 221.30585 223.38701
 225.44517 227.52734 229.62250 231.72666 233.85383 236.02399 238.27816 240.64632
 243.26548 245.51465 247.51481 249.27798 250.69314 251.81430 252.63447 252.94863
 252.98379 252.75596 252.11412 251.06029 249.66445 247.82361 245.73078 243.56194
 241.35110 239.15327 236.97143 234.80860 232.66676 230.53192 228.55609 226.71125
 224.99242 223.46258 222.09074 220.86091 219.74107 218.69923 217.80140 216.94056
 216.18073 215.35889 214.45505 213.81722 213.26538 213.97150 215.63979 217.72043
 219.74796 221.84225 223.75760 225.18353 226.05252 226.88390 227.84167 227.52168
 227.28113 228.78467 232.16051 236.63271 241.16089 245.56137 249.78214 253.66936
 257.21301 260.47797 263.45251 266.09009 268.35681 270.29977 272.62836 274.54019
 276.56744 278.35583 279.90607 281.27060 282.45593 283.51147 284.47632 285.35678
 286.16397 286.89444 287.53806 288.42871
 366.78100 356.33370 345.76440 334.62911 323.03081 311.22351 299.09221 286.89391
 274.60462 262.50032 250.50802 239.80772 229.92843 221.03113 213.21183 206.21253
 200.04523 194.98194 191.56264 189.60334 188.63904 188.70174 189.53545 190.84215
 192.56585 194.65955 196.92126 199.27896 201.72266 204.20136 206.28806 208.12877
 209.75347 210.89717 211.12487 211.35157 211.28728 210.99098 210.62268 210.25138
 209.86709 209.57579 209.38249 209.24519 209.17189 209.50160 209.88630 210.27400
 211.06570 212.24240 213.49111 215.27281 217.19951 219.24121 221.33492 223.41662
 225.47532 227.55802 229.65372 231.75843 233.88613 236.05683 238.31153 240.68023
 243.29994 245.54964 247.55034 249.31404 250.72975 251.85145 252.67215 252.98685
 253.02255 252.79526 252.15396 251.10066 249.70536 247.86506 245.77277 243.60447
 241.39417 239.19687 237.01558 234.85328 232.71198 230.57768 228.60238 226.75809
 225.03979 223.51049 222.13919 220.90989 219.79060 218.74930 217.85200 216.99170
 216.23241 215.41111 214.50781 213.87051 213.31921 214.01495 215.65872 217.74966
 219.80905 221.89799 223.82068 225.26395 226.13672 226.94344 227.79137 227.41734
 227.15625 228.69084 232.13840 236.61794 241.13304 245.52396 249.73332 253.60910
 257.14886 260.41949 263.40186 266.02597 268.23581 270.28888 272.37579 274.56903
 276.58386 278.35687 279.90646 281.27280 282.45880 283.51266 284.47778 285.35959
 286.16367 286.89545 287.53787 288.42416
 366.78100 356.33433 345.76565 334.63098 323.03331 311.22663 299.09596 286.89829
 274.60961 262.50594 250.51427 239.81459 229.93592 221.03924 213.22057 206.22190
 200.05522 194.99255 191.57388 189.61520 188.65153 188.71486 189.54918 190.85651
 192.58084 194.67516 196.93749 199.29582 201.74014 204.21947 206.30680 208.14812
 209.77345 210.91778 211.14610 211.37343 211.30976 211.01408 210.64641 210.27573
 209.89206 209.60139 209.40871 209.27204 209.19937 209.52969 209.91502 210.30335
 211.09567 212.27300 213.52233 215.30465 217.23198 219.27431 221.36863 223.45096
 225.51029 227.59361 229.68994 231.79527 233.92359 236.09492 238.35024 240.71957
 243.33990 245.59022 247.59155 249.35588 250.77220 251.89453 252.71586 253.03118
 253.06751 252.84084 252.20016 251.14749 249.75282 247.91314 245.82147 243.65380
 241.44412 239.24745 237.06678 234.90510 232.76443 230.63075 228.65608 226.81241
 225.09473 223.56606 222.19539 220.96671 219.84804 218.80737 217.91069 217.05102
 216.29235 215.47167 214.56900 213.93233 213.38165 214.06665 215.68501 217.77582
 219.87500 221.96686 223.87082 225.32407 226.23019 227.02527 227.75740 227.32841
 227.04430 228.60536 232.11743 236.60023 241.09877 245.47440 249.66544 253.52220
 257.05048 260.32138 263.31406 265.93839 268.12326 270.26743 272.41235 274.57767
 276.57910 278.34494 279.89316 281.25873 282.44470 283.49823 284.46274 285.34268
 286.14740 286.87656 287.51758 288.40295
 366.78100 356.33458 345.76616 334.63173 323.03431 311.22789 299.09747 286.90004
 274.61162 262.50820 250.51678 239.81736 229.93893 221.04251 213.22409 206.22567
 200.05925 194.99682 191.57840 189.61998 188.65656 188.72013 189.55471 190.86229
 192.58687 194.68145 196.94402 199.30260 201.74718 204.22676 206.31434 208.15591
 209.78149 210.92607 211.15465 211.38222 211.31880 211.02338 210.65596 210.28554
 209.90211 209.61169 209.41927 209.28285 209.21042 209.54100 209.92658 210.31516
 211.10774 212.28531 213.53489 215.31747 217.24505 219.28763 221.38220 223.46478
 225.52436 227.60794 229.70451 231.81009 233.93867 236.11025 238.36583 240.73540
 243.35598 245.60656 247.60814 249.37272 250.78929 251.91187 252.73345 253.04903
 253.08560 252.85918 252.21876 251.16634 249.77192 247.93249 245.84107 243.67365
 241.46423 239.26781 237.08738 234.92596 232.78554 230.65212 228.67769 226.83427
 225.11685 223.58843 222.21801 220.98958 219.87116 218.83074 217.93432 217.07489
 216.31647 215.49605 214.59363 213.95721 213.40678 214.09573 215.72343 217.81615
 219.92497 222.02002 223.88789 225.34479 226.30779 227.11693 227.75238 227.28984
 226.97972 228.54245 232.10278 236.58624 241.06921 245.43076 249.60530 253.44499
 256.96149 260.22690 263.20987 265.79568 267.94525 270.27481 272.35519 274.58939
 276.55347 278.31805 279.86703 281.23239 282.41714 283.47009 284.43198 285.31311
 286.11591 286.84445 287.48453 288.36993
 366.78100 356.33453 345.76606 334.63159 323.03413 311.22766 299.09719 286.89972
 274.61125 262.50778 250.51631 239.81685 229.93838 221.04191 213.22344 206.22497
 200.05850 194.99603 191.57757 189.61910 188.65563 188.71916 189.55369 190.86122
 192.58575 194.68029 196.94282 199.30135 201.74588 204.22541 206.31294 208.15448
 209.78001 210.92454 211.15307 211.38060 211.31713 211.02166 210.65420 210.28373
 209.90026 209.60979 209.41732 209.28085 209.20838 209.53892 209.92445 210.31298
 211.10551 212.28304 213.53257 215.31510 217.24264 219.28517 221.37970 223.46223
 225.52176 227.60529 229.70182 231.80736 233.93589 236.10742 238.36295 240.73248
 243.35301 245.60354 247.60508 249.36961 250.78614 251.90867 252.73020 253.04573
 253.08226 252.85580 252.21533 251.16286 249.76839 247.92892 245.83745 243.66998
 241.46052 239.26405 237.08358 234.92211 232.78164 230.64817 228.67371 226.83024
 225.11277 223.58430 222.21383 220.98536 219.86689 218.82643 217.92996 217.07049
 216.31202 215.49155 214.58908 213.95261 213.40215 214.10440 215.76357 217.88197
 219.97830 222.05676 223.87059 225.31715 226.34502 227.19328 227.76286 227.29805
 226.96481 228.50391 232.09496 236.58023 241.05078 245.39755 249.55545 253.37823
 256.87936 260.13019 263.09296 265.64423 267.79041 270.27478 272.31253 274.58890
 276.50439 278.26804 279.81824 281.18292 282.36792 283.42044 284.38354 285.26279
 286.06769 286.79694 287.44147 288.31747
 366.78100 356.33443 345.76586 334.63128 323.03371 311.22714 299.09657 286.89900
 274.61043 262.50685 250.51528 239.81571 229.93714 221.04057 213.22200 206.22342
 200.05685 194.99428 191.57571 189.61714 188.65357 188.71699 189.55142 190.85885
 192.58328 194.67771 196.94014 199.29856 201.74299 204.22242 206.30985 208.15128
 209.77671 210.92113 211.14956 211.37699 211.31342 211.01785 210.65028 210.27970
 209.89613 209.60556 209.41299 209.27642 209.20385 209.53427 209.91970 210.30813
 211.10056 212.27799 213.52742 215.30984 217.23727 219.27970 221.37413 223.45656
 225.51599 227.59941 229.69584 231.80127 233.92970 236.10113 238.35655 240.72598
 243.34641 245.59684 247.59827 249.36270 250.77912 251.90155 252.72298 253.03841
 253.07484 252.84827 252.20769 251.15512 249.76055 247.92098 245.82941 243.66184
 241.45226 239.25569 237.07512 234.91355 232.77298 230.63941 228.66483 226.82126
 225.10369 223.57512 222.20455 220.97598 219.85740 218.81683 217.92026 217.06069
 216.30212 215.48155 214.57897 213.94240 213.39183 214.10707 215.79691 217.96213
 220.05200 222.08672 223.83392 225.25565 226.34042 227.24072 227.76929 227.32054
 226.97711 228.48851 232.09924 236.58856 241.05083 245.38184 249.52206 253.32570
 256.80731 260.03943 262.98782 265.52725 267.67429 270.21423 272.25522 274.52960
 276.44339 278.20419 279.75217 281.11655 282.30228 283.35361 284.31613 285.19641
 286.00107 286.73389 287.37735 288.25519
 366.78100 356.33440 345.76581 334.63121 323.03361 311.22702 299.09642 286.89882
 274.61023 262.50663 250.51503 239.81543 229.93684 221.04024 213.22164 206.22305
 200.05645 194.99385 191.57526 189.61666 188.65306 188.71647 189.55087 190.85827
 192.58268 194.67708 196.93948 199.29788 201.74229 204.22169 206.30909 208.15050
 209.77590 210.92030 211.14871 211.37611 211.31251 211.01692 210.64932 210.27872
 209.89513 209.60453 209.41193 209.27533 209.20274 209.53314 209.91854 210.30695
 211.09935 212.27675 213.52616 215.30856 217.23596 219.27837 221.37277 223.45517
 225.51458 227.59798 229.69438 231.79978 233.92819 236.09959 238.35499 240.72440
 243.34480 245.59520 247.59661 249.36101 250.77741 251.89982 252.72122 253.03662
 253.07303 252.84643 252.20583 251.15323 249.75864 247.91904 245.82744 243.65985
 241.45025 239.25365 237.07306 234.91146 232.77086 230.63727 228.66267 226.81907
 225.10148 223.57288 222.20228 220.97368 219.85509 218.81449 217.91789 217.05830
 216.29970 215.47910 214.57651 213.93991 213.38931 214.11240 215.82076 218.05075
 220.14644 222.11813 223.78903 225.17577 226.30655 227.25896 227.75835 227.32768
 226.98700 228.48314 232.11105 236.60767 241.06696 245.38371 249.50787 253.29749
 256.76160 259.97842 262.91705 265.44116 267.52408 270.07611 272.17636 274.44312
 276.36438 278.11932 279.66385 281.02652 282.20889 283.26080 284.22006 285.09879
 285.90240 286.63327 287.27411 288.12457
 366.78100 356.33454 345.76609 334.63163 323.03418 311.22772 299.09726 286.89981
 274.61135 262.50790 250.51644 239.81699 229.93853 221.04207 213.22362 206.22516
 200.05871 194.99625 191.57779 189.61934 188.65588 188.71943 189.55397 190.86151
 192.58606 194.68060 196.94315 199.30169 201.74624 204.22578 206.31332 208.15487
 209.78041 210.92496 211.15350 211.38104 211.31759 211.02213 210.65468 210.28422
 209.90076 209.61031 209.41785 209.28140 209.20894 209.53949 209.92503 210.31357
 211.10612 212.28366 213.53321 215.31575 217.24329 219.28584 221.38038 223.46293
 225.52247 227.60601 229.70256 231.80810 233.93665 236.10819 238.36374 240.73328
 243.35382 245.60437 247.60591 249.37046 250.78700 251.90954 252.73109 253.04663
 253.08318 252.85672 252.21626 251.16381 249.76935 247.92990 245.83844 243.67099
 241.46153 239.26507 237.08462 234.92316 232.78271 230.64925 228.67479 226.83134
 225.11388 223.58543 222.21497 220.98651 219.86806 218.82760 217.93115 217.07169
 216.31324 215.49278 214.59032 213.95387 213.40341 214.12547 215.83139 218.14241
 220.26517 222.15721 223.74403 225.08656 226.24834 227.25327 227.73830 227.32455
 226.99402 228.48537 232.12987 236.63618 241.09419 245.39445 249.49998 253.27304
 256.71710 259.91144 262.83646 265.36224 267.48795 270.06540 272.11420 274.35852
 276.26950 278.01590 279.55685 280.91779 282.09955 283.14822 284.10635 284.98355
 285.78671 286.51938 287.15649 288.00262
 366.78100 356.33479 345.76658 334.63237 323.03516 311.22895 299.09874 286.90153
 274.61332 262.51011 250.51890 239.81969 229.94148 221.04527 213.22706 206.22885
 200.06264 195.00043 191.58222 189.62401 188.66080 188.72459 189.55938 190.86717
 192.59196 194.68675 196.94954 199.30833 201.75312 204.23291 206.32070 208.16249
 209.78828 210.93307 211.16186 211.38965 211.32644 211.03123 210.66402 210.29381
 209.91060 209.62039 209.42818 209.29197 209.21976 209.55055 209.93634 210.32513
 211.11792 212.29571 213.54550 215.32829 217.25608 219.29887 221.39366 223.47645
 225.53624 227.62003 229.71682 231.82261 233.95140 236.12319 238.37898 240.74877
 243.36956 245.62035 247.62214 249.38693 250.80372 251.92651 252.74830 253.06409
 253.10088 252.87467 252.23446 251.18225 249.78804 247.94883 245.85762 243.69041
 241.48120 239.28498 237.10477 234.94356 232.80335 230.67014 228.69593 226.85272
 225.13551 223.60730 222.23709 221.00888 219.89067 218.85046 217.95425 217.09504
 216.33683 215.51662 214.61441 213.97820 213.42799 214.14267 215.83118 218.23117
 220.40585 222.21912 223.69843 224.98846 226.17651 227.22154 227.69603 227.29950
 226.99060 228.49327 232.15434 236.67314 241.13397 245.41786 249.50485 253.26302
 256.68454 259.85095 262.76401 265.30612 267.44055 270.04538 272.04071 274.26535
 276.15643 277.89316 279.43082 280.79001 281.97015 283.01791 283.97443 284.85065
 285.65558 286.38925 287.02017 287.86392
 366.78100 356.33507 345.76715 334.63322 323.03629 311.23037 299.10044 286.90351
 274.61559 262.51266 250.52173 239.82281 229.94488 221.04895 213.23103 206.23310
 200.06717 195.00525 191.58732 189.62939 188.66647 188.73054 189.56561 190.87369
 192.59876 194.69383 196.95691 199.31598 201.76105 204.24113 206.32920 208.17127
 209.79735 210.94242 211.17149 211.39957 211.33664 211.04171 210.67479 210.30486
 209.92193 209.63201 209.44008 209.30415 209.23222 209.56330 209.94937 210.33844
 211.13152 212.30959 213.55966 215.34274 217.27081 219.31388 221.40896 223.49203
 225.55210 227.63618 229.73325 231.83932 233.96840 236.14047 238.39654 240.76662
 243.38769 245.63876 247.64084 249.40591 250.82298 251.94606 252.76813 253.08420
 253.12128 252.89535 252.25542 251.20350 249.80957 247.97064 245.87972 243.71279
 241.50386 239.30794 237.12801 234.96708 232.82716 230.69423 228.72030 226.87738
 225.16045 223.63252 222.26260 221.03467 219.91674 218.87682 217.98089 217.12196
 216.36404 215.54411 214.64218 214.00626 213.45633 214.15935 215.82030 218.32747
 220.56358 222.29335 223.66725 224.88977 226.08171 227.16248 227.63264 227.24701
 226.96812 228.50133 232.18282 236.71634 241.18213 245.45018 249.51913 253.26602
 256.66937 259.81189 262.71655 265.27139 267.41251 270.00497 271.97409 274.15369
 276.03098 277.75543 279.28467 280.63800 281.81650 282.86285 283.81567 284.69211
 285.49774 286.23523 286.85910 287.69839
 366.78100 356.33540 345.76780 334.63419 323.03759 311.23199 299.10239 286.90579
 274.61819 262.51558 250.52498 239.82638 229.94878 221.05318 213.23557 206.23797
 200.07237 195.01077 191.59317 189.63556 188.67296 188.73736 189.57276 190.88116
 192.60656 194.70195 196.96535 199.32475 201.77015 204.25055 206.33894 208.18134
 209.80774 210.95314 211.18254 211.41094 211.34833 211.05373 210.68713 210.31753
 209.93493 209.64532 209.45372 209.31812 209.24652 209.57792 209.96432 210.35371
 211.14711 212.32551 213.57591 215.35931 217.28770 219.33110 221.42650 223.50990
 225.57030 227.65469 229.75209 231.85849 233.98789 236.16029 238.41669 240.78708
 243.40848 245.65988 247.66228 249.42768 250.84507 251.96847 252.79087 253.10727
 253.14467 252.91907 252.27946 251.22786 249.83426 247.99566 245.90506 243.73845
 241.52985 239.33425 237.15465 234.99405 232.85444 230.72184 228.74824 226.90564
 225.18904 223.66144 222.29183 221.06423 219.94663 218.90703 218.01143 217.15282
 216.39522 215.57562 214.67402 214.03842 213.48882 214.17805 215.80649 218.41823
 220.72818 222.36536 223.62422 224.80881 226.00519 227.08093 227.53439 227.18170
 226.93399 228.51093 232.21294 236.76627 241.23941 245.49353 249.54280 253.27966
 256.66193 259.77350 262.66641 265.24756 267.33450 269.99039 271.87830 274.03885
 275.89233 277.61487 279.14023 280.49460 281.67294 282.71854 283.67407 284.54971
 285.36075 286.09720 286.73883 287.58273
 366.78100 356.33577 345.76853 334.63530 323.03907 311.23383 299.10460 286.90837
 274.62113 262.51890 250.52867 239.83043 229.95320 221.05797 213.24073 206.24350
 200.07827 195.01703 191.59980 189.64257 188.68033 188.74510 189.58087 190.88963
 192.61540 194.71117 196.97493 199.33470 201.78047 204.26123 206.35000 208.19277
 209.81953 210.96530 211.19507 211.42383 211.36160 211.06737 210.70113 210.33190
 209.94967 209.66043 209.46920 209.33397 209.26273 209.59450 209.98127 210.37103
 211.16480 212.34357 213.59433 215.37810 217.30687 219.35063 221.44640 223.53017
 225.59093 227.67570 229.77347 231.88023 234.01000 236.18277 238.43953 240.81030
 243.43207 245.68383 247.68660 249.45237 250.87013 251.99390 252.81667 253.13343
 253.17120 252.94597 252.30673 251.25550 249.86227 248.02403 245.93380 243.76757
 241.55933 239.36410 237.18487 235.02463 232.88540 230.75317 228.77993 226.93770
 225.22147 223.69423 222.32500 221.09777 219.98053 218.94130 218.04607 217.18783
 216.43060 215.61137 214.71013 214.07490 213.52567 214.20296 215.80315 218.45232
 220.88672 222.44745 223.56485 224.68762 225.89850 226.97134 227.38574 227.16051
 226.88568 228.52563 232.24081 236.82152 241.30542 245.54572 249.57635 253.30397
 256.66028 259.72293 262.58224 265.18524 267.45178 269.99258 271.90601 273.89978
 275.77441 277.47461 278.99451 280.35138 281.53314 282.57968 283.54327 284.43637
 285.26080 286.03036 286.70966 287.57535
 366.78100 356.33700 345.77100 334.63900 323.04399 311.23999 299.11199 286.91699
 274.63099 262.52999 250.54098 239.84398 229.96798 221.07398 213.25798 206.26198
 200.09798 195.03797 191.62197 189.66597 188.70497 188.77097 189.60797 190.91797
 192.64496 194.74196 197.00696 199.36796 201.81496 204.29696 206.38695 208.23095
 209.85895 211.00595 211.23695 211.46695 211.40595 211.11294 210.74794 210.37994
 209.99894 209.71094 209.52094 209.38694 209.31693 209.64993 210.03793 210.42893
 211.22393 212.40393 213.65592 215.44092 217.37092 219.41592 221.51292 223.59792
 225.65992 227.74591 229.84491 231.95291 234.08391 236.25791 238.51591 240.88791
 243.51090 245.76390 247.76790 249.53490 250.95390 252.07890 252.90289 253.22089
 253.25989 253.03589 252.39789 251.34789 249.95589 248.11888 246.02988 243.86488
 241.65788 239.46388 237.28588 235.12688 232.98887 230.85787 228.88587 227.04487
 225.32987 223.80387 222.43586 221.20986 220.09386 219.05586 218.16186 217.30486
 216.54886 215.73085 214.83085 214.19685 213.64885 214.27316 215.74815 218.47289
 221.15152 222.64969 223.54503 224.55740 225.72595 226.76373 227.21814 227.06371
 226.91656 228.61627 232.31711 236.89973 241.40790 245.63850 249.63943 253.35895
 256.70544 259.72672 262.55896 265.21237 267.46646 269.90482 271.81711 273.75266
 275.61148 277.30698 278.81470 280.16556 281.34305 282.38913 283.34628 284.24045
 285.06335 285.82715 286.50082 287.35934
 366.78100 356.33825 345.77349 334.64274 323.04899 311.24624 299.11948 286.92573
 274.64098 262.54123 250.55347 239.85772 229.98297 221.09021 213.27546 206.28071
 200.11796 195.05920 191.64445 189.68970 188.72995 188.79719 189.63544 190.94669
 192.67493 194.77318 197.03943 199.40168 201.84992 204.33317 206.42442 208.26967
 209.89891 211.04716 211.27941 211.51065 211.45090 211.15915 210.79540 210.42864
 210.04889 209.76214 209.57339 209.44063 209.37188 209.70613 210.09537 210.48762
 211.28387 212.46512 213.71836 215.50461 217.43586 219.48211 221.58035 223.66660
 225.72985 227.81709 229.91734 232.02659 234.15884 236.33408 238.59333 240.96658
 243.59083 245.84507 247.85032 249.61857 251.03881 252.16506 252.99031 253.30956
 253.34980 253.12705 252.49030 251.44155 250.05079 248.21504 246.12729 243.96353
 241.75778 239.56503 237.38828 235.23052 233.09377 230.96402 228.99327 227.15351
 225.43976 223.91501 222.54825 221.32350 220.20875 219.17200 218.27924 217.42349
 216.66874 215.85199 214.95323 214.32048 213.77373 214.34918 215.70876 218.47290
 221.34836 222.84546 223.60521 224.49948 225.58057 226.55380 226.99104 226.87303
 226.85513 228.67780 232.39563 236.98807 241.51859 245.74916 249.73497 253.45052
 256.79340 259.77975 262.57269 265.24759 267.50461 269.80161 271.72476 273.72168
 275.49857 277.19778 278.71060 280.07050 281.25620 282.31219 283.28940 284.18829
 285.00452 285.75839 286.43100 287.28815
 366.78100 356.33786 345.77272 334.64158 323.04744 311.24430 299.11716 286.92302
 274.63788 262.53774 250.54960 239.85346 229.97832 221.08518 213.27004 206.27490
 200.11176 195.05262 191.63748 189.68234 188.72220 188.78906 189.62692 190.93778
 192.66564 194.76350 197.02936 199.39122 201.83908 204.32194 206.41280 208.25766
 209.88652 211.03438 211.26624 211.49710 211.43696 211.14482 210.78068 210.41354
 210.03340 209.74626 209.55712 209.42398 209.35484 209.68870 210.07756 210.46942
 211.26528 212.44614 213.69900 215.48486 217.41572 219.46158 221.55944 223.64530
 225.70816 227.79502 229.89488 232.00374 234.13560 236.31046 238.56932 240.94218
 243.56604 245.81990 247.82476 249.59262 251.01248 252.13834 252.96320 253.28206
 253.32192 253.09878 252.46164 251.41250 250.02136 248.18522 246.09708 243.93294
 241.72680 239.53366 237.35652 235.19838 233.06124 230.93110 228.95996 227.11982
 225.40568 223.88054 222.51340 221.28826 220.17312 219.13598 218.24284 217.38670
 216.63156 215.81442 214.91528 214.28214 213.73500 214.33852 215.78401 218.47864
 221.33728 222.89560 223.70776 224.57457 225.59851 226.50652 226.82701 226.67004
 226.57796 228.56665 232.37949 237.02322 241.61340 245.85512 249.82446 253.53279
 256.89429 259.88544 262.65210 265.31177 267.55859 269.64194 271.77594 273.64136
 275.39899 277.02020 278.50436 279.83148 280.96967 281.98795 282.95132 283.84058
 284.63419 285.33600 285.94907 286.73035
 366.78100 356.33707 345.77115 334.63922 323.04429 311.24037 299.11244 286.91751
 274.63159 262.53066 250.54173 239.84481 229.96888 221.07495 213.25903 206.26310
 200.09917 195.03925 191.62332 189.66739 188.70647 188.77254 189.60961 190.91969
 192.64676 194.74383 197.00890 199.36998 201.81705 204.29912 206.38920 208.23327
 209.86134 211.00842 211.23949 211.46956 211.40864 211.11571 210.75078 210.38286
 210.00193 209.71400 209.52408 209.39015 209.32022 209.65330 210.04137 210.43244
 211.22752 212.40759 213.65966 215.44474 217.37481 219.41988 221.51696 223.60203
 225.66410 227.75018 229.84925 231.95732 234.08840 236.26247 238.52054 240.89262
 243.51569 245.76876 247.77284 249.53991 250.95898 252.08406 252.90813 253.22620
 253.26527 253.04135 252.40342 251.35349 249.96157 248.12464 246.03571 243.87079
 241.66386 239.46993 237.29201 235.13308 232.99515 230.86423 228.89230 227.05137
 225.33645 223.81052 222.44259 221.21667 220.10074 219.06281 218.16889 217.31196
 216.55603 215.73811 214.83818 214.20425 213.65633 214.29572 215.80638 218.60062
 221.37285 222.96294 223.83093 224.68884 225.65829 226.47852 226.79163 226.36642
 226.44974 228.53801 232.40208 237.04042 241.61703 245.89091 249.88284 253.60170
 256.97195 259.95691 262.67773 265.39090 267.67484 269.52432 271.77835 273.56848
 275.35751 276.92456 278.35706 279.64233 280.73370 281.69568 282.62808 283.50098
 284.28360 284.95743 285.52930 286.25812
 366.78100 356.33769 345.77238 334.64108 323.04677 311.24346 299.11615 286.92184
 274.63654 262.53623 250.54792 239.85161 229.97630 221.08300 213.26769 206.27238
 200.10907 195.04976 191.63446 189.67915 188.71884 188.78553 189.62322 190.93392
 192.66161 194.75930 197.02499 199.38668 201.83438 204.31707 206.40776 208.25245
 209.88114 211.02884 211.26053 211.49122 211.43091 211.13860 210.77430 210.40699
 210.02668 209.73937 209.55006 209.41676 209.34745 209.68114 210.06983 210.46152
 211.25722 212.43791 213.69060 215.47629 217.40698 219.45268 221.55037 223.63606
 225.69875 227.78544 229.88514 231.99383 234.12552 236.30021 238.55890 240.93160
 243.55529 245.80898 247.81367 249.58136 251.00106 252.12675 252.95144 253.27013
 253.30982 253.08652 252.44921 251.39990 250.00859 248.17228 246.08398 243.91967
 241.71336 239.52005 237.34274 235.18444 233.04713 230.91682 228.94551 227.10520
 225.39090 223.86559 222.49828 221.27297 220.15766 219.12036 218.22705 217.37074
 216.61543 215.79812 214.89882 214.26551 213.71820 214.33279 215.78482 218.68111
 221.52457 223.05612 223.84039 224.63397 225.58058 226.38997 226.73706 226.31718
 226.41200 228.51285 232.39685 237.05183 241.64825 245.92432 249.92325 253.64659
 257.00308 259.95557 262.64420 265.37631 267.69119 269.48245 271.71011 273.40164
 275.22067 276.77512 278.19666 279.43564 280.48868 281.45999 282.40942 283.27979
 284.02957 284.64551 285.18658 285.87729
 366.78100 356.33849 345.77398 334.64347 323.04995 311.24744 299.12093 286.92742
 274.64291 262.54340 250.55589 239.86037 229.98586 221.09335 213.27884 206.28433
 200.12182 195.06330 191.64879 189.69428 188.73477 188.80226 189.64075 190.95224
 192.68072 194.77921 197.04570 199.40819 201.85668 204.34017 206.43166 208.27714
 209.90663 211.05512 211.28761 211.51910 211.45959 211.16808 210.80456 210.43805
 210.05854 209.77203 209.58352 209.45101 209.38249 209.71698 210.10647 210.49896
 211.29545 212.47694 213.73043 215.51691 217.44840 219.49489 221.59338 223.67987
 225.74336 227.83085 229.93133 232.04082 234.17331 236.34880 238.60829 240.98178
 243.60627 245.86075 247.86624 249.63473 251.05522 252.18171 253.00720 253.32668
 253.36717 253.14466 252.50815 251.45964 250.06913 248.23362 246.14610 243.98259
 241.77708 239.58457 237.40806 235.25055 233.11404 230.98452 229.01401 227.17450
 225.46099 223.93648 222.56997 221.34545 220.23094 219.19443 218.30192 217.44641
 216.69190 215.87539 214.97687 214.34436 213.79785 214.38905 215.79929 218.62531
 221.63214 223.14523 223.80132 224.52512 225.46840 226.27170 226.62914 226.38643
 226.43178 228.52563 232.38998 237.07297 241.68579 245.99728 249.99406 253.69820
 257.04889 259.98532 262.65533 265.31561 267.60220 269.54724 271.54453 273.37381
 275.05731 276.61774 278.03873 279.25095 280.28162 281.27545 282.22882 283.08163
 283.79694 284.45126 285.02283 285.75125
 366.78100 356.33729 345.77159 334.63988 323.04518 311.24147 299.11376 286.91906
 274.63335 262.53264 250.54394 239.84723 229.97153 221.07782 213.26211 206.26641
 200.10270 195.04299 191.62729 189.67158 188.71088 188.77717 189.61446 190.92476
 192.65205 194.74934 197.01464 199.37593 201.82323 204.30552 206.39581 208.24011
 209.86840 211.01569 211.24699 211.47728 211.41658 211.12387 210.75916 210.39146
 210.01075 209.72304 209.53334 209.39963 209.32993 209.66322 210.05151 210.44281
 211.23810 212.41839 213.67069 215.45598 217.38628 219.43157 221.52886 223.61416
 225.67645 227.76274 229.86204 231.97033 234.10163 236.27592 238.53421 240.90651
 243.52980 245.78309 247.78739 249.55468 250.97398 252.09927 252.92356 253.24186
 253.28115 253.05744 252.41974 251.37003 249.97833 248.14162 246.05291 243.88821
 241.68150 239.48779 237.31009 235.15138 233.01368 230.88297 228.91126 227.07056
 225.35585 223.83014 222.46244 221.23673 220.12103 219.08332 218.18961 217.33291
 216.57720 215.75949 214.85979 214.22608 213.67838 214.33627 215.90292 218.60690
 221.62975 223.21594 223.84595 224.57823 225.51300 226.24815 226.53305 226.26428
 226.32961 228.49312 232.38976 237.10081 241.69318 246.02943 250.04843 253.76752
 257.14102 260.09879 262.73303 265.37857 267.75308 269.61688 271.44287 273.34784
 275.04562 276.54767 277.93307 279.15402 280.20645 281.22018 282.18246 283.05255
 283.82147 284.52112 285.13229 285.91119
 366.78100 356.33710 345.77120 334.63930 323.04440 311.24050 299.11260 286.91770
 274.63180 262.53090 250.54200 239.84509 229.96919 221.07529 213.25939 206.26349
 200.09959 195.03969 191.62379 189.66789 188.70699 188.77309 189.61019 190.92029
 192.64739 194.74449 197.00959 199.37069 201.81779 204.29989 206.38999 208.23408
 209.86218 211.00928 211.24038 211.47048 211.40958 211.11668 210.75178 210.38388
 210.00298 209.71508 209.52518 209.39128 209.32138 209.65448 210.04258 210.43368
 211.22878 212.40888 213.66098 215.44607 217.37617 219.42127 221.51837 223.60347
 225.66557 227.75167 229.85077 231.95887 234.08997 236.26407 238.52217 240.89427
 243.51737 245.77047 247.77457 249.54167 250.96077 252.08587 252.90997 253.22807
 253.26716 253.04326 252.40536 251.35546 249.96356 248.12666 246.03776 243.87286
 241.66596 239.47206 237.29416 235.13526 232.99736 230.86646 228.89456 227.05366
 225.33876 223.81286 222.44496 221.21906 220.10315 219.06525 218.17135 217.31445
 216.55855 215.74065 214.84075 214.20685 213.65895 214.32751 215.90707 218.73341
 221.62703 223.17940 223.90115 224.68941 225.63422 226.33504 226.51761 225.97133
 226.15862 228.45251 232.40392 237.08902 241.65550 246.02118 250.04646 253.77899
 257.16483 260.10370 262.71027 265.40347 267.79236 269.64401 271.41998 273.39352
 275.08734 276.57047 277.91806 279.12485 280.19043 281.21072 282.17044 283.02548
 283.78836 284.51797 285.17169 286.00482
 366.78100 356.33905 345.77510 334.64516 323.05221 311.25026 299.12431 286.93137
 274.64742 262.54847 250.56152 239.86658 229.99263 221.10068 213.28673 206.29278
 200.13084 195.07289 191.65894 189.70499 188.74605 188.81410 189.65315 190.96520
 192.69426 194.79331 197.06036 199.42341 201.87247 204.35652 206.44857 208.29462
 209.92467 211.07373 211.30678 211.53883 211.47988 211.18894 210.82599 210.46004
 210.08109 209.79515 209.60720 209.47525 209.40730 209.74235 210.13241 210.52546
 211.32251 212.50456 213.75862 215.54567 217.47772 219.52477 221.62383 223.71088
 225.77493 227.86298 229.96404 232.07409 234.20714 236.38319 238.64324 241.01730
 243.64235 245.89740 247.90345 249.67251 251.09356 252.22061 253.04666 253.36672
 253.40777 253.18582 252.54987 251.50192 250.11198 248.27703 246.19008 244.02713
 241.82219 239.63024 237.45429 235.29734 233.16140 231.03245 229.06250 227.22355
 225.51060 223.98666 222.62071 221.39676 220.28281 219.24687 218.35492 217.49997
 216.74602 215.93008 215.03213 214.40018 213.85423 214.44649 215.88023 218.77869
 221.76495 223.10782 223.71529 224.51752 225.58742 226.39127 226.57230 226.30371
 226.11116 228.21223 232.20605 237.00529 241.63667 246.00890 250.07753 253.83932
 257.24155 260.18668 262.76880 265.34955 267.73672 269.55252 271.40936 273.25681
 274.82941 276.28296 277.57486 278.72128 279.78073 280.81586 281.78738 282.66580
 283.47516 284.19592 284.82556 285.62799
 366.78100 356.34322 345.78344 334.65765 323.06887 311.27109 299.14931 286.96053
 274.68075 262.58596 250.60318 239.91240 230.04262 221.15484 213.34505 206.35527
 200.19749 195.14371 191.73393 189.78414 188.82936 188.90158 189.74480 191.06102
 192.79424 194.89745 197.16867 199.53589 201.98911 204.47733 206.57354 208.42376
 210.05798 211.21120 211.44842 211.68463 211.62985 211.34307 210.98429 210.62251
 210.24773 209.96594 209.78216 209.65438 209.59060 209.92982 210.32403 210.72125
 211.52247 212.70869 213.96691 215.75812 217.69434 219.74556 221.84878 223.94000
 226.00822 228.10043 230.20565 232.31987 234.45709 236.63731 238.90152 241.27974
 243.90896 246.16818 248.17840 249.95161 251.37683 252.50805 253.33827 253.66249
 253.70771 253.48992 252.85814 251.81436 250.42858 248.59780 246.51501 244.35623
 242.15545 239.96767 237.79589 235.64310 233.51132 231.38654 229.42076 227.58598
 225.87720 224.35741 222.99563 221.77585 220.66607 219.63429 218.74650 217.89572
 217.14594 216.33416 215.44038 214.81259 214.27081 214.69576 215.93214 218.76346
 221.73006 223.11961 223.96346 224.80545 225.70518 226.20137 226.41219 226.27148
 226.46147 228.59016 232.39194 236.95923 241.55258 245.92674 250.03534 253.82494
 257.22366 260.21136 262.89920 265.42938 267.56943 269.45975 271.33975 273.18256
 274.62210 275.85123 277.14786 278.65057 279.98813 281.17151 282.25119 283.22931
 284.10901 284.89236 285.57672 286.44882
 366.78100 356.34248 345.78196 334.65544 323.06592 311.26741 299.14489 286.95537
 274.67485 262.57933 250.59581 239.90429 230.03377 221.14525 213.33474 206.34422
 200.18570 195.13118 191.72066 189.77014 188.81462 188.88610 189.72858 191.04407
 192.77655 194.87903 197.14951 199.51599 201.96847 204.45595 206.55143 208.40092
 210.03440 211.18688 211.42336 211.65884 211.60332 211.31580 210.95628 210.59376
 210.21825 209.93573 209.75121 209.62269 209.55817 209.89665 210.29013 210.68661
 211.48709 212.67258 213.93006 215.72054 217.65602 219.70650 221.80898 223.89946
 225.96694 228.05842 230.16291 232.27639 234.41287 236.59235 238.85583 241.23331
 243.86179 246.12027 248.12975 249.90224 251.32672 252.45720 253.28668 253.61016
 253.65464 253.43612 252.80360 251.75908 250.37257 248.54105 246.45753 244.29801
 242.09649 239.90797 237.73545 235.58193 233.44941 231.32390 229.35738 227.52186
 225.81234 224.29182 222.92930 221.70878 220.59826 219.56575 218.67723 217.82571
 217.07519 216.26267 215.36815 214.73963 214.19711 214.70345 216.13922 218.67563
 221.57309 223.41679 224.41325 225.15643 225.90268 225.89220 226.53197 225.60539
 225.98178 228.43536 232.47353 237.10838 241.74440 246.16660 250.31226 254.16150
 257.56915 260.59784 263.32990 265.80621 267.92389 269.74670 271.34894 273.18021
 274.60242 276.75119 278.69647 280.40457 281.88278 283.19061 284.38382 285.46475
 286.43698 287.30273 288.05902 289.02286
 366.78100 356.33972 345.77644 334.64715 323.05487 311.25359 299.12831 286.93602
 274.65274 262.55446 250.56818 239.87390 230.00061 221.10933 213.29605 206.30277
 200.14148 195.08420 191.67092 189.71764 188.75936 188.82807 189.66779 190.98051
 192.71023 194.80994 197.07766 199.44138 201.89110 204.37582 206.46853 208.31525
 209.94597 211.09569 211.32940 211.56212 211.50384 211.21356 210.85128 210.48599
 210.10771 209.82243 209.63515 209.50386 209.43658 209.77230 210.16302 210.55673
 211.35445 212.53717 213.79189 215.57961 217.51232 219.56004 221.65976 223.74748
 225.81219 227.90091 230.00263 232.11335 234.24707 236.42378 238.68450 241.05922
 243.68494 245.94065 247.94737 249.71709 251.13881 252.26653 253.09324 253.41396
 253.45568 253.23440 252.59911 251.55183 250.16255 248.32827 246.24199 244.07970
 241.87542 239.68414 237.50886 235.35257 233.21729 231.08901 229.11973 227.28145
 225.56916 224.04588 222.68060 221.45732 220.34403 219.30875 218.41747 217.56319
 216.80991 215.99462 215.09734 214.46606 213.92078 214.57689 216.28836 218.65083
 221.32378 223.45522 224.59991 225.23804 225.88126 226.29958 226.17125 225.25096
 225.58086 228.15773 232.31067 237.00302 241.67935 246.13237 250.33363 254.23364
 257.73584 260.87805 263.68225 266.29733 268.63626 270.56680 272.20151 273.68304
 275.15744 276.99847 278.97119 280.77197 282.33038 283.70920 284.96713 286.10672
 287.13168 288.04440 288.84174 289.85785
 366.78100 356.34016 345.77732 334.64848 323.05664 311.25580 299.13096 286.93912
 274.65627 262.55843 250.57259 239.87875 230.00591 221.11507 213.30223 206.30939
 200.14855 195.09171 191.67887 189.72603 188.76819 188.83735 189.67751 190.99067
 192.72082 194.82098 197.08914 199.45330 201.90346 204.38862 206.48178 208.32894
 209.96010 211.11026 211.34442 211.57758 211.51974 211.22990 210.86806 210.50321
 210.12537 209.84053 209.65369 209.52285 209.45601 209.79217 210.18333 210.57749
 211.37565 212.55881 213.81397 215.60213 217.53529 219.58345 221.68361 223.77176
 225.83692 227.92608 230.02824 232.13940 234.27356 236.45072 238.71188 241.08704
 243.71320 245.96936 247.97652 249.74668 251.16884 252.29700 253.12415 253.44531
 253.48747 253.26663 252.63179 251.58495 250.19611 248.36227 246.27643 244.11459
 241.91075 239.71991 237.54507 235.38923 233.25439 231.12655 229.15770 227.31986
 225.60802 224.08518 222.72034 221.49750 220.38466 219.34982 218.45898 217.60514
 216.85230 216.03746 215.14062 214.50978 213.96494 214.60185 216.26926 218.71457
 221.29851 223.35788 224.54884 225.09389 225.73808 226.46957 226.46188 225.49940
 225.60939 228.02998 232.19066 236.87582 241.52744 245.95587 250.13896 254.01392
 257.50586 260.59256 263.40488 266.04126 268.39639 270.39777 272.16614 273.78711
 275.33121 277.09613 278.81500 280.55969 282.06958 283.40546 284.62421 285.72833
 286.72137 287.60568 288.37817 289.36267
 366.78100 356.34089 345.77878 334.65068 323.05957 311.25946 299.13535 286.94425
 274.66214 262.56503 250.57992 239.88681 230.01471 221.12460 213.31249 206.32038
 200.16028 195.10417 191.69206 189.73995 188.78284 188.85274 189.69363 191.00752
 192.73841 194.83931 197.10820 199.47309 201.92398 204.40987 206.50377 208.35166
 209.98355 211.13444 211.36934 211.60323 211.54612 211.25701 210.89590 210.53180
 210.15469 209.87058 209.68447 209.55437 209.48826 209.82515 210.21704 210.61193
 211.41083 212.59472 213.85061 215.63950 217.57340 219.62229 221.72318 223.81207
 225.87797 227.96786 230.07075 232.18264 234.31753 236.49543 238.75732 241.13321
 243.76010 246.01700 248.02489 249.79578 251.21867 252.34756 253.17546 253.49735
 253.54024 253.32013 252.68603 251.63992 250.25181 248.41870 246.33359 244.17249
 241.96938 239.77927 237.60516 235.45006 233.31595 231.18884 229.22073 227.38362
 225.67252 224.15041 222.78630 221.56419 220.45209 219.41798 218.52787 217.67476
 216.92265 216.10855 215.21244 214.58233 214.03822 214.65997 216.28735 218.67764
 221.37157 223.39726 224.58604 224.99886 225.52138 226.31754 226.48715 225.67096
 225.71701 228.06160 232.20143 236.89253 241.55750 245.99556 250.20680 254.10091
 257.58356 260.67218 263.49094 266.10641 268.43427 270.38397 272.08856 273.68784
 275.30338 277.13382 278.93036 280.67181 282.17889 283.51227 284.72876 285.83084
 286.82202 287.70468 288.47577 289.45840
 366.78100 356.34115 345.77931 334.65146 323.06061 311.26076 299.13692 286.94607
 274.66422 262.56737 250.58253 239.88968 230.01783 221.12799 213.31614 206.32429
 200.16444 195.10860 191.69675 189.74490 188.78805 188.85821 189.69936 191.01351
 192.74466 194.84582 197.11497 199.48012 201.93128 204.41743 206.51158 208.35973
 209.99189 211.14304 211.37819 211.61234 211.55550 211.26665 210.90580 210.54196
 210.16511 209.88126 209.69541 209.56557 209.49972 209.83687 210.22902 210.62418
 211.42333 212.60748 213.86364 215.65279 217.58694 219.63609 221.73725 223.82640
 225.89255 227.98270 230.08586 232.19801 234.33316 236.51131 238.77347 241.14962
 243.77677 246.03393 248.04208 249.81323 251.23638 252.36554 253.19369 253.51584
 253.55899 253.33915 252.70530 251.65945 250.27161 248.43876 246.35391 244.19306
 241.99022 239.80037 237.62652 235.47167 233.33783 231.21098 229.24313 227.40628
 225.69544 224.17359 222.80974 221.58790 220.47605 219.44220 218.55235 217.69951
 216.94766 216.13381 215.23796 214.60812 214.06427 214.69156 216.30223 218.64877
 221.32083 223.38112 224.66577 225.02582 225.35783 226.18549 226.36287 225.62355
 225.82800 228.07069 232.18474 236.86702 241.54172 246.02441 250.27354 254.21381
 257.68353 260.83719 263.68362 266.30521 268.67001 270.67429 272.40710 273.98621
 275.40448 276.98288 278.57825 280.15903 281.62689 282.92557 284.11041 285.18378
 286.14920 287.00888 287.75989 288.71695
 366.78100 356.34172 345.78045 334.65317 323.06289 311.26361 299.14034 286.95006
 274.66878 262.57250 250.58823 239.89595 230.02467 221.13540 213.32412 206.33284
 200.17356 195.11829 191.70701 189.75573 188.79946 188.87018 189.71190 191.02662
 192.75835 194.86007 197.12979 199.49551 201.94724 204.43396 206.52868 208.37741
 210.01013 211.16185 211.39757 211.63230 211.57602 211.28774 210.92747 210.56419
 210.18791 209.90463 209.71936 209.59008 209.52480 209.86252 210.25525 210.65097
 211.45069 212.63542 213.89214 215.68186 217.61658 219.66631 221.76803 223.85775
 225.92448 228.01520 230.11892 232.23164 234.36737 236.54609 238.80881 241.18553
 243.81326 246.07098 248.07970 249.85143 251.27515 252.40487 253.23359 253.55632
 253.60004 253.38076 252.74748 251.70221 250.31493 248.48265 246.39838 244.23810
 242.03582 239.84654 237.67327 235.51899 233.38571 231.25944 229.29216 227.45588
 225.74560 224.22433 222.86105 221.63977 220.52849 219.49522 218.60594 217.75366
 217.00239 216.18911 215.29383 214.66455 214.12128 214.74243 216.34212 218.65874
 221.24948 223.37927 224.75671 225.10651 225.42017 226.20618 226.22899 225.44914
 225.71167 228.02432 232.13942 236.82425 241.50459 246.01041 250.29144 254.25960
 257.76501 260.89957 263.71744 266.30972 268.64981 270.64819 272.38232 273.95175
 275.35657 276.95554 278.56540 280.18558 281.64798 282.94183 284.12225 285.19165
 286.15344 287.00995 287.75815 288.71164
 366.78100 356.34182 345.78065 334.65347 323.06330 311.26412 299.14095 286.95077
 274.66960 262.57342 250.58924 239.89707 230.02589 221.13672 213.32554 206.33437
 200.17519 195.12001 191.70884 189.75766 188.80149 188.87231 189.71414 191.02896
 192.76079 194.86261 197.13243 199.49826 201.95008 204.43691 206.53173 208.38056
 210.01338 211.16520 211.40103 211.63585 211.57968 211.29150 210.93133 210.56815
 210.19198 209.90880 209.72362 209.59445 209.52927 209.86710 210.25992 210.65575
 211.45557 212.64040 213.89722 215.68704 217.62187 219.67169 221.77352 223.86334
 225.93017 228.02099 230.12481 232.23764 234.37346 236.55229 238.81511 241.19194
 243.81976 246.07759 248.08641 249.85823 251.28206 252.41188 253.24071 253.56353
 253.60736 253.38818 252.75501 251.70983 250.32265 248.49048 246.40630 244.24613
 242.04395 239.85478 237.68160 235.52742 233.39425 231.26807 229.30090 227.46472
 225.75455 224.23337 222.87020 221.64902 220.53784 219.50467 218.61549 217.76332
 217.01214 216.19897 215.30379 214.67461 214.13144 214.77428 216.43210 218.65192
 221.16562 223.41582 224.79512 225.14781 225.57123 226.29207 226.23030 225.30617
 225.46678 227.92351 232.09785 236.77954 241.46637 245.98788 250.31122 254.33008
 257.91806 261.06662 263.89868 266.45706 268.78369 270.78473 272.45895 273.96469
 275.54663 277.39017 279.26782 281.05759 282.60648 283.97687 285.22711 286.35977
 287.37845 288.28561 289.07806 290.08798
 366.78100 356.34126 345.77952 334.65179 323.06105 311.26131 299.13757 286.94683
 274.66509 262.56836 250.58362 239.89088 230.01914 221.12940 213.31767 206.32593
 200.16619 195.11045 191.69871 189.74697 188.79024 188.86050 189.70176 191.01602
 192.74728 194.84855 197.11781 199.48307 201.93433 204.42059 206.51485 208.36312
 209.99538 211.14664 211.38190 211.61616 211.55942 211.27069 210.90995 210.54621
 210.16947 209.88573 209.70000 209.57026 209.50452 209.84178 210.23404 210.62930
 211.42857 212.61283 213.86909 215.65835 217.59261 219.64188 221.74314 223.83240
 225.89866 227.98892 230.09218 232.20445 234.33971 236.51797 238.78023 241.15649
 243.78376 246.04102 248.04928 249.82054 251.24380 252.37306 253.20133 253.52359
 253.56685 253.34711 252.71337 251.66764 250.27990 248.44716 246.36242 244.20168
 241.99894 239.80921 237.63547 235.48073 233.34699 231.22025 229.25251 227.41578
 225.70504 224.18330 222.81956 221.59782 220.48609 219.45235 218.56261 217.70987
 216.95813 216.14439 215.24866 214.61892 214.07518 214.76205 216.48866 218.63980
 221.02971 223.33505 224.67986 225.09262 225.54825 226.45392 226.47231 225.35699
 225.53098 227.87993 232.01840 236.66151 241.31174 245.84076 250.18364 254.21103
 257.81909 261.03818 263.97458 266.64474 269.06131 271.16028 272.96072 274.51987
 275.83261 277.53485 279.16467 280.91541 282.54782 283.99210 285.30978 286.50351
 287.57715 288.53320 289.36841 290.43277
 366.78100 356.34121 345.77942 334.65164 323.06085 311.26106 299.13727 286.94649
 274.66470 262.56791 250.58312 239.89034 230.01855 221.12876 213.31697 206.32519
 200.16540 195.10961 191.69782 189.74603 188.78925 188.85946 189.70067 191.01488
 192.74610 194.84731 197.11652 199.48173 201.93295 204.41916 206.51337 208.36158
 209.99380 211.14501 211.38022 211.61443 211.55765 211.26886 210.90807 210.54428
 210.16749 209.88371 209.69792 209.56813 209.50234 209.83956 210.23177 210.62698
 211.42619 212.61041 213.86662 215.65583 217.59004 219.63926 221.74047 223.82968
 225.89589 227.98610 230.08932 232.20153 234.33674 236.51495 238.77717 241.15338
 243.78059 246.03780 248.04602 249.81723 251.24044 252.36965 253.19787 253.52008
 253.56329 253.34350 252.70971 251.66393 250.27614 248.44335 246.35856 244.19778
 241.99499 239.80520 237.63141 235.47663 233.34284 231.21605 229.24826 227.41148
 225.70069 224.17890 222.81511 221.59332 220.48154 219.44775 218.55796 217.70517
 216.95339 216.13960 215.24381 214.61402 214.07024 214.76183 216.46391 218.71722
 220.86549 223.00121 224.55634 224.99724 225.44507 226.54079 226.91219 225.26118
 225.60286 227.78508 231.94809 236.58429 241.20622 245.71541 250.02094 253.99763
 257.57205 260.81183 263.80981 266.56311 269.02914 271.21680 273.16809 274.88354
 276.34619 277.67700 279.17590 280.57785 281.80893 282.94867 284.03906 285.02689
 285.91534 286.70648 287.39764 288.27841
 366.78100 356.34073 345.77846 334.65019 323.05893 311.25866 299.13439 286.94312
 274.66085 262.56358 250.57832 239.88505 230.01278 221.12251 213.31024 206.31797
 200.15770 195.10144 191.68917 189.73690 188.77963 188.84936 189.69009 191.00383
 192.73456 194.83529 197.10402 199.46875 201.91948 204.40522 206.49895 208.34668
 209.97841 211.12914 211.36387 211.59760 211.54034 211.25107 210.88980 210.52553
 210.14826 209.86399 209.67773 209.54746 209.48119 209.81792 210.20965 210.60438
 211.40311 212.58685 213.84258 215.63131 217.56504 219.61377 221.71450 223.80324
 225.86897 227.95870 230.06143 232.17316 234.30789 236.48563 238.74736 241.12309
 243.74982 246.00655 248.01428 249.78501 251.20775 252.33648 253.16421 253.48594
 253.52867 253.30840 252.67414 251.62787 250.23960 248.40633 246.32106 244.15979
 241.95652 239.76626 237.59199 235.43672 233.30245 231.17518 229.20691 227.36965
 225.65838 224.13611 222.77184 221.54957 220.43730 219.40303 218.51277 217.65950
 216.90723 216.09296 215.19669 214.56642 214.02216 214.73891 216.45465 218.76875
 220.92844 222.86755 224.46400 224.98074 225.51385 226.57579 226.86819 225.14470
 225.53326 227.74414 231.92737 236.57167 241.20784 245.73151 250.04970 254.02576
 257.57431 260.76199 263.71524 266.44794 268.92432 271.14359 273.15823 274.97433
 276.54861 277.90210 279.09695 280.31332 281.50418 282.53287 283.46545 284.36816
 285.23297 286.00305 286.67578 287.53311
 366.78100 356.34016 345.77732 334.64848 323.05664 311.25581 299.13097 286.93913
 274.65629 262.55845 250.57261 239.87877 230.00593 221.11509 213.30225 206.30942
 200.14858 195.09174 191.67890 189.72606 188.76822 188.83738 189.67754 190.99070
 192.72086 194.82103 197.08919 199.45335 201.90351 204.38867 206.48183 208.32899
 209.96015 211.11031 211.34448 211.57764 211.51980 211.22996 210.86812 210.50328
 210.12544 209.84060 209.65376 209.52292 209.45609 209.79225 210.18341 210.57757
 211.37573 212.55889 213.81405 215.60221 217.53537 219.58353 221.68370 223.77186
 225.83702 227.92618 230.02834 232.13950 234.27366 236.45082 238.71198 241.08714
 243.71331 245.96947 247.97663 249.74679 251.16895 252.29711 253.12427 253.44543
 253.48759 253.26676 252.63192 251.58508 250.19624 248.36240 246.27656 244.11472
 241.91088 239.72004 237.54520 235.38937 233.25453 231.12669 229.15785 227.32001
 225.60817 224.08533 222.72049 221.49765 220.38481 219.34998 218.45914 217.60530
 216.85246 216.03762 215.14078 214.50994 213.96510 214.71660 216.49208 218.76215
 220.98541 222.88271 224.37955 224.98643 225.61758 226.60333 226.71501 225.17705
 225.47137 227.84842 231.94823 236.57436 241.22382 245.77043 250.11166 254.10426
 257.64185 260.79858 263.72781 266.42880 268.87152 271.06180 273.08524 274.94498
 276.56970 277.95700 279.15860 280.21872 281.28839 282.26157 283.02560 283.87509
 284.68192 285.47354 286.16632 287.04916
 366.78100 356.34151 345.78002 334.65253 323.06204 311.26255 299.13906 286.94857
 274.66709 262.57060 250.58611 239.89362 230.02213 221.13264 213.32115 206.32966
 200.17017 195.11468 191.70319 189.75170 188.79521 188.86572 189.70723 191.02175
 192.75326 194.85477 197.12428 199.48979 201.94130 204.42781 206.52232 208.37083
 210.00334 211.15485 211.39036 211.62487 211.56838 211.27989 210.91941 210.55592
 210.17943 209.89594 209.71045 209.58096 209.51547 209.85298 210.24549 210.64100
 211.44051 212.62502 213.88153 215.67104 217.60555 219.65507 221.75658 223.84609
 225.91260 228.00311 230.10662 232.21913 234.35464 236.53315 238.79566 241.17217
 243.79968 246.05719 248.06570 249.83721 251.26073 252.39024 253.21875 253.54126
 253.58477 253.36528 252.73179 251.68630 250.29881 248.46632 246.38183 244.22134
 242.01885 239.82936 237.65588 235.50139 233.36790 231.24141 229.27392 227.43743
 225.72694 224.20545 222.84196 221.62047 220.50898 219.47549 218.58600 217.73351
 216.98202 216.16854 215.27305 214.64356 214.10007 214.79402 216.43356 218.86586
 220.93184 222.76472 224.34534 224.99237 225.65660 226.58792 226.61852 225.22314
 225.52032 227.89607 231.96284 236.56900 241.22139 245.77647 250.11784 254.10399
 257.62799 260.79242 263.74094 266.44302 268.86252 271.01047 273.00931 274.87820
 276.51736 277.91168 279.10330 280.12918 281.19366 282.16696 282.70972 283.57526
 284.37445 285.14380 285.82541 286.69403
 366.78100 356.34252 345.78204 334.65556 323.06608 311.26761 299.14513 286.95565
 274.67517 262.57969 250.59621 239.90473 230.03425 221.14577 213.33530 206.34482
 200.18634 195.13186 191.72138 189.77090 188.81542 188.88694 189.72946 191.04499
 192.77751 194.88003 197.15055 199.51707 201.96959 204.45711 206.55263 208.40215
 210.03568 211.18820 211.42472 211.66024 211.60476 211.31728 210.95780 210.59532
 210.21984 209.93737 209.75289 209.62441 209.55993 209.89845 210.29197 210.68849
 211.48901 212.67453 213.93206 215.72258 217.65810 219.70862 221.81114 223.90166
 225.96918 228.06070 230.16522 232.27875 234.41527 236.59479 238.85831 241.23583
 243.86435 246.12287 248.13239 249.90491 251.32944 252.45996 253.28948 253.61300
 253.65752 253.43904 252.80656 251.76208 250.37560 248.54413 246.46065 244.30117
 242.09969 239.91121 237.73873 235.58525 233.45277 231.32729 229.36082 227.52534
 225.81586 224.29538 222.93290 221.71242 220.60194 219.56946 218.68098 217.82951
 217.07903 216.26655 215.37207 214.74359 214.20111 214.85332 216.39423 218.93498
 220.96376 222.70268 224.27669 225.01126 225.69049 226.43301 226.48798 225.41582
 225.67384 228.02765 231.98482 236.55989 241.20235 245.75461 250.08923 254.06711
 257.59845 260.78186 263.74371 266.45068 268.86182 270.97943 272.95316 274.81693
 276.45615 277.84589 279.02911 280.05209 281.06705 282.12079 282.82126 283.48938
 284.25430 284.97351 285.67880 286.57761
 366.78100 356.34192 345.78084 334.65375 323.06367 311.26459 299.14151 286.95143
 274.67035 262.57426 250.59018 239.89810 230.02702 221.13794 213.32686 206.33577
 200.17669 195.12161 191.71053 189.75945 188.80336 188.87428 189.71620 191.03112
 192.76304 194.86496 197.13487 199.50079 201.95271 204.43963 206.53455 208.38347
 210.01638 211.16830 211.40422 211.63914 211.58306 211.29497 210.93489 210.57181
 210.19573 209.91265 209.72757 209.59848 209.53340 209.87132 210.26424 210.66016
 211.46008 212.64499 213.90191 215.69183 217.62675 219.67667 221.77858 223.86850
 225.93542 228.02634 230.13026 232.24318 234.37909 236.55801 238.82093 241.19785
 243.82577 246.08369 248.09260 249.86452 251.28844 252.41836 253.24728 253.57019
 253.61411 253.39503 252.76195 251.71687 250.32979 248.49770 246.41362 244.25354
 242.05146 239.86238 237.68930 235.53521 233.40213 231.27605 229.30897 227.47289
 225.76280 224.24172 222.87864 221.65756 220.54648 219.51340 218.62431 217.77223
 217.02115 216.20807 215.31299 214.68391 214.14082 214.83125 216.46248 218.88245
 221.04166 222.72348 224.16077 224.98871 225.76727 226.33534 226.31081 225.54761
 225.80783 228.12508 231.99435 236.55440 241.18848 245.74193 250.07932 254.05925
 257.59549 260.77988 263.73053 266.43427 268.84525 270.96326 272.92181 274.75754
 276.37665 277.75259 278.93201 279.96353 281.03113 282.09186 282.97891 283.42075
 284.12372 284.82275 285.45920 286.31720
 366.78100 356.34147 345.77994 334.65241 323.06188 311.26235 299.13881 286.94828
 274.66675 262.57022 250.58569 239.89316 230.02163 221.13210 213.32057 206.32904
 200.16950 195.11397 191.70244 189.75091 188.79438 188.86485 189.70632 191.02079
 192.75226 194.85373 197.12319 199.48866 201.94013 204.42660 206.52107 208.36954
 210.00201 211.15348 211.38895 211.62342 211.56688 211.27835 210.91782 210.55429
 210.17776 209.89423 209.70870 209.57917 209.51364 209.85111 210.24357 210.63904
 211.43851 212.62298 213.87945 215.66892 217.60339 219.65286 221.75433 223.84380
 225.91026 228.00073 230.10420 232.21667 234.35214 236.53061 238.79308 241.16955
 243.79702 246.05449 248.06295 249.83442 251.25789 252.38736 253.21583 253.53830
 253.58177 253.36224 252.72871 251.68318 250.29565 248.46311 246.37858 244.21805
 242.01552 239.82599 237.65246 235.49793 233.36440 231.23787 229.27034 227.43380
 225.72327 224.20174 222.83821 221.61668 220.50515 219.47162 218.58209 217.72956
 216.97803 216.16449 215.26896 214.63943 214.09590 214.81876 216.52661 218.81564
 221.09340 222.75143 224.01111 224.89372 225.84802 226.30542 226.13327 225.57155
 225.93875 228.22520 232.03267 236.55707 241.18829 245.74625 250.08998 254.07596
 257.60825 260.77698 263.71222 266.41910 268.84387 270.97705 272.93240 274.74173
 276.33746 277.70435 278.88669 279.93250 280.91391 281.92221 282.89880 283.52023
 284.10837 284.79135 285.42374 286.27490
 366.78100 356.34171 345.78041 334.65312 323.06282 311.26353 299.14023 286.94994
 274.66864 262.57235 250.58805 239.89576 230.02446 221.13517 213.32388 206.33258
 200.17329 195.11799 191.70670 189.75540 188.79911 188.86981 189.71152 191.02622
 192.75793 194.85963 197.12934 199.49505 201.94675 204.43346 206.52816 208.37687
 210.00957 211.16128 211.39698 211.63169 211.57539 211.28710 210.92680 210.56351
 210.18721 209.90392 209.71863 209.58933 209.52404 209.86174 210.25445 210.65015
 211.44986 212.63456 213.89127 215.68097 217.61568 219.66538 221.76709 223.85680
 225.92350 228.01421 230.11791 232.23062 234.36632 236.54503 238.80773 241.18444
 243.81214 246.06985 248.07855 249.85026 251.27397 252.40367 253.23238 253.55508
 253.59879 253.37949 252.74620 251.70090 250.31361 248.48131 246.39702 244.23672
 242.03443 239.84514 237.67184 235.51755 233.38425 231.25796 229.29066 227.45437
 225.74407 224.22278 222.85948 221.63819 220.52689 219.49360 218.60431 217.75201
 217.00072 216.18742 215.29213 214.66283 214.11954 214.84261 216.55096 218.77966
 221.10242 222.81342 224.02051 224.79759 225.66225 226.07468 225.99751 225.84477
 226.24246 228.25511 232.02867 236.56113 241.19405 245.75755 250.10382 254.09056
 257.61517 260.77100 263.69714 266.41171 268.84845 270.99496 272.94904 274.74048
 276.31641 277.67957 278.87491 279.95145 280.88092 281.88922 282.88458 283.76569
 284.16913 284.83035 285.45670 286.30618
 366.78100 356.34208 345.78117 334.65425 323.06434 311.26542 299.14251 286.95259
 274.67168 262.57576 250.59185 239.89993 230.02902 221.14010 213.32919 206.33827
 200.17936 195.12444 191.71353 189.76261 188.80670 188.87778 189.71987 191.03495
 192.76704 194.86912 197.13921 199.50529 201.95738 204.44446 206.53955 208.38863
 210.02172 211.17380 211.40989 211.64497 211.58905 211.30114 210.94122 210.57831
 210.20239 209.91948 209.73456 209.60565 209.54073 209.87882 210.27190 210.66799
 211.46807 212.65316 213.91024 215.70033 217.63541 219.68550 221.78758 223.87767
 225.94475 228.03584 230.13992 232.25301 234.38909 236.56818 238.83126 241.20835
 243.83643 246.09452 248.10360 249.87569 251.29977 252.42986 253.25894 253.58203
 253.62611 253.40719 252.77428 251.72936 250.34245 248.51053 246.42662 244.26670
 242.06479 239.87587 237.70296 235.54904 233.41613 231.29021 229.32330 227.48738
 225.77747 224.25655 222.89364 221.67272 220.56181 219.52889 218.63998 217.78806
 217.03715 216.22423 215.32932 214.70040 214.15749 214.87425 216.56769 218.76546
 221.06847 222.86070 224.11383 224.76346 225.39941 225.77695 225.90909 226.08534
 226.46878 228.26152 232.02518 236.57555 241.21500 245.78581 250.13232 254.11455
 257.63110 260.77466 263.69171 266.40527 268.84314 270.99469 272.94580 274.72531
 276.29105 277.65894 278.87256 279.98523 280.92728 281.94318 282.93811 283.84436
 284.43747 285.09485 285.70261 286.52756
 366.78100 356.34219 345.78138 334.65457 323.06476 311.26595 299.14314 286.95333
 274.67252 262.57671 250.59290 239.90108 230.03027 221.14146 213.33065 206.33984
 200.18103 195.12622 191.71541 189.76460 188.80879 188.87998 189.72217 191.03736
 192.76955 194.87174 197.14193 199.50812 201.96031 204.44750 206.54269 208.39188
 210.02507 211.17725 211.41344 211.64863 211.59282 211.30501 210.94520 210.58239
 210.20658 209.92377 209.73896 209.61015 209.54534 209.88353 210.27672 210.67291
 211.47310 212.65829 213.91548 215.70567 217.64086 219.69105 221.79323 223.88342
 225.95061 228.04180 230.14599 232.25918 234.39537 236.57456 238.83775 241.21494
 243.84313 246.10132 248.11051 249.88270 251.30689 252.43708 253.26627 253.58946
 253.63365 253.41484 252.78203 251.73722 250.35040 248.51859 246.43478 244.27497
 242.07316 239.88435 237.71154 235.55773 233.42492 231.29911 229.33230 227.49649
 225.78668 224.26587 222.90306 221.68225 220.57144 219.53863 218.64982 217.79801
 217.04720 216.23438 215.33957 214.71076 214.16795 214.89091 216.59898 218.75777
 221.01393 222.89282 224.20071 224.74603 225.15776 225.49660 225.84763 226.21288
 226.57838 228.28802 232.05267 236.60948 241.25513 245.83241 250.17587 254.15015
 257.65961 260.79324 263.69763 266.40121 268.83362 270.98486 272.93079 274.69632
 276.25305 277.62735 278.86243 280.01184 281.02921 282.06259 283.04929 283.95132
 284.74615 285.44028 286.04672 286.84015
 366.78100 356.34201 345.78101 334.65402 323.06402 311.26503 299.14204 286.95204
 274.67105 262.57505 250.59106 239.89907 230.02807 221.13908 213.32808 206.33709
 200.17810 195.12310 191.71211 189.76111 188.80512 188.87613 189.71813 191.03314
 192.76514 194.86715 197.13716 199.50316 201.95517 204.44217 206.53718 208.38619
 210.01919 211.17120 211.40720 211.64221 211.58621 211.29822 210.93823 210.57523
 210.19924 209.91624 209.73125 209.60226 209.53726 209.87527 210.26827 210.66428
 211.46429 212.64929 213.90630 215.69630 217.63131 219.68132 221.78332 223.87333
 225.94033 228.03134 230.13535 232.24835 234.38436 236.56336 238.82637 241.20338
 243.83138 246.08939 248.09839 249.87040 251.29441 252.42441 253.25342 253.57642
 253.62043 253.40144 252.76844 251.72345 250.33645 248.50446 246.42047 244.26047
 242.05848 239.86948 237.69649 235.54250 233.40950 231.28351 229.31651 227.48052
 225.77053 224.24953 222.88654 221.66554 220.55455 219.52156 218.63256 217.78057
 217.02957 216.21658 215.32159 214.69259 214.14960 214.89174 216.64516 218.74883
 220.95100 222.91838 224.26826 224.72627 224.95149 225.23343 225.77359 226.24635
 226.62660 228.35815 232.11249 236.65749 241.30623 245.88748 250.22694 254.19115
 257.69498 260.81998 263.71085 266.40234 268.82825 270.98633 272.92834 274.68158
 276.22974 277.61002 278.86700 280.05341 281.12048 282.15524 283.11267 283.99576
 284.81979 285.58090 286.19940 287.00055
 366.78100 356.34174 345.78047 334.65321 323.06294 311.26368 299.14041 286.95015
 274.66888 262.57262 250.58835 239.89609 230.02482 221.13556 213.32429 206.33303
 200.17376 195.11850 191.70724 189.75597 188.79971 188.87044 189.71218 191.02691
 192.75865 194.86038 197.13012 199.49585 201.94759 204.43432 206.52906 208.37779
 210.01053 211.16226 211.39800 211.63273 211.57647 211.28821 210.92794 210.56468
 210.18841 209.90515 209.71988 209.59062 209.52535 209.86309 210.25582 210.65156
 211.45129 212.63603 213.89276 215.68250 217.61723 219.66697 221.76871 223.85844
 225.92518 228.01591 230.11965 232.23238 234.36812 236.54685 238.80959 241.18632
 243.81406 246.07179 248.08053 249.85226 251.27600 252.40573 253.23447 253.55720
 253.60094 253.38168 252.74841 251.70315 250.31588 248.48362 246.39935 244.23909
 242.03682 239.84756 237.67429 235.52003 233.38676 231.26050 229.29323 227.45697
 225.74670 224.22544 222.86218 221.64091 220.52965 219.49638 218.60712 217.75485
 217.00359 216.19032 215.29506 214.66579 214.12253 214.88739 216.69444 218.74203
 220.88808 222.92850 224.31973 224.70534 224.77672 224.98781 225.67189 226.22527
 226.65802 228.45827 232.18861 236.71106 241.36275 245.94916 250.28662 254.24094
 257.73911 260.85446 263.72791 266.40204 268.82336 270.99109 272.93179 274.67432
 276.21515 277.60233 278.87903 280.06134 281.22009 282.26764 283.22736 284.10687
 284.91895 285.66647 286.30594 287.10886
 366.78100 356.34159 345.78018 334.65277 323.06236 311.26296 299.13955 286.94914
 274.66773 262.57132 250.58691 239.89450 230.02309 221.13369 213.32228 206.33087
 200.17146 195.11605 191.70464 189.75323 188.79682 188.86742 189.70901 191.02360
 192.75519 194.85678 197.12637 199.49196 201.94355 204.43015 206.52474 208.37333
 210.00592 211.15751 211.39310 211.62769 211.57128 211.28288 210.92247 210.55906
 210.18265 209.89924 209.71383 209.58442 209.51901 209.85661 210.24920 210.64479
 211.44438 212.62897 213.88556 215.67515 217.60974 219.65934 221.76093 223.85052
 225.91711 228.00770 230.11129 232.22388 234.35947 236.53807 238.80066 241.17725
 243.80484 246.06243 248.07102 249.84261 251.26620 252.39580 253.22439 253.54698
 253.59057 253.37116 252.73775 251.69234 250.30493 248.47253 246.38812 244.22771
 242.02530 239.83589 237.66248 235.50807 233.37466 231.24826 229.28085 227.44444
 225.73403 224.21262 222.84921 221.62780 220.51639 219.48299 218.59358 217.74117
 216.98976 216.17635 215.28094 214.65153 214.10812 214.88945 216.73541 218.74200
 220.83424 222.91922 224.35126 224.67743 224.62451 224.76663 225.54576 226.18059
 226.69182 228.56549 232.26671 236.76648 241.42485 246.01985 250.35689 254.30142
 257.79279 260.89639 263.74835 266.40356 268.82028 270.99649 272.93478 274.66718
 276.20309 277.60126 278.90186 280.14169 281.31406 282.36832 283.33179 284.21283
 285.01855 285.75272 286.39502 287.20279
 366.78100 356.34167 345.78033 334.65300 323.06266 311.26333 299.14000 286.94966
 274.66833 262.57199 250.58766 239.89533 230.02399 221.13466 213.32332 206.33199
 200.17266 195.11732 191.70599 189.75465 188.79832 188.86899 189.71065 191.02532
 192.75698 194.85865 197.12832 199.49398 201.94565 204.43231 206.52698 208.37565
 210.00831 211.15998 211.39564 211.63031 211.57398 211.28564 210.92531 210.56197
 210.18564 209.90231 209.71697 209.58764 209.52230 209.85997 210.25264 210.64830
 211.44797 212.63263 213.88930 215.67897 217.61363 219.66330 221.76496 223.85463
 225.92130 228.01196 230.11563 232.22829 234.36396 236.54263 238.80529 241.18196
 243.80962 246.06729 248.07596 249.84762 251.27129 252.40095 253.22962 253.55229
 253.59595 253.37662 252.74328 251.69795 250.31062 248.47828 246.39395 244.23361
 242.03128 239.84195 237.66861 235.51428 233.38094 231.25461 229.28728 227.45094
 225.74061 224.21927 222.85594 221.63461 220.52327 219.48994 218.60060 217.74827
 216.99694 216.18360 215.28827 214.65893 214.11560 214.90331 216.76437 218.74913
 220.79060 222.89436 224.35954 224.63589 224.48509 224.57440 225.40437 226.12619
 226.73082 228.66690 232.34196 236.82658 241.49498 246.09813 250.43431 254.36806
 257.85126 260.94321 263.77448 266.41235 268.82486 271.00842 272.94455 274.66559
 276.19611 277.60764 278.90094 280.22787 281.41248 282.46329 283.42654 284.30460
 285.10220 285.82523 286.46249 287.27396
 366.78100 356.34189 345.78078 334.65367 323.06356 311.26445 299.14134 286.95123
 274.67012 262.57401 250.58990 239.89779 230.02668 221.13757 213.32646 206.33535
 200.17624 195.12113 191.71002 189.75891 188.80280 188.87369 189.71558 191.03047
 192.76236 194.86425 197.13414 199.50003 201.95192 204.43881 206.53370 208.38259
 210.01548 211.16737 211.40326 211.63815 211.58204 211.29393 210.93382 210.57071
 210.19460 209.91149 209.72638 209.59727 209.53216 209.87005 210.26294 210.65883
 211.45872 212.64361 213.90050 215.69039 217.62528 219.67517 221.77706 223.86695
 225.93384 228.02473 230.12862 232.24151 234.37740 236.55629 238.81918 241.19607
 243.82396 246.08185 248.09074 249.86263 251.28652 252.41641 253.24530 253.56819
 253.61208 253.39297 252.75986 251.71475 250.32764 248.49553 246.41142 244.25131
 242.04920 239.86009 237.68698 235.53287 233.39976 231.27365 229.30654 227.47043
 225.76032 224.23921 222.87610 221.65499 220.54388 219.51077 218.62166 217.76955
 217.01844 216.20533 215.31022 214.68111 214.13800 214.92552 216.78613 218.75821
 220.75369 222.85994 224.34352 224.58167 224.35437 224.40677 225.25667 226.06528
 226.76993 228.75975 232.41667 236.89476 241.57359 246.18294 250.51511 254.43642
 257.90942 260.99054 263.80423 266.42828 268.83807 271.02606 272.95703 274.66641
 276.19547 277.61819 278.95233 280.29477 281.48328 282.53745 283.50217 284.38126
 285.17953 285.90179 286.53781 287.34595
 366.78100 356.34217 345.78135 334.65452 323.06470 311.26587 299.14305 286.95322
 274.67240 262.57657 250.59274 239.90092 230.03009 221.14127 213.33044 206.33962
 200.18079 195.12597 191.71514 189.76431 188.80849 188.87966 189.72184 191.03701
 192.76919 194.87136 197.14154 199.50771 201.95988 204.44706 206.54223 208.39141
 210.02458 211.17676 211.41293 211.64811 211.59228 211.30445 210.94463 210.58180
 210.20598 209.92315 209.73833 209.60950 209.54467 209.88285 210.27602 210.67220
 211.47237 212.65755 213.91472 215.70490 217.64007 219.69024 221.79242 223.88259
 225.94977 228.04094 230.14512 232.25829 234.39447 236.57364 238.83681 241.21399
 243.84216 246.10034 248.10951 249.88169 251.30586 252.43604 253.26521 253.58838
 253.63256 253.41373 252.78091 251.73608 250.34926 248.51743 246.43361 244.27378
 242.07195 239.88313 237.71030 235.55648 233.42365 231.29783 229.33100 227.49518
 225.78535 224.26452 222.90170 221.68087 220.57005 219.53722 218.64840 217.79657
 217.04575 216.23292 215.33809 214.70927 214.16644 214.95155 216.80646 218.76590
 220.72176 222.82053 224.30859 224.51753 224.22870 224.25594 225.10657 225.99626
 226.80493 228.84572 232.49271 236.97086 241.65891 246.27202 250.59785 254.50536
 257.96582 261.03848 263.83917 266.45175 268.85760 271.04440 272.96725 274.66318
 276.19409 277.63138 279.01111 280.36084 281.54837 282.60544 283.56989 284.45117
 285.25031 285.97427 286.60861 287.42108
 366.78100 356.34248 345.78197 334.65545 323.06594 311.26742 299.14490 286.95539
 274.67487 262.57936 250.59584 239.90432 230.03381 221.14529 213.33478 206.34426
 200.18574 195.13123 191.72071 189.77020 188.81468 188.88616 189.72865 191.04413
 192.77662 194.87910 197.14958 199.51607 201.96855 204.45604 206.55152 208.40100
 210.03449 211.18697 211.42346 211.65894 211.60343 211.31591 210.95639 210.59388
 210.21836 209.93585 209.75133 209.62281 209.55830 209.89678 210.29027 210.68675
 211.48723 212.67272 213.93020 215.72069 217.65617 219.70665 221.80914 223.89962
 225.96711 228.05859 230.16307 232.27656 234.41304 236.59253 238.85601 241.23349
 243.86198 246.12046 248.12995 249.90243 251.32691 252.45740 253.28688 253.61037
 253.65485 253.43633 252.80382 251.75930 250.37279 248.54127 246.45775 244.29824
 242.09672 239.90821 237.73569 235.58217 233.44966 231.32414 229.35763 227.52211
 225.81259 224.29208 222.92956 221.70905 220.59853 219.56601 218.67750 217.82598
 217.07547 216.26295 215.36843 214.73992 214.19740 214.97853 216.82402 218.77307
 220.69524 222.77682 224.26318 224.45082 224.10489 224.10701 224.95830 225.92657
 226.83113 228.92137 232.57082 237.05513 241.75052 246.36436 250.68167 254.57410
 258.02020 261.08466 263.87854 266.48206 268.88190 271.06302 272.97214 274.65524
 276.19043 277.64700 279.06445 280.41895 281.60754 282.66336 283.62869 284.50946
 285.31290 286.03369 286.67017 287.48004
 366.78100 356.34282 345.78263 334.65645 323.06726 311.26908 299.14689 286.95771
 274.67753 262.58234 250.59916 239.90797 230.03779 221.14960 213.33942 206.34924
 200.19105 195.13687 191.72668 189.77650 188.82132 188.89313 189.73595 191.05176
 192.78458 194.88739 197.15821 199.52503 201.97784 204.46566 206.56147 208.41129
 210.04510 211.19792 211.43474 211.67055 211.61537 211.32818 210.96900 210.60681
 210.23163 209.94945 209.76526 209.63708 209.57289 209.91171 210.30552 210.70234
 211.50316 212.68897 213.94679 215.73760 217.67342 219.72424 221.82705 223.91787
 225.98568 228.07750 230.18231 232.29613 234.43295 236.61276 238.87658 241.25439
 243.88321 246.14202 248.15184 249.92466 251.34947 252.48029 253.31010 253.63392
 253.67873 253.46055 252.82837 251.78418 250.39800 248.56681 246.48363 244.32444
 242.12326 239.93508 237.76289 235.60971 233.47752 231.35234 229.38615 227.55097
 225.84179 224.32160 222.95942 221.73923 220.62905 219.59687 218.70868 217.85750
 217.10731 216.29513 215.40094 214.77276 214.23058 215.00626 216.83890 218.77803
 220.67584 222.73196 224.20476 224.38017 223.99141 223.96126 224.80292 225.85762
 226.85709 228.98730 232.64833 237.14690 241.84805 246.45825 250.76509 254.64131
 258.07172 261.12872 263.92130 266.51801 268.91129 271.08136 272.97400 274.64325
 276.18649 277.66309 279.10883 280.46716 281.65421 282.71048 283.67499 284.55606
 285.35678 286.08148 286.71686 287.52209
 366.78100 356.34319 345.78338 334.65758 323.06877 311.27096 299.14915 286.96035
 274.68054 262.58573 250.60292 239.91212 230.04231 221.15450 213.34469 206.35489
 200.19708 195.14327 191.73346 189.78366 188.82885 188.90104 189.74423 191.06043
 192.79362 194.89681 197.16800 199.53520 201.98839 204.47658 206.57277 208.42297
 210.05716 211.21035 211.44754 211.68374 211.62893 211.34212 210.98331 210.62151
 210.24670 209.96489 209.78108 209.65328 209.58947 209.92866 210.32285 210.72005
 211.52124 212.70743 213.96562 215.75682 217.69301 219.74420 221.84739 223.93859
 226.00678 228.09897 230.20416 232.31836 234.45555 236.63574 238.89993 241.27813
 243.90732 246.16651 248.17670 249.94990 251.37509 252.50628 253.33647 253.66067
 253.70586 253.48805 252.85624 251.81244 250.42663 248.59582 246.51301 244.35421
 242.15340 239.96559 237.79378 235.64098 233.50917 231.38436 229.41855 227.58375
 225.87494 224.35513 222.99332 221.77352 220.66371 219.63190 218.74409 217.89329
 217.14348 216.33167 215.43786 214.81006 214.26825 215.03671 216.85229 218.77992
 220.66081 222.69075 224.14006 224.29662 223.87424 223.81807 224.65784 225.78644
 226.86459 229.04318 232.73163 237.24867 241.95282 246.55388 250.84695 254.70581
 258.11862 261.16953 263.96542 266.55859 268.94305 271.09750 272.97198 274.63052
 276.18405 277.68073 279.14288 280.50156 281.68713 282.74185 283.70892 284.58826
 285.38922 286.11292 286.74734 287.55850
 366.78100 356.34363 345.78426 334.65888 323.07051 311.27314 299.15177 286.96340
 274.68403 262.58965 250.60728 239.91691 230.04754 221.16017 213.35079 206.36142
 200.20405 195.15068 191.74131 189.79193 188.83756 188.91019 189.75382 191.07045
 192.80408 194.90770 197.17933 199.54696 202.00059 204.48922 206.58584 208.43647
 210.07110 211.22473 211.46236 211.69898 211.64461 211.35824 210.99987 210.63850
 210.26413 209.98275 209.79938 209.67201 209.60864 209.94827 210.34289 210.74052
 211.54215 212.72878 213.98741 215.77903 217.71566 219.76729 221.87092 223.96255
 226.03118 228.12380 230.22943 232.34406 234.48169 236.66232 238.92694 241.30557
 243.93520 246.19483 248.20546 249.97908 251.40471 252.53634 253.36697 253.69160
 253.73723 253.51985 252.88848 251.84511 250.45974 248.62937 246.54699 244.38862
 242.18825 240.00088 237.82951 235.67714 233.54576 231.42139 229.45602 227.62165
 225.91328 224.39390 223.03253 221.81316 220.70379 219.67242 218.78504 217.93467
 217.18530 216.37393 215.48056 214.85319 214.31181 215.07068 216.86356 218.78432
 220.64076 222.64488 224.08211 224.22382 223.76135 223.64980 224.48611 225.74629
 226.89807 229.08746 232.81712 237.36177 242.06372 246.65015 250.92665 254.76781
 258.16306 261.20923 264.01172 266.60159 268.97543 271.11127 272.96585 274.61780
 276.18500 277.69931 279.16818 280.52524 281.71036 282.76367 283.72824 284.60767
 285.40814 286.12982 286.76459 287.56955
 366.78100 356.34410 345.78520 334.66030 323.07240 311.27550 299.15460 286.96670
 274.68779 262.59389 250.61199 239.92209 230.05319 221.16629 213.35739 206.36849
 200.21159 195.15869 191.74979 189.80089 188.84699 188.92009 189.76419 191.08128
 192.81538 194.91948 197.19158 199.55968 202.01378 204.50288 206.59998 208.45108
 210.08618 211.24028 211.47838 211.71548 211.66158 211.37568 211.01777 210.65687
 210.28297 210.00207 209.81917 209.69227 209.62937 209.96947 210.36457 210.76267
 211.56477 212.75187 214.01097 215.80307 217.74016 219.79226 221.89636 223.98846
 226.05756 228.15066 230.25676 232.37186 234.50996 236.69106 238.95616 241.33526
 243.96536 246.22546 248.23656 250.01065 251.43675 252.56885 253.39995 253.72505
 253.77115 253.55425 252.92335 251.88045 250.49555 248.66565 246.58375 244.42585
 242.22595 240.03905 237.86814 235.71624 233.58534 231.46144 229.49654 227.66264
 225.95474 224.43584 223.07494 221.85604 220.74714 219.71624 218.82934 217.97944
 217.23054 216.41963 215.52673 214.89983 214.35893 215.10576 216.87021 218.79451
 220.61865 222.58386 224.01692 224.17271 223.68887 223.50679 224.28918 225.58501
 226.88118 229.19165 232.93291 237.48470 242.17865 246.74455 251.00166 254.82608
 258.20465 261.24713 264.05908 266.64673 269.00702 271.12317 272.95767 274.60519
 276.18909 277.72034 279.18674 280.54016 281.72339 282.77609 283.73932 284.61819
 285.41782 286.13843 286.77246 287.58249
 366.78100 356.34462 345.78623 334.66185 323.07446 311.27808 299.15770 286.97031
 274.69193 262.59855 250.61716 239.92778 230.05939 221.17301 213.36463 206.37624
 200.21986 195.16747 191.75909 189.81071 188.85732 188.93094 189.77556 191.09317
 192.82779 194.93240 197.20502 199.57364 202.02825 204.51787 206.61548 208.46710
 210.10272 211.25733 211.49595 211.73356 211.68018 211.39480 211.03741 210.67703
 210.30365 210.02326 209.84088 209.71449 209.65211 209.99273 210.38834 210.78696
 211.58957 212.77719 214.03681 215.82942 217.76704 219.81966 221.92427 224.01689
 226.08650 228.18012 230.28674 232.40235 234.54097 236.72258 238.98820 241.36782
 243.99843 246.25905 248.27067 250.04528 251.47190 252.60451 253.43613 253.76175
 253.80836 253.59198 252.96159 251.91921 250.53483 248.70544 246.62406 244.46668
 242.26729 240.08091 237.91052 235.75914 233.62876 231.50537 229.54099 227.70760
 226.00022 224.48184 223.12145 221.90307 220.79468 219.76430 218.87792 218.02853
 217.28015 216.46977 215.57738 214.95100 214.41061 215.14211 216.87033 218.80183
 220.60669 222.51877 223.92406 224.10866 223.64088 223.40251 224.09825 225.38969
 226.83221 229.29109 233.05792 237.61739 242.29749 246.83748 251.07350 254.88229
 258.24512 261.28674 264.10916 266.69348 269.03763 271.12958 272.94513 274.59381
 276.19620 277.74280 279.20401 280.54974 281.73245 282.78326 283.74509 284.62299
 285.42111 286.14111 286.77408 287.58035
 366.78100 356.34518 345.78736 334.66354 323.07672 311.28089 299.16107 286.97425
 274.69643 262.60361 250.62279 239.93397 230.06615 221.18033 213.37250 206.38468
 200.22886 195.17704 191.76922 189.82140 188.86858 188.94276 189.78794 191.10611
 192.84129 194.94647 197.21965 199.58883 202.04401 204.53419 206.63237 208.48455
 210.12072 211.27590 211.51508 211.75326 211.70044 211.41562 211.05880 210.69898
 210.32616 210.04633 209.86451 209.73869 209.67687 210.01805 210.41423 210.81341
 211.61659 212.80477 214.06494 215.85812 217.79630 219.84948 221.95466 224.04784
 226.11802 228.21220 230.31938 232.43555 234.57473 236.75691 239.02309 241.40327
 244.03445 246.29563 248.30781 250.08299 251.51016 252.64334 253.47552 253.80170
 253.84888 253.63306 253.00324 251.96142 250.57760 248.74877 246.66795 244.51113
 242.31231 240.12649 237.95667 235.80585 233.67603 231.55321 229.58938 227.75656
 226.04974 224.53192 223.17210 221.95428 220.84646 219.81664 218.93082 218.08199
 217.33417 216.52435 215.63253 215.00671 214.46689 215.18132 216.86925 218.79631
 220.60461 222.46608 223.81561 224.01410 223.58318 223.31734 223.94023 225.20357
 226.75034 229.36392 233.18956 237.76030 242.42014 246.93062 251.14613 254.93999
 258.28738 261.32825 264.15851 266.73602 269.06335 271.12970 272.92642 274.57953
 276.20444 277.76288 279.22119 280.55951 281.73828 282.78891 283.74945 284.62598
 285.42267 286.14139 286.77374 287.58218
 366.78100 356.34570 345.78839 334.66509 323.07879 311.28348 299.16418 286.97787
 274.70057 262.60827 250.62796 239.93966 230.07236 221.18705 213.37975 206.39244
 200.23714 195.18584 191.77853 189.83123 188.87893 188.95362 189.79932 191.11802
 192.85371 194.95941 197.23310 199.60280 202.05850 204.54919 206.64789 208.50059
 210.13728 211.29298 211.53267 211.77137 211.71907 211.43476 211.07846 210.71916
 210.34685 210.06755 209.88625 209.76094 209.69964 210.04133 210.43803 210.83773
 211.64142 212.83012 214.09082 215.88451 217.82321 219.87690 221.98260 224.07630
 226.14699 228.24169 230.34939 232.46608 234.60578 236.78847 239.05517 241.43587
 244.06756 246.32926 248.34196 250.11765 251.54535 252.67905 253.51174 253.83844
 253.88613 253.67083 253.04153 252.00022 250.61692 248.78862 246.70831 244.55201
 242.35370 240.16840 237.99910 235.84879 233.71949 231.59719 229.63388 227.80158
 226.09528 224.57797 223.21867 222.00136 220.89406 219.86476 218.97945 218.13115
 217.38385 216.57454 215.68324 215.05793 214.51863 215.21896 216.87357 218.78203
 220.60165 222.42598 223.71245 223.89977 223.49820 223.21964 223.80379 225.03514
 226.65390 229.42232 233.33003 237.91321 242.54823 247.02843 251.22368 255.00008
 258.33029 261.36917 264.20667 266.77698 269.08255 271.12000 272.90195 274.56454
 276.20996 277.78711 279.24121 280.56931 281.74597 282.79471 283.75409 284.62955
 285.42560 286.14432 286.77420 287.58185
 366.78100 356.34614 345.78927 334.66641 323.08055 311.28569 299.16682 286.98096
 274.70410 262.61224 250.63237 239.94451 230.07765 221.19279 213.38592 206.39906
 200.24420 195.19334 191.78647 189.83961 188.88775 188.96289 189.80902 191.12816
 192.86430 194.97044 197.24457 199.61471 202.07085 204.56199 206.66112 208.51426
 210.15140 211.30754 211.54767 211.78681 211.73495 211.45109 211.09522 210.73636
 210.36450 210.08564 209.90477 209.77991 209.71905 210.06118 210.45832 210.85846
 211.66260 212.85173 214.11287 215.90701 217.84615 219.90028 222.00642 224.10056
 226.17170 228.26683 230.37497 232.49211 234.63225 236.81538 239.08252 241.46366
 244.09580 246.35793 248.37107 250.14721 251.57535 252.70948 253.54262 253.86976
 253.91790 253.70303 253.07417 252.03331 250.65045 248.82258 246.74272 244.58686
 242.38900 240.20413 238.03527 235.88541 233.75655 231.63468 229.67182 227.83996
 226.13409 224.61723 223.25837 222.04151 220.93464 219.90578 219.02092 218.17306
 217.42619 216.61733 215.72647 215.10161 214.56274 215.25212 216.88087 218.76805
 220.59338 222.38722 223.61595 223.78165 223.39743 223.10687 223.66718 224.87181
 226.55583 229.47739 233.47633 238.07391 242.68484 247.13695 251.31323 255.07040
 258.38034 261.41031 264.24753 266.80188 269.08524 271.10190 272.87466 274.55319
 276.22992 277.81137 279.26233 280.58133 281.75342 282.79944 283.75919 284.63409
 285.42862 286.14624 286.77542 287.58075
 366.78100 356.34664 345.79028 334.66792 323.08256 311.28820 299.16983 286.98447
 274.70811 262.61675 250.63739 239.95003 230.08367 221.19931 213.39295 206.40659
 200.25223 195.20187 191.79550 189.84914 188.89778 188.97342 189.82006 191.13970
 192.87634 194.98298 197.25762 199.62826 202.08490 204.57654 206.67617 208.52981
 210.16745 211.32409 211.56473 211.80437 211.75301 211.46965 211.11429 210.75593
 210.38457 210.10621 209.92584 209.80148 209.74112 210.08376 210.48140 210.88204
 211.68668 212.87632 214.13796 215.93260 217.87224 219.92687 222.03351 224.12815
 226.19979 228.29543 230.40407 232.52171 234.66235 236.84599 239.11363 241.49527
 244.12791 246.39054 248.40418 250.18082 251.60946 252.74410 253.57774 253.90538
 253.95402 253.73966 253.11130 252.07094 250.68858 248.86121 246.78185 244.62649
 242.42913 240.24477 238.07641 235.92705 233.79869 231.67733 229.71497 227.88361
 226.17825 224.66188 223.30352 222.08716 220.98080 219.95244 219.06808 218.22072
 217.47436 216.66600 215.77564 215.15128 214.61292 215.28764 216.88176 218.75110
 220.58466 222.35277 223.52631 223.66052 223.28432 222.98535 223.52580 224.71422
 226.46713 229.53319 233.62170 238.23584 242.82379 247.24858 251.40611 255.14264
 258.43216 261.45554 264.29379 266.83075 269.08301 271.06442 272.83051 274.53741
 276.23410 277.83322 279.28433 280.59482 281.76370 282.81042 283.76660 284.64111
 285.43460 286.15143 286.77969 287.58948
 366.78100 356.34705 345.79111 334.66916 323.08421 311.29027 299.17232 286.98737
 274.71142 262.62048 250.64153 239.95458 230.08864 221.20469 213.39874 206.41280
 200.25885 195.20890 191.80296 189.85701 188.90606 188.98212 189.82917 191.14922
 192.88627 194.99333 197.26838 199.63943 202.09649 204.58854 206.68859 208.54265
 210.18070 211.33775 211.57881 211.81886 211.76791 211.48497 211.13002 210.77207
 210.40112 210.12318 209.94323 209.81928 209.75934 210.10239 210.50044 210.90150
 211.70655 212.89660 214.15866 215.95371 217.89376 219.94882 222.05587 224.15092
 226.22297 228.31903 230.42808 232.54613 234.68719 236.87124 239.13929 241.52135
 244.15440 246.41745 248.43151 250.20856 251.63761 252.77267 253.60672 253.93477
 253.98382 253.76988 253.14193 252.10198 250.72004 248.89309 246.81414 244.65920
 242.46225 240.27830 238.11036 235.96141 233.83346 231.71252 229.75057 227.91962
 226.21467 224.69873 223.34078 222.12483 221.01889 219.99094 219.10699 218.26005
 217.51410 216.70615 215.81621 215.19226 214.65431 215.31509 216.87625 218.73230
 220.57777 222.32588 223.44762 223.53874 223.15303 222.84439 223.36893 224.56120
 226.39610 229.60226 233.77599 238.40446 242.97124 247.37053 251.50713 255.21860
 258.48111 261.49036 264.32056 266.84372 269.07581 271.04160 272.80811 274.52484
 276.23514 277.85858 279.30536 280.60840 281.77420 282.81799 283.77600 284.64743
 285.44009 286.15497 286.78214 287.59613
 366.78100 356.34738 345.79176 334.67014 323.08552 311.29190 299.17428 286.98965
 274.71403 262.62341 250.64479 239.95817 230.09255 221.20893 213.40331 206.41769
 200.26407 195.21445 191.80883 189.86320 188.91258 188.98896 189.83634 191.15672
 192.89410 195.00148 197.27686 199.64824 202.10562 204.59800 206.69838 208.55276
 210.19113 211.34851 211.58989 211.83027 211.77965 211.49703 211.14241 210.78479
 210.41417 210.13655 209.95693 209.83331 209.77368 210.11706 210.51544 210.91682
 211.72220 212.91258 214.17496 215.97034 217.91072 219.96610 222.07348 224.16886
 226.24124 228.33761 230.44699 232.56537 234.70675 236.89113 239.15951 241.54189
 244.17527 246.43865 248.45303 250.23041 251.65979 252.79516 253.62954 253.95792
 254.00730 253.79368 253.16606 252.12644 250.74482 248.91820 246.83958 244.68496
 242.48834 240.30472 238.13709 235.98847 233.86085 231.74023 229.77861 227.94799
 226.24337 224.72775 223.37013 222.15451 221.04889 220.02127 219.13764 218.29102
 217.54540 216.73778 215.84816 215.22454 214.68692 215.33710 216.87318 218.71278
 220.57068 222.29836 223.36728 223.41006 223.00757 222.69099 223.19890 224.41499
 226.34093 229.67680 233.93153 238.57655 243.12659 247.50597 251.62611 255.31621
 258.55463 261.54602 264.35580 266.84317 269.04272 270.99695 272.74658 274.42984
 276.28961 277.89792 279.33334 280.62711 281.78787 282.83075 283.78696 284.65860
 285.44974 286.16541 286.79111 287.60437
 366.78100 356.34785 345.79269 334.67154 323.08739 311.29423 299.17708 286.99292
 274.71777 262.62762 250.64946 239.96331 230.09816 221.21500 213.40985 206.42470
 200.27154 195.22239 191.81724 189.87208 188.92193 188.99877 189.84662 191.16747
 192.90531 195.01316 197.28901 199.66085 202.11870 204.61155 206.71239 208.56724
 210.20609 211.36393 211.60578 211.84662 211.79647 211.51432 211.16016 210.80301
 210.43286 210.15570 209.97655 209.85340 209.79424 210.13809 210.53694 210.93878
 211.74463 212.93547 214.19832 215.99417 217.93501 219.99086 222.09871 224.19455
 226.26740 228.36425 230.47409 232.59294 234.73479 236.91963 239.18848 241.57132
 244.20517 246.46902 248.48386 250.26171 251.69156 252.82740 253.66225 253.99110
 254.04094 253.82779 253.20064 252.16148 250.78033 248.95417 246.87602 244.72187
 242.52571 240.34256 238.17541 236.02725 233.90010 231.77995 229.81879 227.98864
 226.28449 224.76933 223.41218 222.19702 221.09187 220.06472 219.18156 218.33541
 217.59026 216.78310 215.89395 215.27080 214.73364 215.36983 216.87286 218.67827
 220.56242 222.28580 223.29997 223.27609 222.83548 222.51064 223.01079 224.27821
 226.30824 229.76144 234.08960 238.75049 243.28746 247.65198 251.75661 255.42113
 258.63113 261.60013 264.38947 266.85547 269.03027 270.93167 272.59637 274.54156
 276.30002 277.91931 279.34460 280.63348 281.79318 282.83527 283.79160 284.66385
 285.45682 286.17499 286.80493 287.62622
 366.78100 356.34819 345.79338 334.67257 323.08876 311.29594 299.17913 286.99532
 274.72051 262.63070 250.65289 239.96708 230.10227 221.21946 213.41465 206.42983
 200.27702 195.22821 191.82340 189.87859 188.92878 189.00597 189.85416 191.17535
 192.91354 195.02172 197.29791 199.67010 202.12829 204.62148 206.72267 208.57786
 210.21705 211.37524 211.61743 211.85861 211.80880 211.52699 211.17318 210.81637
 210.44656 210.16975 209.99094 209.86813 209.80932 210.15350 210.55269 210.95488
 211.76107 212.95226 214.21545 216.01164 217.95283 220.00902 222.11721 224.21339
 226.28658 228.38377 230.49396 232.61315 234.75534 236.94053 239.20972 241.59291
 244.22710 246.49128 248.50647 250.28466 251.71485 252.85104 253.68623 254.01542
 254.06561 253.85280 253.22598 252.18717 250.80636 248.98055 246.90274 244.74893
 242.55312 240.37031 238.20350 236.05569 233.92887 231.80906 229.84825 228.01844
 226.31463 224.79982 223.44301 222.22820 221.12339 220.09658 219.21376 218.36795
 217.62314 216.81633 215.92752 215.30471 214.76790 215.39525 216.87741 218.64522
 220.53644 222.27380 223.25558 223.15807 222.65289 222.29837 222.78847 224.14265
 226.29449 229.85913 234.25117 238.92754 243.45599 247.81212 251.90611 255.54559
 258.71912 261.65164 264.40512 266.83392 268.97195 270.83411 272.66919 274.54236
 276.29758 277.91245 279.33286 280.62051 281.77600 282.81659 283.77216 284.64435
 285.43945 286.16071 286.79440 287.60953
 366.78100 356.34824 345.79349 334.67273 323.08897 311.29622 299.17946 286.99570
 274.72095 262.63119 250.65343 239.96768 230.10292 221.22016 213.41541 206.43065
 200.27789 195.22914 191.82438 189.87962 188.92987 189.00711 189.85535 191.17660
 192.91484 195.02308 197.29933 199.67157 202.12981 204.62306 206.72430 208.57954
 210.21879 211.37703 211.61927 211.86052 211.81076 211.52900 211.17525 210.81849
 210.44873 210.17198 209.99322 209.87046 209.81171 210.15595 210.55519 210.95744
 211.76368 212.95492 214.21817 216.01441 217.95565 220.01190 222.12014 224.21638
 226.28963 228.38687 230.49711 232.61636 234.75860 236.94384 239.21309 241.59633
 244.23057 246.49481 248.51006 250.28830 251.71854 252.85479 253.69003 254.01927
 254.06952 253.85676 253.23000 252.19125 250.81049 248.98473 246.90698 244.75322
 242.55746 240.37471 238.20795 236.06019 233.93344 231.81368 229.85292 228.02317
 226.31941 224.80465 223.44790 222.23314 221.12838 220.10163 219.21887 218.37311
 217.62836 216.82160 215.93284 215.31009 214.77333 215.39981 216.87997 218.63876
 220.50906 222.23567 223.19933 223.04810 222.47910 222.08305 222.55972 223.99387
 226.27919 229.97185 234.41972 239.10678 243.63425 247.98616 252.07097 255.68996
 258.83145 261.71432 264.40152 266.77615 268.87061 270.72940 272.78607 274.53714
 276.29819 277.89322 279.30759 280.59235 281.74228 282.78061 283.73456 284.60538
 285.40070 286.12283 286.75919 287.57227
 366.78100 356.34839 345.79379 334.67318 323.08958 311.29697 299.18036 286.99676
 274.72215 262.63255 250.65494 239.96933 230.10473 221.22212 213.41751 206.43291
 200.28030 195.23170 191.82709 189.88248 188.93288 189.01027 189.85867 191.18006
 192.91845 195.02685 197.30324 199.67564 202.13403 204.62742 206.72882 208.58421
 210.22361 211.38200 211.62439 211.86579 211.81618 211.53457 211.18097 210.82436
 210.45476 210.17815 209.99954 209.87694 209.81833 210.16273 210.56212 210.96451
 211.77091 212.96230 214.22570 216.02209 217.96348 220.01988 222.12827 224.22467
 226.29806 228.39545 230.50585 232.62524 234.76763 236.95303 239.22242 241.60582
 244.24021 246.50460 248.52000 250.29839 251.72879 252.86518 253.70057 254.02997
 254.08036 253.86776 253.24115 252.20254 250.82194 248.99633 246.91873 244.76512
 242.56951 240.38691 238.22030 236.07269 233.94609 231.82648 229.86588 228.03627
 226.33266 224.81806 223.46145 222.24685 221.14224 220.11563 219.23303 218.38742
 217.64282 216.83621 215.94760 215.32500 214.78839 215.40923 216.87602 218.61909
 220.50273 222.20872 223.14395 222.92961 222.28191 221.82938 222.29124 223.84254
 226.28552 230.10916 234.60391 239.30165 243.83084 248.17776 252.24564 255.84702
 258.97934 261.83255 264.46506 266.78882 268.81876 270.53946 272.72119 274.54736
 276.24261 277.82263 279.22354 280.49887 281.63757 282.67099 283.62262 284.49213
 285.28821 286.01410 286.64023 287.45563
 366.78100 356.34844 345.79389 334.67333 323.08977 311.29722 299.18066 286.99710
 274.72255 262.63299 250.65544 239.96988 230.10532 221.22277 213.41821 206.43365
 200.28110 195.23254 191.82798 189.88343 188.93387 189.01131 189.85976 191.18120
 192.91964 195.02809 197.30453 199.67697 202.13542 204.62886 206.73031 208.58575
 210.22519 211.38364 211.62608 211.86752 211.81797 211.53641 211.18285 210.82630
 210.45674 210.18018 210.00163 209.87907 209.82051 210.16496 210.56440 210.96684
 211.77329 212.96473 214.22818 216.02462 217.96606 220.02251 222.13095 224.22739
 226.30084 228.39828 230.50872 232.62817 234.77061 236.95605 239.22550 241.60894
 244.24338 246.50783 248.52327 250.30171 251.73216 252.86860 253.70405 254.03349
 254.08393 253.87138 253.24482 252.20626 250.82571 249.00015 246.92259 244.76904
 242.57348 240.39092 238.22437 236.07681 233.95025 231.83070 229.87014 228.04058
 226.33703 224.82247 223.46592 222.25136 221.14680 220.12025 219.23769 218.39213
 217.64758 216.84102 215.95246 215.32991 214.79335 215.41174 216.87277 218.57343
 220.48187 222.20430 223.11641 222.85768 222.12723 221.55594 221.99944 223.63911
 226.23526 230.20946 234.77617 239.49176 244.03366 248.38425 252.43979 256.02090
 259.14255 261.97983 264.56281 266.75922 268.57278 270.89896 272.77100 274.60852
 276.25012 277.62903 279.03375 280.29755 281.42596 282.44876 283.39545 284.26273
 285.06290 285.79297 286.41428 287.23676
 366.78100 356.34852 345.79405 334.67357 323.09010 311.29762 299.18114 286.99767
 274.72319 262.63372 250.65624 239.97076 230.10629 221.22381 213.41934 206.43486
 200.28239 195.23391 191.82943 189.88496 188.93548 189.01301 189.86153 191.18305
 192.92158 195.03010 197.30663 199.67915 202.13767 204.63120 206.73272 208.58825
 210.22777 211.38629 211.62882 211.87034 211.82087 211.53939 211.18591 210.82944
 210.45996 210.18349 210.00501 209.88253 209.82406 210.16858 210.56811 210.97063
 211.77716 212.96868 214.23220 216.02873 217.97025 220.02678 222.13530 224.23182
 226.30535 228.40287 230.51340 232.63292 234.77544 236.96097 239.23049 241.61402
 244.24854 246.51306 248.52859 250.30711 251.73764 252.87416 253.70968 254.03921
 254.08973 253.87726 253.25078 252.21231 250.83183 249.00635 246.92888 244.77540
 242.57993 240.39745 238.23097 236.08350 233.95702 231.83755 229.87707 228.04759
 226.34412 224.82964 223.47317 222.25869 221.15421 220.12774 219.24526 218.39979
 217.65531 216.84883 215.96036 215.33788 214.80141 215.41701 216.87141 218.56348
 220.43697 222.15440 223.06216 222.79523 222.01175 221.36909 221.71100 223.42458
 226.20662 230.32526 234.95964 239.67853 244.22871 248.57489 252.59203 256.14178
 259.25284 262.09088 264.67261 266.78488 268.38614 271.00391 272.89505 274.57620
 276.18835 277.43643 278.72122 279.91211 280.98602 281.97235 282.90372 283.76962
 284.56995 285.29959 285.91739 286.74411
 366.78100 356.34875 345.79450 334.67424 323.09099 311.29874 299.18249 286.99923
 274.72498 262.63573 250.65848 239.97322 230.10897 221.22672 213.42247 206.43821
 200.28596 195.23771 191.83346 189.88920 188.93995 189.01770 189.86645 191.18820
 192.92694 195.03569 197.31244 199.68519 202.14393 204.63768 206.73943 208.59518
 210.23492 211.39367 211.63642 211.87817 211.82891 211.54766 211.19441 210.83816
 210.46890 210.19265 210.01440 209.89215 209.83389 210.17864 210.57839 210.98114
 211.78789 212.97963 214.24338 216.04013 217.98188 220.03862 222.14737 224.24412
 226.31787 228.41561 230.52636 232.64611 234.78886 236.97460 239.24435 241.62810
 244.26285 246.52759 248.54334 250.32209 251.75284 252.88959 253.72533 254.05508
 254.10583 253.89358 253.26732 252.22907 250.84882 249.02357 246.94631 244.79306
 242.59781 240.41556 238.24930 236.10205 233.97580 231.85655 229.89629 228.06704
 226.36379 224.84954 223.49328 222.27903 221.17478 220.14853 219.26628 218.42102
 217.67677 216.87052 215.98227 215.36001 214.82376 215.42503 216.84563 218.56288
 220.41417 222.09093 222.95444 222.72736 221.96667 221.08121 221.37285 223.28410
 226.22908 230.46648 235.15009 239.85966 244.39661 248.73480 252.72581 256.24796
 259.37576 262.22897 264.84143 267.04514 268.72211 270.84784 272.84088 274.54459
 276.05038 277.37723 278.54099 279.65372 280.69171 281.69864 282.65207 283.52521
 284.31451 285.01730 285.63629 286.45999
 366.78100 356.34878 345.79455 334.67433 323.09111 311.29888 299.18266 286.99944
 274.72522 262.63599 250.65877 239.97355 230.10932 221.22710 213.42288 206.43865
 200.28643 195.23821 191.83398 189.88976 188.94054 189.01832 189.86709 191.18887
 192.92765 195.03642 197.31320 199.68598 202.14475 204.63853 206.74031 208.59608
 210.23586 211.39464 211.63741 211.87919 211.82997 211.54875 211.19552 210.83930
 210.47008 210.19385 210.01563 209.89341 209.83518 210.17996 210.57974 210.98251
 211.78929 212.98107 214.24485 216.04162 217.98340 220.04018 222.14895 224.24573
 226.31951 228.41728 230.52806 232.64784 234.79061 236.97639 239.24617 241.62995
 244.26472 246.52950 248.54528 250.32405 251.75483 252.89161 253.72738 254.05716
 254.10794 253.89571 253.26949 252.23127 250.85104 249.02582 246.94860 244.79538
 242.60015 240.41793 238.25171 236.10448 233.97826 231.85904 229.89881 228.06959
 226.36637 224.85214 223.49592 222.28170 221.17748 220.15125 219.26903 218.42381
 217.67958 216.87336 215.98514 215.36291 214.82669 215.42293 216.83159 218.53815
 220.40317 222.05963 222.84862 222.58200 221.84856 220.76498 221.08582 223.20682
 226.28169 230.62527 235.37985 240.07907 244.57913 248.89995 252.86212 256.32751
 259.41092 262.21841 264.79053 267.07919 269.02524 270.73734 272.72824 274.55081
 276.05948 277.38727 278.55493 279.63739 280.56583 281.50568 282.45325 283.32343
 284.10831 284.80890 285.43481 286.26938
 366.78100 356.34855 345.79410 334.67365 323.09020 311.29774 299.18129 286.99784
 274.72339 262.63394 250.65649 239.97104 230.10659 221.22414 213.41969 206.43523
 200.28278 195.23433 191.82988 189.88543 188.93598 189.01353 189.86208 191.18363
 192.92217 195.03072 197.30727 199.67982 202.13837 204.63192 206.73347 208.58902
 210.22857 211.38712 211.62966 211.87121 211.82176 211.54031 211.18686 210.83041
 210.46096 210.18451 210.00606 209.88360 209.82515 210.16970 210.56925 210.97180
 211.77835 212.96990 214.23345 216.03000 217.97154 220.02809 222.13664 224.23319
 226.30674 228.40429 230.51484 232.63439 234.77694 236.96249 239.23203 241.61558
 244.25013 246.51468 248.53023 250.30878 251.73933 252.87588 253.71143 254.04097
 254.09152 253.87907 253.25262 252.21417 250.83372 249.00827 246.93082 244.77737
 242.58192 240.39946 238.23301 236.08556 233.95911 231.83966 229.87921 228.04976
 226.34631 224.83186 223.47540 222.26095 221.15650 220.13005 219.24760 218.40215
 217.65770 216.85125 215.96280 215.34035 214.80389 215.40854 216.83705 218.51398
 220.36385 222.02811 222.76891 222.41632 221.67119 220.41989 220.80316 223.12491
 226.33731 230.77005 235.58534 240.30070 244.80695 249.11307 253.05055 256.48322
 259.53192 262.28693 264.77527 267.03445 269.12613 270.90326 272.78119 274.55002
 276.05630 277.34586 278.49359 279.54410 280.42462 281.26456 282.14102 282.96307
 283.68814 284.34064 284.94434 285.72638
 366.78100 356.34830 345.79359 334.67289 323.08918 311.29648 299.17978 286.99607
 274.72137 262.63166 250.65396 239.96826 230.10355 221.22085 213.41614 206.43144
 200.27874 195.23003 191.82533 189.88062 188.93092 189.00821 189.85651 191.17781
 192.91610 195.02440 197.30069 199.67299 202.13129 204.62458 206.72588 208.58117
 210.22047 211.37877 211.62106 211.86236 211.81265 211.53095 211.17725 210.82054
 210.45084 210.17413 209.99543 209.87273 209.81402 210.15832 210.55761 210.95991
 211.76621 212.95750 214.22080 216.01709 217.95839 220.01469 222.12298 224.21928
 226.29257 228.38987 230.50017 232.61946 234.76176 236.94705 239.21635 241.59964
 244.23394 246.49824 248.51353 250.29183 251.72212 252.85842 253.69372 254.02301
 254.07331 253.86060 253.23390 252.19520 250.81449 248.98879 246.91108 244.75738
 242.56168 240.37897 238.21227 236.06456 233.93786 231.81816 229.85745 228.02775
 226.32404 224.80934 223.45264 222.23793 221.13323 220.10652 219.22382 218.37812
 217.63341 216.82671 215.93800 215.31530 214.77859 215.39018 216.83513 218.50804
 220.31369 221.96375 222.69171 222.25844 221.48804 220.10744 220.54845 222.99651
 226.36705 230.89169 235.77560 240.52356 245.01645 249.31213 253.22815 256.64365
 259.68100 262.41122 264.84787 267.05423 269.13821 271.04968 272.85153 274.53741
 275.97943 277.20264 278.29269 279.28244 280.13797 280.97095 281.84399 282.66501
 283.29855 283.95944 284.58563 285.38483
 366.78100 356.34863 345.79426 334.67390 323.09053 311.29816 299.18179 286.99842
 274.72406 262.63469 250.65732 239.97195 230.10758 221.22522 213.42085 206.43648
 200.28411 195.23574 191.83138 189.88701 188.93764 189.01527 189.86390 191.18553
 192.92417 195.03280 197.30943 199.68206 202.14069 204.63433 206.73596 208.59159
 210.23122 211.38985 211.63249 211.87412 211.82475 211.54338 211.19001 210.83365
 210.46428 210.18791 210.00954 209.88717 209.82881 210.17344 210.57307 210.97570
 211.78233 212.97397 214.23760 216.03423 217.97586 220.03249 222.14113 224.23776
 226.31139 228.40902 230.51965 232.63928 234.78192 236.96755 239.23718 241.62081
 244.25544 246.52008 248.53571 250.31434 251.74497 252.88160 253.71724 254.04687
 254.09750 253.88513 253.25876 252.22040 250.84003 249.01466 246.93729 244.78392
 242.58856 240.40619 238.23982 236.09245 233.96608 231.84672 229.88635 228.05698
 226.35361 224.83924 223.48288 222.26851 221.16414 220.13777 219.25540 218.41004
 217.66567 216.85930 215.97093 215.34856 214.81219 215.39954 216.78716 218.53500
 220.26883 221.87215 222.62056 222.13545 221.27261 219.80263 220.32794 222.83975
 226.39035 230.99420 235.95239 240.74672 245.23514 249.48349 253.37450 256.77371
 259.81039 262.52945 264.94684 267.14301 269.20090 271.15833 272.95801 274.57629
 275.93341 277.08762 278.12778 279.07623 279.87894 280.61551 281.42056 282.24872
 282.91641 283.60831 284.22751 285.01660
 366.78100 356.34885 345.79470 334.67455 323.09140 311.29925 299.18310 286.99995
 274.72580 262.63665 250.65950 239.97435 230.11020 221.22805 213.42390 206.43975
 200.28760 195.23946 191.83531 189.89116 188.94201 189.01986 189.86871 191.19056
 192.92941 195.03826 197.31511 199.68796 202.14681 204.64066 206.74251 208.59836
 210.23821 211.39706 211.63991 211.88176 211.83261 211.55146 211.19831 210.84216
 210.47301 210.19686 210.01871 209.89656 209.83841 210.18326 210.58311 210.98596
 211.79281 212.98466 214.24852 216.04537 217.98722 220.04407 222.15292 224.24977
 226.32362 228.42147 230.53232 232.65217 234.79502 236.98087 239.25072 241.63457
 244.26942 246.53427 248.55012 250.32897 251.75982 252.89667 253.73252 254.06237
 254.11322 253.90107 253.27492 252.23677 250.85662 249.03147 246.95432 244.80117
 242.60602 240.42387 238.25772 236.11058 233.98443 231.86528 229.90513 228.07598
 226.37283 224.85868 223.50253 222.28838 221.18423 220.15808 219.27593 218.43078
 217.68663 216.88048 215.99233 215.37018 214.83403 215.40436 216.75179 218.53745
 220.26483 221.80922 222.52779 221.98518 221.04185 219.57344 220.12747 222.71222
 226.44035 231.11307 236.10455 240.93781 245.44753 249.65382 253.49094 256.87091
 259.89697 262.60455 264.99994 267.20493 269.27396 271.25525 273.06430 274.63431
 275.93912 277.07193 278.08740 278.98947 279.73380 280.39639 281.12393 281.95306
 282.74213 283.50552 284.22464 285.14105
 354.97500 345.04800 334.58700 324.11500 313.32600 302.53700 291.65000 280.76700
 269.93100 259.19300 248.62200 238.61700 229.08700 220.35500 212.54000 205.53500
 199.46400 194.49300 191.14300 189.19000 188.08900 188.01400 188.72400 189.90600
 191.46900 193.38200 195.40300 197.55600 199.80700 202.06000 204.28800 206.47900
 208.55200 210.37800 212.02500 213.65900 214.99800 216.11800 217.17200 218.25900
 219.49400 220.64500 221.67900 222.61400 223.54500 224.98200 226.57100 228.19000
 229.79700 231.81100 233.86500 235.97200 238.24200 240.55300 242.89900 245.25300
 247.48800 249.53500 251.36600 252.84800 254.09800 255.16700 256.02700 256.25300
 256.09500 255.54300 253.93500 252.56600 251.38400 250.24500 249.05200 247.70100
 246.01600 243.99600 241.78400 239.39300 236.81300 234.22300 231.65800 229.14400
 226.74000 224.47300 222.33500 220.32500 218.44000 216.67700 214.96200 213.47200
 212.20000 211.10800 210.26000 209.63900 209.24400 209.03100 209.05800 209.33300
 209.78400 210.62600 211.33100 212.39100 213.62500 214.84668 217.72949 219.47640
 220.32566 220.86828 220.88710 220.27371 219.43733 218.84250 219.04934 220.86203
 222.60583 225.72206 229.03064 232.61777 236.12270 239.51333 242.70767 245.68587
 248.41061 250.90679 253.19353 254.91714 256.48655 257.94920 259.39966 260.69384
 261.81714 262.77997 263.71679 264.54570 265.26305 265.89772 266.47676 267.00133
 267.47312 267.89325 268.26027 268.72800
