|-------------------------------------------------------------------------|
|   File Name : in_temp.dat
|   Subject   : temperature profiles used for initial guess atmosphere
|   File Type : input of gmtr
|   Data Type : atmospherical data
|   Author/s  : WRF-Chem
|   Date      : Fri Jul 26 15:39:24 2024
|-------------------------------------------------------------------------|

 WRF-Chem temperature
#
 values of T (K)    (8f10.5)
#
 354.97500 345.04800 334.58700 324.11500 313.32600 302.53700 291.65000 280.76700
 269.93100 259.19300 248.62200 238.61700 229.08700 220.35500 212.54000 205.53500
 199.46400 194.49300 191.14300 189.19000 188.08900 188.01400 188.72400 189.90600
 191.46900 193.38200 195.40300 197.55600 199.80700 202.06000 204.28800 206.47900
 208.55200 210.37800 212.02500 213.65900 214.99800 216.11800 217.17200 218.25900
 219.49400 220.64500 221.67900 222.61400 223.54500 224.98200 226.57100 228.19000
 229.79700 231.81100 233.86500 235.97200 238.24200 240.55300 242.89900 245.25300
 247.48800 249.53500 251.36600 252.84800 254.09800 255.16700 256.02700 256.25300
 256.09500 255.54300 253.93500 252.56600 251.38400 250.24500 249.05200 247.70100
 246.01600 243.99600 241.78400 239.39300 236.81300 234.22300 231.65800 229.14400
 226.74000 224.47300 222.33500 220.32500 218.44000 216.67700 214.96200 213.47200
 212.20000 211.10800 210.26000 209.63900 209.24400 209.03100 209.05800 209.33300
 209.78400 210.62600 211.33100 212.39100 213.62500 214.84668 217.72949 219.47640
 220.32566 220.86828 220.88710 220.27371 219.43733 218.84250 219.04934 220.86203
 222.60583 225.72206 229.03064 232.61777 236.12270 239.51333 242.70767 245.68587
 248.41061 250.90679 253.19353 254.91714 256.48655 257.94920 259.39966 260.69384
 261.81714 262.77997 263.71679 264.54570 265.26305 265.89772 266.47676 267.00133
 267.47312 267.89325 268.26027 268.72800
 366.78100 356.33500 345.76700 334.63300 323.03600 311.23000 299.10000 286.90300
 274.61500 262.51200 250.52100 239.82200 229.94400 221.04800 213.23000 206.23200
 200.06600 195.00400 191.58600 189.62800 188.66500 188.72900 189.56400 190.87200
 192.59700 194.69200 196.95500 199.31400 201.75900 204.23900 206.32700 208.16900
 209.79500 210.94000 211.16900 211.39700 211.33400 211.03900 210.67200 210.30200
 209.91900 209.62900 209.43700 209.30100 209.22900 209.56000 209.94600 210.33500
 211.12800 212.30600 213.55600 215.33900 217.26700 219.31000 221.40500 223.48800
 225.54800 227.63200 229.72900 231.83500 233.96400 236.13600 238.39200 240.76200
 243.38300 245.63400 247.63600 249.40100 250.81800 251.94100 252.76300 253.07900
 253.11600 252.89000 252.25000 251.19800 249.80400 247.96500 245.87400 243.70700
 241.49800 239.30200 237.12200 234.96100 232.82100 230.68800 228.71400 226.87100
 225.15400 223.62600 222.25600 221.02800 219.91000 218.87000 217.97400 217.11500
 216.35700 215.53700 214.63500 213.99900 213.44900 212.85855 212.01316 212.61654
 214.26826 216.08686 218.14273 220.53346 223.40855 226.78828 231.49734 235.90155
 239.42278 243.28576 247.23140 251.11907 254.80144 258.23331 261.38913 264.27520
 266.89312 269.26852 271.44504 273.08845 274.58484 275.98591 277.39845 278.65879
 279.75272 280.69038 281.56708 282.34086 283.01050 283.60295 284.14348 284.63317
 285.07358 285.46577 285.80838 286.24500
 381.81900 372.39900 361.20600 349.77600 337.62200 324.85300 311.81000 298.35300
 284.86000 271.32400 258.56100 246.30400 236.08700 226.79600 218.44800 211.29000
 205.52200 200.89400 197.38100 194.84800 193.01500 192.31500 192.25000 192.43100
 192.91200 193.53700 194.13600 194.71200 195.26200 195.83100 196.39300 196.97600
 197.60400 198.14900 198.58400 199.05700 199.69500 200.37800 201.05400 201.70800
 202.31300 202.85700 203.35500 203.86200 204.56900 205.29700 206.02600 206.98700
 208.19300 209.44100 210.96900 212.57600 214.46200 216.51300 218.63000 220.85300
 223.34100 225.96200 228.73900 231.69700 234.70600 237.70600 240.69200 243.65700
 246.73700 249.69900 252.52100 255.06300 257.29000 259.23300 260.63300 261.68000
 262.46100 262.79800 262.69100 262.22400 261.06900 259.52500 257.70700 255.50700
 253.00100 250.30200 247.39800 244.45200 241.65400 239.05400 236.73300 234.59000
 232.59500 230.72500 228.83400 226.82600 224.66600 222.38700 220.10400 217.71500
 215.45900 213.06600 210.54600 208.09300 205.35400 202.08130 196.05959 200.71215
 209.01611 216.90438 223.84126 229.78593 235.00632 240.20838 245.98943 250.68668
 254.32982 257.93487 261.55666 264.96801 268.15192 271.06452 273.76717 276.25691
 278.57680 280.74479 282.77456 284.60533 286.27232 287.81705 289.31715 290.65561
 291.81734 292.81312 293.70701 294.49387 295.17482 295.77730 296.32696 296.82492
 297.27278 297.67160 298.02000 298.46400
 399.33000 389.90700 379.81300 368.66800 357.52200 345.30100 333.07400 320.22700
 307.21600 293.84800 280.37600 267.29600 254.61000 242.98700 232.15100 221.97700
 212.67200 204.28600 197.66900 192.82100 189.48600 187.45200 186.81400 187.08900
 187.78100 189.05400 190.64800 192.54200 194.63000 196.75200 198.67100 200.15800
 201.53500 202.48700 202.97500 203.34000 203.53900 203.49700 203.38500 203.24700
 203.00500 202.78600 202.60300 202.43700 202.42600 202.88800 203.42000 203.95100
 204.89500 205.99200 207.30100 208.95800 210.73800 213.10000 215.56400 218.18000
 220.96600 223.91800 226.96100 230.09200 233.29300 236.55700 239.95500 243.53700
 246.84500 249.39000 251.54200 253.47400 255.19500 256.48400 257.43100 258.05900
 258.21200 258.04000 257.58200 256.64300 255.23900 253.50700 251.40800 249.05600
 246.57600 243.99400 241.38900 238.83000 236.34400 233.98600 231.96900 230.11800
 228.42300 226.89900 225.54800 224.29700 223.10500 221.96500 220.95800 220.11300
 219.49000 218.92000 218.32500 217.88100 217.42300 216.96366 216.35568 216.80261
 217.73415 218.28582 218.64258 219.10077 220.44626 222.53987 226.38451 230.35736
 233.59734 237.39164 241.29814 245.22796 248.98002 252.51130 255.78595 258.80109
 261.54781 264.05210 266.34239 268.04198 269.58951 271.01303 272.35754 273.55718
 274.59842 275.49092 276.28989 276.99307 277.60161 278.14001 278.63122 279.07623
 279.47646 279.83287 280.14422 280.54100
 399.73800 389.78500 379.66200 368.15100 356.64100 344.35000 331.79200 318.88800
 305.72600 292.49300 279.20900 266.73800 254.69600 244.21100 234.45700 225.43300
 217.56900 210.45100 204.30000 199.30600 195.45800 192.57600 191.02700 190.38600
 190.23900 190.53400 191.16600 191.92500 192.79500 193.76600 194.73200 195.31200
 195.80000 196.05200 196.11500 196.11500 196.03900 195.72300 195.34000 194.98900
 194.75100 194.79200 195.13300 195.59800 196.50600 198.13600 199.85800 201.56600
 204.17900 206.82300 209.89300 213.28400 216.82800 220.60500 224.38700 228.20900
 232.03200 235.82500 239.56000 243.25800 246.84500 250.20100 253.70900 257.46800
 261.53000 264.22100 266.60100 268.68100 270.32900 271.74100 272.83600 273.47400
 273.89800 274.00200 273.75700 273.28800 272.37100 271.10000 269.58900 267.77900
 265.81600 263.72100 261.39300 258.91600 256.29800 253.42300 250.33100 247.11400
 243.83700 240.52900 237.24900 233.99900 230.72800 227.51500 224.25400 220.95200
 217.62700 213.65600 210.12100 206.78900 204.01000 201.99491 199.07309 198.76551
 199.40006 200.48994 201.46112 202.31912 203.45100 204.96110 207.47502 210.85391
 213.70530 217.29629 220.99574 224.72316 228.28753 231.64854 234.68024 237.40893
 239.70644 241.60899 243.46854 245.67368 247.68154 249.52395 251.24767 252.78566
 254.12057 255.26479 256.23740 257.09036 257.82852 258.48160 259.07744 259.61723
 260.10271 260.53504 260.91270 261.39400
 399.73800 389.78500 379.66200 368.15100 356.64100 344.35000 331.79200 318.88800
 305.72600 292.49300 279.20900 266.73800 254.69600 244.21100 234.45700 225.43300
 217.56900 210.45100 204.30000 199.30600 195.45800 192.57600 191.02700 190.38600
 190.23900 190.53400 191.16600 191.92500 192.79500 193.76600 194.73200 195.31200
 195.80000 196.05200 196.11500 196.11500 196.03900 195.72300 195.34000 194.98900
 194.75100 194.79200 195.13300 195.59800 196.50600 198.13600 199.85800 201.56600
 204.17900 206.82300 209.89300 213.28400 216.82800 220.60500 224.38700 228.20900
 232.03200 235.82500 239.56000 243.25800 246.84500 250.20100 253.70900 257.46800
 261.53000 264.22100 266.60100 268.68100 270.32900 271.74100 272.83600 273.47400
 273.89800 274.00200 273.75700 273.28800 272.37100 271.10000 269.58900 267.77900
 265.81600 263.72100 261.39300 258.91600 256.29800 253.42300 250.33100 247.11400
 243.83700 240.52900 237.24900 233.99900 230.72800 227.51500 224.25400 220.95200
 217.62700 213.65600 210.12100 206.78900 204.01000 201.99491 199.07309 198.76551
 199.40006 200.48994 201.46112 202.31912 203.45100 204.96110 207.47502 210.85391
 213.70530 217.29629 220.99574 224.72316 228.28753 231.64854 234.68024 237.40893
 239.70644 241.60899 243.46854 245.67368 247.68154 249.52395 251.24767 252.78566
 254.12057 255.26479 256.23740 257.09036 257.82852 258.48160 259.07744 259.61723
 260.10271 260.53504 260.91270 261.39400
 399.33000 389.90700 379.81300 368.66800 357.52200 345.30100 333.07400 320.22700
 307.21600 293.84800 280.37600 267.29600 254.61000 242.98700 232.15100 221.97700
 212.67200 204.28600 197.66900 192.82100 189.48600 187.45200 186.81400 187.08900
 187.78100 189.05400 190.64800 192.54200 194.63000 196.75200 198.67100 200.15800
 201.53500 202.48700 202.97500 203.34000 203.53900 203.49700 203.38500 203.24700
 203.00500 202.78600 202.60300 202.43700 202.42600 202.88800 203.42000 203.95100
 204.89500 205.99200 207.30100 208.95800 210.73800 213.10000 215.56400 218.18000
 220.96600 223.91800 226.96100 230.09200 233.29300 236.55700 239.95500 243.53700
 246.84500 249.39000 251.54200 253.47400 255.19500 256.48400 257.43100 258.05900
 258.21200 258.04000 257.58200 256.64300 255.23900 253.50700 251.40800 249.05600
 246.57600 243.99400 241.38900 238.83000 236.34400 233.98600 231.96900 230.11800
 228.42300 226.89900 225.54800 224.29700 223.10500 221.96500 220.95800 220.11300
 219.49000 218.92000 218.32500 217.88100 217.42300 216.96366 216.35568 216.80261
 217.73415 218.28582 218.64258 219.10077 220.44626 222.53987 226.38451 230.35736
 233.59734 237.39164 241.29814 245.22796 248.98002 252.51130 255.78595 258.80109
 261.54781 264.05210 266.34239 268.04198 269.58951 271.01303 272.35754 273.55718
 274.59842 275.49092 276.28989 276.99307 277.60161 278.14001 278.63122 279.07623
 279.47646 279.83287 280.14422 280.54100
 381.81900 372.39900 361.20600 349.77600 337.62200 324.85300 311.81000 298.35300
 284.86000 271.32400 258.56100 246.30400 236.08700 226.79600 218.44800 211.29000
 205.52200 200.89400 197.38100 194.84800 193.01500 192.31500 192.25000 192.43100
 192.91200 193.53700 194.13600 194.71200 195.26200 195.83100 196.39300 196.97600
 197.60400 198.14900 198.58400 199.05700 199.69500 200.37800 201.05400 201.70800
 202.31300 202.85700 203.35500 203.86200 204.56900 205.29700 206.02600 206.98700
 208.19300 209.44100 210.96900 212.57600 214.46200 216.51300 218.63000 220.85300
 223.34100 225.96200 228.73900 231.69700 234.70600 237.70600 240.69200 243.65700
 246.73700 249.69900 252.52100 255.06300 257.29000 259.23300 260.63300 261.68000
 262.46100 262.79800 262.69100 262.22400 261.06900 259.52500 257.70700 255.50700
 253.00100 250.30200 247.39800 244.45200 241.65400 239.05400 236.73300 234.59000
 232.59500 230.72500 228.83400 226.82600 224.66600 222.38700 220.10400 217.71500
 215.45900 213.06600 210.54600 208.09300 205.35400 202.08130 196.05959 200.71215
 209.01611 216.90438 223.84126 229.78593 235.00632 240.20838 245.98943 250.68668
 254.32982 257.93487 261.55666 264.96801 268.15192 271.06452 273.76717 276.25691
 278.57680 280.74479 282.77456 284.60533 286.27232 287.81705 289.31715 290.65561
 291.81734 292.81312 293.70701 294.49387 295.17482 295.77730 296.32696 296.82492
 297.27278 297.67160 298.02000 298.46400
 366.78100 356.34952 345.79605 334.67657 323.09410 311.30262 299.18715 287.00467
 274.73120 262.64272 250.66625 239.98177 230.11830 221.23682 213.43334 206.44987
 200.29839 195.25092 191.84744 189.90397 188.95549 189.03402 189.88354 191.20607
 192.94559 195.05511 197.33264 199.70616 202.16569 204.66021 206.76274 208.61926
 210.25979 211.41931 211.66284 211.90536 211.85689 211.57641 211.22393 210.86846
 210.49998 210.22451 210.04703 209.92556 209.86808 210.21361 210.61413 211.01766
 211.82518 213.01770 214.28223 216.07975 218.02228 220.07980 222.18933 224.28685
 226.36138 228.45990 230.57143 232.69195 234.83548 237.02200 239.29252 241.67705
 244.31257 246.57810 248.59462 250.37415 251.80567 252.94320 253.77972 254.11025
 254.16177 253.95029 253.32482 252.28734 250.90787 249.08339 247.00692 244.85444
 242.65997 240.47849 238.31302 236.16654 234.04107 231.92259 229.96311 228.13464
 226.43216 224.91869 223.56321 222.34974 221.24626 220.22079 219.33931 218.49484
 217.75136 216.94588 216.05841 215.43693 214.90146 213.44670 210.03290 209.33772
 210.29364 210.63853 211.88849 215.39362 219.74298 224.52010 230.31042 235.31033
 239.15784 243.18896 247.49780 251.72467 255.33319 258.38895 261.06689 263.67020
 266.51266 269.21545 271.83093 274.45483 276.56158 278.16034 279.45956 281.00885
 283.06418 284.84192 286.38577 287.74457 288.91931 289.95932 290.90817 291.76471
 292.53406 293.21765 293.81061 294.54742
 366.78100 356.34999 345.79698 334.67797 323.09596 311.30495 299.18994 287.00793
 274.73491 262.64690 250.67089 239.98688 230.12387 221.24286 213.43985 206.45684
 200.30583 195.25882 191.85581 189.91280 188.96479 189.04378 189.89377 191.21676
 192.95674 195.06673 197.34472 199.71871 202.17870 204.67369 206.77668 208.63367
 210.27466 211.43465 211.67864 211.92163 211.87362 211.59361 211.24160 210.88659
 210.51857 210.24356 210.06655 209.94554 209.88853 210.23452 210.63551 211.03950
 211.84749 213.04048 214.30547 216.10346 218.04645 220.10444 222.21443 224.31242
 226.38740 228.48639 230.59838 232.71937 234.86336 237.05035 239.32134 241.70633
 244.34232 246.60831 248.62530 250.40529 251.83728 252.97527 253.81226 254.14325
 254.19523 253.98422 253.35921 252.32220 250.94319 249.11918 247.04317 244.89116
 242.69715 240.51614 238.35113 236.20512 234.08011 231.96210 230.00309 228.17508
 226.47306 224.96005 223.60504 222.39203 221.28902 220.26401 219.38300 218.53899
 217.79598 216.99097 216.10396 215.48295 214.94794 213.49298 210.07785 209.40141
 210.30519 210.69849 211.91380 215.34052 219.70323 224.47981 230.22517 235.21884
 239.06850 243.10297 247.41647 251.65097 255.27547 258.36926 261.06534 263.64960
 266.47754 269.17145 271.77869 274.38483 276.46661 278.05557 279.39096 280.97903
 283.03296 284.81152 286.35605 287.71402 288.88907 289.92944 290.87720 291.73480
 292.50415 293.18762 293.78052 294.51801
 366.78100 356.35041 345.79781 334.67922 323.09762 311.30703 299.19243 287.01084
 274.73824 262.65065 250.67505 239.99146 230.12886 221.24827 213.44567 206.46308
 200.31248 195.26589 191.86329 189.92070 188.97310 189.05251 189.90291 191.22632
 192.96672 195.07713 197.35553 199.72994 202.19034 204.68575 206.78916 208.64656
 210.28797 211.44837 211.69278 211.93618 211.88859 211.60899 211.25740 210.90280
 210.53521 210.26061 210.08402 209.96342 209.90683 210.25323 210.65464 211.05904
 211.86745 213.06085 214.32626 216.12466 218.06807 220.12647 222.23688 224.33528
 226.41069 228.51009 230.62250 232.74391 234.88831 237.07572 239.34712 241.73253
 244.36893 246.63534 248.65274 250.43315 251.86555 253.00396 253.84136 254.17277
 254.22517 254.01458 253.38998 252.35339 250.97479 249.15120 247.07560 244.92401
 242.73041 240.54982 238.38522 236.23963 234.11503 231.99744 230.03884 228.21125
 226.50966 224.99706 223.64247 222.42987 221.32728 220.30268 219.42209 218.57849
 217.83590 217.03130 216.14471 215.52411 214.98952 213.53578 210.12257 209.46262
 210.31898 210.75835 211.94513 215.29773 219.65538 224.42844 230.14235 235.13541
 238.98714 243.02406 247.33801 251.57617 255.21503 258.34616 261.06100 263.62735
 266.43997 269.12427 271.72260 274.30984 276.36850 277.95093 279.32205 280.94809
 282.99765 284.77750 286.32166 287.68036 288.85587 289.89560 290.84329 291.70074
 292.46970 293.15277 293.74548 294.48285
 366.78100 356.35073 345.79846 334.68020 323.09893 311.30866 299.19439 287.01313
 274.74086 262.65359 250.67832 239.99506 230.13279 221.25252 213.45025 206.46799
 200.31772 195.27145 191.86918 189.92692 188.97965 189.05938 189.91011 191.23385
 192.97458 195.08531 197.36404 199.73878 202.19951 204.69524 206.79897 208.65671
 210.29844 211.45917 211.70390 211.94764 211.90037 211.62110 211.26983 210.91557
 210.54830 210.27403 210.09776 209.97750 209.92123 210.26796 210.66969 211.07443
 211.88316 213.07689 214.34262 216.14136 218.08509 220.14382 222.25455 224.35329
 226.42902 228.52875 230.64148 232.76322 234.90795 237.09568 239.36741 241.75315
 244.38988 246.65661 248.67434 250.45508 251.88781 253.02654 253.86427 254.19601
 254.24874 254.03847 253.41420 252.37794 250.99967 249.17640 247.10113 244.94987
 242.75660 240.57633 238.41206 236.26680 234.14253 232.02526 230.06699 228.23973
 226.53846 225.02619 223.67192 222.45966 221.35739 220.33312 219.45285 218.60958
 217.86732 217.06305 216.17678 215.55651 215.02225 213.57329 210.17021 209.51886
 210.34024 210.81349 211.97801 215.26593 219.60167 224.36700 230.06740 235.05937
 238.91042 242.94696 247.25896 251.49960 255.15253 258.32138 261.05545 263.60358
 266.40103 269.07355 271.66135 274.23007 276.26788 277.84644 279.25281 280.91364
 282.95819 284.73978 286.28503 287.64282 288.81815 289.85709 290.80438 291.66138
 292.42975 293.11221 293.70419 294.44040
 366.78100 356.35106 345.79911 334.68117 323.10023 311.31029 299.19634 287.01540
 274.74346 262.65652 250.68157 239.99863 230.13669 221.25675 213.45480 206.47286
 200.32292 195.27697 191.87503 189.93309 188.98615 189.06620 189.91726 191.24132
 192.98238 195.09343 197.37249 199.74755 202.20861 204.70466 206.80872 208.66678
 210.30883 211.46989 211.71495 211.95901 211.91206 211.63312 211.28218 210.92824
 210.56129 210.28735 210.11141 209.99147 209.93552 210.28258 210.68464 211.08969
 211.89875 213.09281 214.35887 216.15792 218.10198 220.16104 222.27210 224.37115
 226.44721 228.54727 230.66033 232.78238 234.92744 237.11550 239.38755 241.77361
 244.41067 246.67773 248.69578 250.47684 251.90990 253.04896 253.88701 254.21907
 254.27213 254.06219 253.43824 252.40230 251.02436 249.20141 247.12647 244.97553
 242.78259 240.60264 238.43870 236.29376 234.16982 232.05287 230.09493 228.26799
 226.56705 225.05510 223.70116 222.48922 221.38727 220.36333 219.48339 218.64045
 217.89850 217.09456 216.20862 215.58868 215.05473 213.60953 210.21423 209.57739
 210.37006 210.85837 212.01134 215.24323 219.54387 224.30199 229.99570 234.98782
 238.83670 242.87152 247.18129 251.42380 255.09087 258.29688 261.04932 263.57849
 266.35931 269.01886 271.59573 274.14487 276.16492 277.74368 279.18396 280.88013
 282.91434 284.69489 286.24170 287.59897 288.77399 289.81393 290.75980 291.61642
 292.38330 293.06451 293.65555 294.38934
 366.78100 356.35120 345.79941 334.68161 323.10082 311.31102 299.19722 287.01643
 274.74463 262.65784 250.68304 240.00024 230.13845 221.25865 213.45686 206.47506
 200.32526 195.27947 191.87767 189.93588 188.98908 189.06928 189.92049 191.24469
 192.98590 195.09710 197.37630 199.75151 202.21271 204.70892 206.81312 208.67132
 210.31353 211.47473 211.71993 211.96414 211.91734 211.63855 211.28775 210.93395
 210.56716 210.29336 210.11757 209.99777 209.94197 210.28918 210.69138 211.09659
 211.90579 213.09999 214.36620 216.16540 218.10961 220.16881 222.28001 224.37922
 226.45542 228.55563 230.66883 232.79103 234.93624 237.12444 239.39665 241.78285
 244.42005 246.68726 248.70546 250.48667 251.91987 253.05907 253.89728 254.22948
 254.28269 254.07289 253.44909 252.41330 251.03550 249.21271 247.13791 244.98711
 242.79432 240.61452 238.45073 236.30593 234.18213 232.06534 230.10754 228.28075
 226.57995 225.06815 223.71436 222.50256 221.40077 220.37697 219.49717 218.65438
 217.91258 217.10879 216.22299 215.60319 215.06940 213.63547 210.26555 209.63487
 210.40437 210.89540 212.04222 215.23026 219.48033 224.23471 229.92708 234.91724
 238.76398 242.79840 247.10643 251.35130 255.03265 258.27234 261.04117 263.55112
 266.31479 268.96033 271.52393 274.05429 276.05991 277.64078 279.11392 280.85736
 282.85193 284.64093 286.19003 287.54889 288.72427 289.76288 290.70892 291.56427
 292.33066 293.01038 293.59955 294.32733
 366.78100 356.35136 345.79972 334.68208 323.10144 311.31180 299.19816 287.01752
 274.74588 262.65924 250.68460 240.00196 230.14032 221.26067 213.45903 206.47739
 200.32775 195.28211 191.88047 189.93883 188.99219 189.07255 189.92391 191.24827
 192.98963 195.10099 197.38035 199.75571 202.21707 204.71343 206.81779 208.67615
 210.31851 211.47987 211.72523 211.96959 211.92295 211.64431 211.29367 210.94002
 210.57338 210.29974 210.12410 210.00446 209.94882 210.29618 210.69854 211.10390
 211.91326 213.10762 214.37398 216.17334 218.11770 220.17706 222.28842 224.38778
 226.46414 228.56450 230.67786 232.80022 234.94558 237.13394 239.40630 241.79266
 244.43001 246.69737 248.71573 250.49709 251.93045 253.06981 253.90817 254.24053
 254.29389 254.08425 253.46061 252.42497 251.04733 249.22469 247.15005 244.99941
 242.80677 240.62713 238.46349 236.31885 234.19521 232.07857 230.12093 228.29429
 226.59365 225.08201 223.72836 222.51672 221.41508 220.39144 219.51180 218.66916
 217.92752 217.12388 216.23824 215.61860 215.08496 213.66048 210.31184 209.70139
 210.43913 210.92561 212.07170 215.22195 219.41891 224.16269 229.85876 234.84850
 238.69380 242.72868 247.03459 251.28043 254.97513 258.24774 261.03290 263.52539
 266.27237 268.90100 271.44748 273.95816 275.95221 277.53818 279.03973 280.81470
 282.79233 284.58481 286.13461 287.49258 288.66629 289.70258 290.64832 291.49945
 292.26077 292.93518 293.51801 294.22540
 366.78100 356.35158 345.80016 334.68274 323.10232 311.31290 299.19948 287.01906
 274.74764 262.66122 250.68680 240.00438 230.14296 221.26354 213.46211 206.48069
 200.33127 195.28585 191.88443 189.94301 188.99659 189.07717 189.92875 191.25333
 192.99491 195.10649 197.38607 199.76165 202.22323 204.71981 206.82439 208.68297
 210.32555 211.48713 211.73271 211.97729 211.93087 211.65245 211.30203 210.94861
 210.58219 210.30877 210.13334 210.01392 209.95850 210.30608 210.70866 211.11424
 211.92382 213.11840 214.38498 216.18456 218.12914 220.18872 222.30030 224.39988
 226.47646 228.57704 230.69062 232.81320 234.95878 237.14736 239.41994 241.80652
 244.44410 246.71168 248.73026 250.51184 251.94542 253.08500 253.92357 254.25615
 254.30973 254.10031 253.47689 252.44147 251.06405 249.24163 247.16721 245.01679
 242.82437 240.64495 238.48153 236.33711 234.21369 232.09727 230.13985 228.31343
 226.61301 225.10159 223.74817 222.53675 221.43533 220.41191 219.53249 218.69007
 217.94865 217.14523 216.25980 215.64038 215.10696 213.68793 210.35127 209.77257
 210.48566 210.95100 212.09993 215.21687 219.34895 224.08633 229.79160 234.77773
 238.62199 242.65900 246.96365 251.21080 254.92058 258.22653 261.03049 263.50671
 266.23340 268.84067 271.36539 273.85413 275.84082 277.43610 278.96353 280.75549
 282.73010 284.52173 286.06921 287.42633 288.59875 289.63464 290.57828 291.42892
 292.18707 292.86160 293.44165 294.13104
 366.78100 356.35189 345.80078 334.68366 323.10355 311.31444 299.20133 287.02121
 274.75010 262.66399 250.68988 240.00776 230.14665 221.26754 213.46643 206.48531
 200.33620 195.29109 191.88998 189.94886 189.00275 189.08364 189.93553 191.26041
 193.00230 195.11419 197.39408 199.76996 202.23185 204.72874 206.83363 208.69251
 210.33540 211.49729 211.74318 211.98806 211.94195 211.66384 211.31373 210.96061
 210.59450 210.32139 210.14628 210.02717 209.97205 210.31994 210.72283 211.12872
 211.93860 213.13349 214.40038 216.20027 218.14515 220.20504 222.31693 224.41682
 226.49370 228.59459 230.70848 232.83137 234.97725 237.16614 239.43903 241.82592
 244.46380 246.73169 248.75058 250.53247 251.96635 253.10624 253.94513 254.27802
 254.33190 254.12279 253.49968 252.46457 251.08745 249.26534 247.19123 245.04112
 242.84901 240.66989 238.50678 236.36267 234.23956 232.12344 230.16633 228.34022
 226.64011 225.12899 223.77588 222.56477 221.46366 220.44054 219.56143 218.71932
 217.97821 217.17509 216.28998 215.67087 215.13776 213.71860 210.38100 209.84842
 210.54869 210.98006 212.11594 215.20071 219.27122 224.00316 229.72304 234.70610
 238.55276 242.59525 246.89989 251.14720 254.87152 258.20813 261.03055 263.48871
 266.19543 268.77817 271.27689 273.74384 275.72821 277.33820 278.88828 280.69406
 282.66647 284.45584 285.99951 287.35522 288.52780 289.56088 290.50101 291.35013
 292.10883 292.77780 293.34302 293.96436
 366.78100 356.35200 345.80100 334.68399 323.10399 311.31499 299.20199 287.02198
 274.75098 262.66498 250.69098 240.00897 230.14797 221.26897 213.46797 206.48696
 200.33796 195.29296 191.89196 189.95095 189.00495 189.08595 189.93795 191.26294
 193.00494 195.11694 197.39694 199.77293 202.23493 204.73193 206.83693 208.69592
 210.33892 211.50092 211.74692 211.99192 211.94591 211.66791 211.31791 210.96491
 210.59890 210.32590 210.15090 210.03190 209.97689 210.32489 210.72789 211.13389
 211.94388 213.13888 214.40588 216.20588 218.15087 220.21087 222.32287 224.42287
 226.49986 228.60086 230.71486 232.83786 234.98385 237.17285 239.44585 241.83285
 244.47085 246.73884 248.75784 250.53984 251.97384 253.11383 253.95283 254.28583
 254.33983 254.13082 253.50782 252.47282 251.09582 249.27381 247.19981 245.04981
 242.85781 240.67880 238.51580 236.37180 234.24880 232.13279 230.17579 228.34979
 226.64979 225.13878 223.78578 222.57478 221.47378 220.45077 219.57177 218.72977
 217.98877 217.18577 216.30076 215.68176 215.14876 213.73860 210.42122 209.91071
 210.64415 211.00247 212.09940 215.19293 219.19054 223.91827 229.65694 234.63976
 238.48927 242.53853 246.84012 251.08466 254.82045 258.18701 261.02896 263.47177
 266.15897 268.71606 271.18625 273.63016 275.61841 277.24518 278.81165 280.62595
 282.59470 284.37811 285.92081 287.27463 288.44601 289.47592 290.41455 291.26434
 292.02560 292.69839 293.24963 293.78244
 366.78100 356.35314 345.80328 334.68741 323.10855 311.32069 299.20883 287.02997
 274.76011 262.67524 250.70238 240.02152 230.16166 221.28380 213.48393 206.50407
 200.35621 195.31235 191.91249 189.97263 189.02776 189.10990 189.96304 191.28918
 193.03232 195.14545 197.42659 199.80373 202.26687 204.76501 206.87115 208.73128
 210.37542 211.53856 211.78570 212.03184 211.98697 211.71011 211.36125 211.00939
 210.64453 210.37267 210.19880 210.08094 210.02708 210.37622 210.78036 211.18749
 211.99863 213.19477 214.46291 216.26405 218.21019 220.27132 222.38446 224.48560
 226.56374 228.66588 230.78101 232.90515 235.05229 237.24243 239.51657 241.90470
 244.54384 246.81298 248.83312 250.61626 252.05140 253.19253 254.03267 254.36681
 254.42195 254.21409 253.59222 252.55836 251.18250 249.36164 247.28878 245.13992
 242.94905 240.77119 238.60933 236.46647 234.34461 232.22974 230.27388 228.44902
 226.75016 225.24030 223.88844 222.67857 221.57871 220.55685 219.67899 218.83813
 218.09826 217.29640 216.41254 215.79468 215.26282 213.80911 210.38927 210.02551
 210.74979 211.00632 212.11078 215.15355 219.08638 223.83246 229.59370 234.57712
 238.43001 242.48608 246.78397 251.02525 254.77296 258.16821 261.03104 263.45886
 266.12296 268.65186 271.08926 273.51065 275.50604 277.15576 278.73605 280.55585
 282.51645 284.28925 285.83127 287.18555 288.35648 289.38336 290.32129 291.17361
 291.94370 292.62302 293.11337 293.53848
 366.78100 356.35447 345.80593 334.69140 323.11386 311.32733 299.21680 287.03926
 274.77073 262.68719 250.71566 240.03613 230.17759 221.30106 213.50252 206.52399
 200.37746 195.33492 191.93639 189.99785 189.05432 189.13779 189.99225 191.31972
 193.06418 195.17865 197.46112 199.83958 202.30405 204.80351 206.91098 208.77245
 210.41791 211.58238 211.83084 212.07831 212.03478 211.75924 211.41171 211.06117
 210.69764 210.42711 210.25457 210.13804 210.08550 210.43597 210.84144 211.24990
 212.06237 213.25983 214.52930 216.33177 218.27923 220.34170 222.45616 224.55863
 226.63810 228.74156 230.85803 232.98349 235.13196 237.32343 239.59889 241.98836
 244.62882 246.89929 248.92076 250.70522 252.14169 253.28415 254.12562 254.46109
 254.51755 254.31102 253.69048 252.65795 251.28342 249.46388 247.39235 245.24481
 243.05528 240.87875 238.71821 236.57668 234.45614 232.34261 230.38808 228.56454
 226.86701 225.35847 224.00794 222.79941 221.70087 220.68034 219.80380 218.96427
 218.22574 217.42520 216.54267 215.92613 215.39560 213.89378 210.35959 210.03683
 211.02698 211.06270 211.93724 215.08408 219.01593 223.74463 229.54262 234.52791
 238.38263 242.44652 246.73808 250.97433 254.73151 258.15182 261.03134 263.44196
 266.08496 268.58237 270.98676 273.38364 275.39102 277.06189 278.65439 280.47894
 282.43262 284.19333 285.73724 287.08932 288.25781 289.28207 290.21988 291.07526
 291.85315 292.53296 292.91650 293.23010
 366.78100 356.35392 345.80483 334.68975 323.11166 311.32458 299.21349 287.03541
 274.76632 262.68224 250.71015 240.03007 230.17098 221.29390 213.49481 206.51573
 200.36864 195.32556 191.92647 189.98739 189.04330 189.12622 189.98013 191.30705
 193.05096 195.16488 197.44679 199.82471 202.28862 204.78754 206.89445 208.75537
 210.40028 211.56420 211.81212 212.05903 212.01495 211.73886 211.39078 211.03969
 210.67561 210.40452 210.23144 210.11435 210.06127 210.41118 210.81610 211.22401
 212.03593 213.23284 214.50176 216.30367 218.25059 220.31250 222.42642 224.52833
 226.60725 228.71016 230.82608 232.95099 235.09891 237.28982 239.56474 241.95365
 244.59357 246.86348 248.88440 250.66832 252.10423 253.24615 254.08706 254.42198
 254.47789 254.27081 253.64972 252.61664 251.24155 249.42147 247.34938 245.20130
 243.01121 240.83413 238.67304 236.53096 234.40987 232.29579 230.34070 228.51662
 226.81853 225.30945 223.95836 222.74928 221.65019 220.62911 219.75202 218.91194
 218.17285 217.37177 216.48868 215.87160 215.34052 213.88640 210.46193 209.96454
 211.10692 211.21428 211.91034 215.00874 218.95612 223.70267 229.49409 234.48349
 238.34149 242.41379 246.69592 250.92311 254.68492 258.12622 261.02502 263.42288
 266.04279 268.51440 270.88071 273.25659 275.27911 276.97702 278.57990 280.40280
 282.34650 284.09451 285.63666 286.99036 288.15555 289.16504 290.10248 290.96075
 291.74689 292.41101 292.70578 292.93085
 366.78100 356.35285 345.80269 334.68654 323.10739 311.31923 299.20708 287.02792
 274.75777 262.67262 250.69946 240.01831 230.15816 221.28000 213.47985 206.49969
 200.35154 195.30739 191.90723 189.96708 189.02193 189.10377 189.95662 191.28246
 193.02531 195.13816 197.41900 199.79585 202.25870 204.75654 206.86239 208.72223
 210.36608 211.52893 211.77577 212.02162 211.97647 211.69931 211.35016 210.99800
 210.63285 210.36070 210.18654 210.06839 210.01424 210.36308 210.76693 211.17377
 211.98462 213.18047 214.44831 216.24916 218.19501 220.25585 222.36870 224.46955
 226.54739 228.64924 230.76408 232.88793 235.03478 237.22462 239.49847 241.88632
 244.52516 246.79401 248.81385 250.59670 252.03155 253.17239 254.01224 254.34609
 254.40093 254.19278 253.57062 252.53647 251.16032 249.33916 247.26601 245.11686
 242.92570 240.74755 238.58539 236.44224 234.32009 232.20493 230.24878 228.42363
 226.72447 225.21432 223.86216 222.65201 221.55186 220.52970 219.65155 218.81040
 218.07024 217.26809 216.38393 215.76578 215.23363 213.84705 210.57991 209.98421
 211.06886 211.27414 212.00946 214.98476 218.86160 223.64590 229.44130 234.43805
 238.30121 242.38255 246.65546 250.87296 254.64058 258.10376 261.01602 263.40195
 266.01236 268.44705 270.78357 273.13507 275.16766 276.88629 278.49475 280.31662
 282.24963 283.99240 285.53674 286.88986 288.04871 289.04498 289.98254 290.84772
 291.64902 292.24850 292.47833 292.63708
 366.78100 356.35249 345.80197 334.68546 323.10594 311.31743 299.20491 287.02540
 274.75488 262.66937 250.69585 240.01434 230.15382 221.27531 213.47479 206.49428
 200.34576 195.30125 191.90073 189.96022 189.01470 189.09619 189.94867 191.27416
 193.01664 195.12913 197.40961 199.78610 202.24858 204.74607 206.85155 208.71104
 210.35452 211.51701 211.76349 212.00898 211.96346 211.68595 211.33643 210.98392
 210.61840 210.34589 210.17137 210.05286 209.99834 210.34683 210.75031 211.15680
 211.96728 213.16277 214.43025 216.23074 218.17623 220.23671 222.34920 224.44968
 226.52717 228.62865 230.74314 232.86662 235.01311 237.20259 239.47608 241.86356
 244.50205 246.77053 248.79002 250.57250 252.00699 253.14747 253.98696 254.32044
 254.37493 254.16641 253.54390 252.50938 251.13287 249.31135 247.23784 245.08832
 242.89681 240.71829 238.55578 236.41226 234.28975 232.17423 230.21772 228.39220
 226.69269 225.18217 223.82966 222.61914 221.51863 220.49611 219.61760 218.77608
 218.03557 217.23305 216.34854 215.73002 215.19751 213.84175 210.64655 210.06001
 211.04562 211.27643 212.13319 214.97302 218.74783 223.56851 229.39049 234.39095
 238.25427 242.34079 246.60468 250.81140 254.58803 258.07816 261.02112 263.40640
 265.97949 268.40228 270.68982 273.01523 275.06406 276.80905 278.41974 280.23471
 282.15567 283.88800 285.42935 286.78165 287.92639 288.89380 289.82657 290.69818
 291.50876 292.04666 292.27402 292.40430
 366.78100 356.35232 345.80164 334.68495 323.10527 311.31659 299.20391 287.02422
 274.75354 262.66786 250.69418 240.01249 230.15181 221.27313 213.47245 206.49176
 200.34308 195.29840 191.89772 189.95703 189.01135 189.09267 189.94499 191.27030
 193.01262 195.12494 197.40526 199.78157 202.24389 204.74121 206.84653 208.70584
 210.34916 211.51148 211.75780 212.00311 211.95743 211.67975 211.33007 210.97738
 210.61170 210.33902 210.16434 210.04565 209.99097 210.33929 210.74261 211.14893
 211.95924 213.15456 214.42188 216.22220 218.16751 220.22783 222.34015 224.44047
 226.51778 228.61910 230.73342 232.85674 235.00305 237.19237 239.46569 241.85301
 244.49132 246.75964 248.77896 250.56128 251.99559 253.13591 253.97523 254.30855
 254.36286 254.15418 253.53150 252.49682 251.12013 249.29845 247.22477 245.07509
 242.88340 240.70472 238.54204 236.39836 234.27567 232.15999 230.20331 228.37763
 226.67794 225.16726 223.81458 222.60390 221.50322 220.48053 219.60185 218.76017
 218.01949 217.21680 216.33212 215.71344 215.18076 213.84958 210.71146 210.11690
 211.03181 211.28964 212.23174 214.97586 218.67725 223.49217 229.34225 234.34349
 238.20464 242.29077 246.54439 250.73976 254.52042 258.03818 261.00214 263.38837
 265.97690 268.34683 270.59915 272.90488 274.96027 276.72900 278.36020 280.16882
 282.06064 283.77780 285.31934 286.66925 287.80566 288.81586 289.76071 290.62549
 291.38779 291.88068 292.08661 292.14801
 366.78100 356.35235 345.80169 334.68504 323.10539 311.31673 299.20408 287.02443
 274.75377 262.66812 250.69447 240.01281 230.15216 221.27351 213.47285 206.49220
 200.34355 195.29889 191.89824 189.95759 189.01193 189.09328 189.94563 191.27097
 193.01332 195.12567 197.40601 199.78236 202.24471 204.74205 206.84740 208.70675
 210.35009 211.51244 211.75879 212.00413 211.95848 211.68083 211.33117 210.97852
 210.61287 210.34021 210.16556 210.04691 209.99225 210.34060 210.74395 211.15029
 211.96064 213.15599 214.42334 216.22368 218.16903 220.22938 222.34172 224.44207
 226.51942 228.62076 230.73511 232.85846 235.00480 237.19415 239.46750 241.85484
 244.49319 246.76154 248.78088 250.56323 251.99758 253.13792 253.97727 254.31062
 254.36496 254.15631 253.53366 252.49900 251.12235 249.30070 247.22704 245.07739
 242.88574 240.70708 238.54443 236.40078 234.27812 232.16247 230.20582 228.38016
 226.68051 225.16986 223.81720 222.60655 221.50590 220.48324 219.60459 218.76294
 218.02228 217.21963 216.33498 215.71632 215.18367 213.87199 210.77805 210.11679
 211.03484 211.35226 212.30560 214.98506 218.62468 223.41602 229.29312 234.28862
 238.14505 242.23950 246.48303 250.65982 254.43730 257.95514 260.91922 263.33261
 265.90424 268.31946 270.55582 272.83664 274.90485 276.65735 278.24026 280.05234
 281.96924 283.68979 285.21887 286.55121 287.68555 288.71497 289.66772 290.51996
 291.18933 291.64902 291.86499 291.88065
 366.78100 356.35348 345.80396 334.68844 323.10992 311.32239 299.21087 287.03235
 274.76283 262.67831 250.70579 240.02527 230.16575 221.28823 213.48870 206.50918
 200.36166 195.31814 191.91862 189.97910 189.03458 189.11706 189.97054 191.29701
 193.04049 195.15397 197.43545 199.81293 202.27641 204.77489 206.88137 208.74185
 210.38632 211.54980 211.79728 212.04376 211.99924 211.72272 211.37420 211.02268
 210.65816 210.38664 210.21311 210.09559 210.04207 210.39155 210.79603 211.20351
 212.01499 213.21147 214.47995 216.28142 218.22790 220.28938 222.40286 224.50434
 226.58282 228.68530 230.80078 232.92526 235.07273 237.26321 239.53769 241.92617
 244.56565 246.83513 248.85561 250.63909 252.07457 253.21604 254.05652 254.39100
 254.44648 254.23896 253.61744 252.58392 251.20840 249.38788 247.31535 245.16683
 242.97631 240.79879 238.63727 236.49475 234.37323 232.25871 230.30319 228.47866
 226.78014 225.27062 223.91910 222.70958 221.61006 220.58854 219.71102 218.87050
 218.13097 217.32945 216.44593 215.82841 215.29689 213.95840 210.79990 210.09888
 211.00969 211.41017 212.44980 215.05728 218.61438 223.34813 229.24736 234.23470
 238.08992 242.18871 246.42361 250.58920 254.39215 257.91251 260.86850 263.23465
 265.77786 268.21890 270.45523 272.71432 274.80356 276.63757 278.28369 280.01822
 281.84558 283.54504 285.08517 286.41403 287.54343 288.58328 289.54846 290.41217
 291.03537 291.46808 291.72769 291.77155
 366.78100 356.35332 345.80364 334.68796 323.10927 311.32159 299.20991 287.03123
 274.76155 262.67687 250.70419 240.02351 230.16382 221.28614 213.48646 206.50678
 200.35910 195.31542 191.91574 189.97606 189.03137 189.11369 189.96701 191.29333
 193.03665 195.14997 197.43129 199.80860 202.27192 204.77024 206.87656 208.73688
 210.38120 211.54452 211.79184 212.03815 211.99347 211.71679 211.36811 211.01643
 210.65175 210.38007 210.20638 210.08870 210.03502 210.38434 210.78866 211.19598
 212.00730 213.20362 214.47193 216.27325 218.21957 220.28089 222.39421 224.49553
 226.57385 228.67617 230.79148 232.91580 235.06312 237.25344 239.52776 241.91608
 244.55540 246.82471 248.84503 250.62835 252.06367 253.20499 254.04531 254.37963
 254.43495 254.22726 253.60558 252.57190 251.19622 249.37554 247.30286 245.15418
 242.96349 240.78581 238.62413 236.48145 234.35977 232.24509 230.28941 228.46473
 226.76604 225.25636 223.90468 222.69500 221.59532 220.57364 219.69596 218.85528
 218.11559 217.31391 216.43023 215.81255 215.28087 213.97636 210.89697 210.11838
 210.95880 211.46516 212.55899 215.10547 218.63148 223.31322 229.20523 234.15613
 238.02419 242.13914 246.36789 250.51210 254.33492 257.87518 260.86130 263.30460
 265.77991 268.21140 270.35715 272.56277 274.64786 276.46768 278.16031 280.00238
 281.86807 283.51852 284.99759 286.31042 287.43530 288.47672 289.43610 290.23288
 290.74335 291.13751 291.39261 291.33182
 366.78100 356.35141 345.79983 334.68224 323.10165 311.31207 299.19848 287.01789
 274.74631 262.65972 250.68513 240.00255 230.14096 221.26138 213.45979 206.47820
 200.32862 195.28303 191.88144 189.93986 188.99327 189.07368 189.92510 191.24951
 192.99092 195.10234 197.38175 199.75716 202.21858 204.71499 206.81940 208.67782
 210.32023 211.48164 211.72706 211.97147 211.92489 211.64630 211.29571 210.94213
 210.57554 210.30195 210.12637 210.00678 209.95119 210.29861 210.70102 211.10643
 211.91585 213.11026 214.37667 216.17609 218.12050 220.17991 222.29133 224.39074
 226.46715 228.56757 230.68098 232.80339 234.94881 237.13722 239.40964 241.79605
 244.43346 246.70088 248.71929 250.50070 251.93412 253.07353 253.91194 254.24436
 254.29777 254.08818 253.46460 252.42901 251.05142 249.22884 247.15425 245.00366
 242.81108 240.63149 238.46790 236.32332 234.19973 232.08315 230.12556 228.29897
 226.59839 225.08680 223.73321 222.52163 221.42004 220.39645 219.51687 218.67428
 217.93269 217.12911 216.24352 215.62393 215.09035 213.89552 211.09004 210.21481
 210.98930 211.47870 212.55579 215.08125 218.59459 223.24402 229.12688 234.08432
 237.91389 242.04642 246.27840 250.41628 254.25191 257.77274 260.74313 263.15015
 265.90326 268.47293 270.64655 272.71487 274.67169 276.42270 278.03510 279.75247
 281.58981 283.32794 284.82498 286.08508 287.21533 288.24667 288.97894 289.41971
 289.94211 290.53079 291.11185 291.85236
 366.78100 356.34656 345.79011 334.66767 323.08222 311.28778 299.16933 286.98389
 274.70744 262.61600 250.63656 239.94911 230.08267 221.19822 213.39178 206.40533
 200.25089 195.20044 191.79400 189.84756 188.89611 188.97167 189.81822 191.13778
 192.87433 194.98089 197.25544 199.62600 202.08255 204.57411 206.67367 208.52722
 210.16478 211.32133 211.56189 211.80144 211.75000 211.46655 211.11111 210.75267
 210.38122 210.10278 209.92233 209.79789 209.73744 210.08000 210.47755 210.87811
 211.68267 212.87222 214.13378 215.92833 217.86789 219.92244 222.02900 224.12355
 226.19511 228.29067 230.39922 232.51678 234.65733 236.84089 239.10844 241.49000
 244.12255 246.38511 248.39867 250.17522 251.60378 252.73833 253.57189 253.89944
 253.94800 253.73355 253.10511 252.06466 250.68222 248.85478 246.77533 244.61989
 242.42244 240.23800 238.06955 235.92011 233.79166 231.67022 229.70778 227.87633
 226.17089 224.65444 223.29600 222.07955 220.97311 219.94466 219.06022 218.21278
 217.46633 216.65789 215.76744 215.14300 214.60455 213.66739 211.47903 210.41563
 210.75876 211.18298 212.46974 215.03799 218.54488 223.15651 229.01811 234.01566
 237.85812 242.00702 246.24463 250.37560 254.25140 257.78152 260.62881 263.23984
 265.94739 268.47504 270.76611 272.85764 274.77179 276.48001 278.05670 279.70212
 281.41248 283.05447 284.37457 285.58673 286.45901 287.28564 288.27237 289.19644
 290.02753 290.76761 291.41412 292.23804
 366.78100 356.34213 345.78126 334.65440 323.06453 311.26566 299.14279 286.95293
 274.67206 262.57619 250.59232 239.90046 230.02959 221.14072 213.32985 206.33899
 200.18012 195.12525 191.71438 189.76352 188.80765 188.87878 189.72091 191.03605
 192.76818 194.87031 197.14044 199.50658 201.95871 204.44584 206.54097 208.39011
 210.02324 211.17537 211.41150 211.64664 211.59077 211.30290 210.94303 210.58017
 210.20430 209.92143 209.73656 209.60770 209.54283 209.88096 210.27409 210.67023
 211.47036 212.65549 213.91262 215.70276 217.63789 219.68802 221.79015 223.88029
 225.94742 228.03855 230.14268 232.25582 234.39195 236.57108 238.83421 241.21135
 243.83948 246.09761 248.10674 249.87888 251.30301 252.43314 253.26227 253.58541
 253.62954 253.41067 252.77780 251.73294 250.34607 248.51420 246.43033 244.27046
 242.06860 239.87973 237.70686 235.55299 233.42013 231.29426 229.32739 227.49152
 225.78166 224.26079 222.89792 221.67705 220.56619 219.53332 218.64445 217.79258
 217.04172 216.22885 215.33398 214.70511 214.16225 213.45352 211.76172 210.62245
 210.68198 211.22565 212.54601 214.97806 218.47263 223.11832 228.98979 233.96991
 237.85138 242.02486 246.28996 250.45721 254.38768 257.96088 260.83896 263.48312
 266.03656 268.45367 270.72525 272.84982 274.77136 276.48361 278.05328 279.65244
 281.34882 282.74551 284.03766 285.37009 286.73541 287.97009 289.09653 290.11700
 291.03479 291.85211 292.56610 293.47598
 366.78100 356.34237 345.78175 334.65512 323.06549 311.26687 299.14424 286.95461
 274.67398 262.57836 250.59473 239.90310 230.03248 221.14385 213.33322 206.34260
 200.18397 195.12934 191.71872 189.76809 188.81246 188.88384 189.72621 191.04158
 192.77395 194.87633 197.14670 199.51307 201.96545 204.45282 206.54819 208.39757
 210.03094 211.18331 211.41969 211.65506 211.59943 211.31180 210.95218 210.58955
 210.21392 209.93130 209.74667 209.61804 209.55342 209.89179 210.28516 210.68154
 211.48191 212.66728 213.92465 215.71503 217.65040 219.70077 221.80315 223.89352
 225.96089 228.05227 230.15664 232.27001 234.40639 236.58576 238.84913 241.22651
 243.85488 246.11325 248.12262 249.89500 251.31937 252.44974 253.27912 253.60249
 253.64686 253.42824 252.79561 251.75098 250.36436 248.53273 246.44910 244.28947
 242.08785 239.89922 237.72659 235.57297 233.44034 231.31471 229.34809 227.51246
 225.80283 224.28221 222.91958 221.69895 220.58833 219.55570 218.66707 217.81544
 217.06482 216.25219 215.35756 214.72894 214.18631 213.47176 211.77336 210.68005
 210.70740 211.25903 212.57802 214.96327 218.44724 223.09479 228.97601 233.94882
 237.83827 242.01952 246.29097 250.47812 254.42952 258.01367 260.90732 263.59756
 266.17615 268.53384 270.72208 272.80219 274.73438 276.44211 278.04541 279.65112
 281.29626 282.67990 284.17035 285.61707 287.05444 288.32614 289.48639 290.53751
 291.48285 292.32471 293.06012 293.99731
 366.78100 356.34599 345.78899 334.66598 323.07997 311.28496 299.16596 286.97995
 274.70294 262.61094 250.63093 239.94292 230.07592 221.19091 213.38390 206.39689
 200.24189 195.19088 191.78387 189.83687 188.88486 188.95985 189.80584 191.12484
 192.86083 194.96682 197.24082 199.61081 202.06680 204.55780 206.65679 208.50978
 210.14677 211.30277 211.54276 211.78175 211.72975 211.44574 211.08973 210.73072
 210.35872 210.07971 209.89870 209.77370 209.71269 210.05468 210.45168 210.85167
 211.65566 212.84465 214.10565 215.89964 217.83863 219.89263 221.99862 224.09261
 226.16360 228.25860 230.36659 232.48358 234.62358 236.80657 239.07356 241.45456
 244.08655 246.34854 248.36153 250.13753 251.56552 252.69951 253.53251 253.85950
 253.90749 253.69248 253.06348 252.02247 250.63946 248.81146 246.73145 244.57544
 242.37744 240.19243 238.02342 235.87341 233.74441 231.62240 229.65939 227.82739
 226.12138 224.60437 223.24536 222.02836 220.92135 219.89234 219.00734 218.15933
 217.41232 216.60332 215.71231 215.08730 214.54829 213.66383 211.61153 210.66524
 210.89258 211.35054 212.65091 215.02315 218.42068 223.02342 228.88159 233.85657
 237.72925 241.90985 246.17680 250.36559 254.33109 257.93463 260.77734 263.43143
 266.07892 268.53024 270.73007 272.81143 274.75604 276.52472 278.11441 279.73904
 281.33264 282.76886 284.19254 285.57092 286.83789 288.08447 289.22183 290.25217
 291.17886 292.00406 292.72495 293.64365
 366.78100 356.34720 345.79140 334.66960 323.08480 311.29100 299.17320 286.98840
 274.71259 262.62179 250.64299 239.95619 230.09039 221.20659 213.40079 206.41499
 200.26119 195.21139 191.80559 189.85979 188.90899 188.98519 189.83238 191.15258
 192.88978 194.99698 197.27218 199.64338 202.10058 204.59278 206.69298 208.54718
 210.18538 211.34258 211.58378 211.82398 211.77317 211.49037 211.13557 210.77777
 210.40697 210.12917 209.94937 209.82557 209.76577 210.10897 210.50717 210.90837
 211.71357 212.90377 214.16597 215.96116 217.90136 219.95656 222.06376 224.15896
 226.23116 228.32736 230.43656 232.55476 234.69596 236.88016 239.14836 241.53056
 244.16376 246.42695 248.44115 250.21835 251.64755 252.78275 253.61695 253.94515
 253.99435 253.78055 253.15275 252.11295 250.73115 248.90435 246.82555 244.67074
 242.47394 240.29014 238.12234 235.97354 233.84574 231.72494 229.76314 227.93234
 226.22754 224.71174 223.35394 222.13814 221.03234 220.00453 219.12073 218.27393
 217.52813 216.72033 215.83053 215.20673 214.66893 213.74344 211.59543 210.64784
 211.05180 211.55675 212.72060 215.02708 218.34286 222.90349 228.73032 233.70685
 237.57251 241.74850 246.00610 250.18864 254.15334 257.70343 260.48679 263.11981
 266.02118 268.51605 270.72366 272.79391 274.73343 276.50674 278.08347 279.71802
 281.31796 282.72995 284.06952 285.42462 286.62671 287.74606 288.78613 289.72836
 290.57581 291.33044 291.98969 292.82980
 366.78100 356.34608 345.78916 334.66624 323.08032 311.28540 299.16648 286.98056
 274.70364 262.61172 250.63179 239.94387 230.07695 221.19203 213.38511 206.39819
 200.24327 195.19235 191.78543 189.83851 188.88659 188.96167 189.80775 191.12683
 192.86291 194.96899 197.24307 199.61315 202.06922 204.56030 206.65938 208.51246
 210.14954 211.30562 211.54570 211.78478 211.73286 211.44894 211.09302 210.73410
 210.36218 210.08326 209.90234 209.77742 209.71650 210.05858 210.45566 210.85573
 211.65981 212.84889 214.10997 215.90405 217.84313 219.89721 222.00329 224.09737
 226.16845 228.26353 230.37161 232.48869 234.62877 236.81185 239.07893 241.46001
 244.09209 246.35416 248.36724 250.14332 251.57140 252.70548 253.53856 253.86564
 253.91372 253.69880 253.06988 252.02896 250.64604 248.81812 246.73820 244.58228
 242.38436 240.19944 238.03052 235.88060 233.75167 231.62975 229.66683 227.83491
 226.12899 224.61207 223.25315 222.03623 220.92931 219.90039 219.01547 218.16755
 217.42063 216.61171 215.72079 215.09587 214.55695 213.72499 211.75566 210.62953
 211.02789 211.84062 213.05423 215.05066 218.21014 222.82397 228.72548 233.67587
 237.54170 241.71849 245.97739 250.15952 254.13156 257.64163 260.43741 263.00949
 265.77573 268.31631 270.63919 272.81274 274.73419 276.46191 277.95795 279.49716
 281.01520 282.29953 283.71863 285.18719 286.51065 287.68155 288.74985 289.71765
 290.58807 291.36319 292.04031 292.90323
 366.78100 356.34538 345.78776 334.66413 323.07751 311.28189 299.16227 286.97564
 274.69802 262.60540 250.62478 239.93615 230.06853 221.18291 213.37529 206.38766
 200.23204 195.18042 191.77280 189.82517 188.87255 188.94693 189.79231 191.11068
 192.84606 194.95144 197.22482 199.59419 202.04957 204.53995 206.63833 208.49070
 210.12708 211.28246 211.52184 211.76021 211.70759 211.42297 211.06635 210.70672
 210.33410 210.05448 209.87286 209.74723 209.68561 210.02699 210.42337 210.82275
 211.62612 212.81450 214.07488 215.86826 217.80663 219.86001 221.96539 224.05877
 226.12914 228.22352 230.33090 232.44728 234.58665 236.76903 239.03541 241.41579
 244.04716 246.30854 248.32092 250.09630 251.52367 252.65705 253.48943 253.81581
 253.86318 253.64756 253.01794 251.97632 250.59269 248.76407 246.68345 244.52683
 242.32820 240.14258 237.97296 235.82234 233.69271 231.57009 229.60647 227.77385
 226.06722 224.54960 223.18998 221.97236 220.86473 219.83511 218.94949 218.10087
 217.35325 216.54362 215.65200 215.02638 214.48676 213.75247 211.90562 210.62462
 210.89760 211.85869 213.20554 215.15891 218.25006 222.75412 228.73814 233.73018
 237.62141 241.81804 246.08873 250.30377 254.31619 257.85196 260.64474 263.22745
 265.86722 268.31033 270.54645 272.64651 274.57986 276.21753 277.96558 279.62408
 280.87961 282.84738 284.57925 286.09998 287.41605 288.58041 289.64273 290.60510
 291.47067 292.24146 292.91479 293.77289
 366.78100 356.34347 345.78393 334.65840 323.06987 311.27234 299.15080 286.96227
 274.68274 262.58821 250.60567 239.91514 230.04561 221.15808 213.34854 206.35901
 200.20148 195.14795 191.73841 189.78888 188.83435 188.90682 189.75028 191.06675
 192.80022 194.90369 197.17515 199.54262 201.99609 204.48456 206.58102 208.43149
 210.06596 211.21943 211.45689 211.69336 211.63883 211.35230 210.99376 210.63223
 210.25770 209.97617 209.79263 209.66510 209.60157 209.94104 210.33550 210.73297
 211.53444 212.72091 213.97937 215.77084 217.70731 219.75878 221.86224 223.95371
 226.02218 228.11465 230.22011 232.33458 234.47205 236.65251 238.91698 241.29545
 243.92492 246.18438 248.19485 249.96832 251.39379 252.52525 253.35572 253.68019
 253.72566 253.50812 252.87659 251.83306 250.44753 248.61699 246.53446 244.37593
 242.17540 239.98786 237.81633 235.66380 233.53227 231.40773 229.44220 227.60767
 225.89914 224.37960 223.01807 221.79854 220.68901 219.65747 218.76994 217.91941
 217.16988 216.35834 215.46481 214.83728 214.29575 213.69246 212.06668 210.72903
 210.78502 211.67122 213.09679 215.13390 218.27998 222.76277 228.73119 233.74146
 237.63568 241.85645 246.15875 250.41905 254.49565 258.09122 261.00146 263.58362
 266.11493 268.47903 270.67224 272.73480 274.58627 276.14737 278.09607 279.57724
 281.75018 283.88663 285.73535 287.35867 288.76352 290.00647 291.14044 292.16776
 293.09171 293.91449 294.63327 295.54926
 366.78100 356.34322 345.78343 334.65765 323.06886 311.27108 299.14930 286.96051
 274.68073 262.58594 250.60316 239.91238 230.04259 221.15481 213.34502 206.35524
 200.19746 195.14367 191.73389 189.78410 188.82932 188.90154 189.74475 191.06097
 192.79418 194.89740 197.16862 199.53583 201.98905 204.47726 206.57348 208.42370
 210.05791 211.21113 211.44834 211.68456 211.62978 211.34299 210.98421 210.62242
 210.24764 209.96586 209.78207 209.65429 209.59050 209.92972 210.32394 210.72115
 211.52237 212.70858 213.96680 215.75802 217.69423 219.74545 221.84866 223.93988
 226.00810 228.10031 230.20553 232.31974 234.45696 236.63718 238.90139 241.27961
 243.90882 246.16804 248.17826 249.95147 251.37669 252.50790 253.33812 253.66234
 253.70755 253.48977 252.85798 251.81420 250.42842 248.59763 246.51485 244.35606
 242.15528 239.96750 237.79571 235.64293 233.51114 231.38636 229.42058 227.58579
 225.87701 224.35722 222.99544 221.77566 220.66587 219.63409 218.74630 217.89552
 217.14574 216.33395 215.44017 214.81238 214.27060 213.66118 212.10506 210.89925
 210.94789 211.66809 212.98683 215.00067 218.11128 222.62323 228.60448 233.56592
 237.44731 241.65463 245.95375 250.23784 254.34656 257.94260 260.88931 263.52664
 266.09702 268.57202 270.84680 272.96234 274.89145 276.61932 278.07907 279.82990
 281.88876 284.11029 286.10376 287.85419 289.36902 290.70926 291.93204 293.03979
 294.03607 294.92328 295.69833 296.68604
 366.78100 356.34479 345.78659 334.66238 323.07517 311.27896 299.15876 286.97155
 274.69334 262.60013 250.61893 239.92972 230.06151 221.17530 213.36710 206.37889
 200.22268 195.17047 191.76227 189.81406 188.86085 188.93464 189.77944 191.09723
 192.83202 194.93681 197.20961 199.57840 202.03319 204.52298 206.62078 208.47257
 210.10836 211.26315 211.50195 211.73974 211.68653 211.40132 211.04412 210.68391
 210.31070 210.03049 209.84829 209.72208 209.65987 210.00066 210.39646 210.79525
 211.59804 212.78583 214.04563 215.83842 217.77621 219.82900 221.93380 224.02659
 226.09638 228.19017 230.29697 232.41276 234.55155 236.73334 238.99914 241.37893
 244.00972 246.27051 248.28231 250.05710 251.48389 252.61668 253.44848 253.77427
 253.82106 253.60485 252.97465 251.93244 250.54823 248.71902 246.63782 244.48061
 242.28140 240.09520 237.92499 235.77378 233.64357 231.52037 229.55616 227.72295
 226.01574 224.49754 223.13733 221.91912 220.81091 219.78071 218.89450 218.04529
 217.29708 216.48688 215.59467 214.96846 214.42825 213.72321 212.03683 210.97417
 211.07210 211.71300 213.10632 215.11720 218.11957 222.66486 228.53253 233.44432
 237.28865 241.47824 245.75284 249.98395 254.00491 257.51981 260.46085 263.08737
 265.85840 268.40182 270.72604 272.86523 274.83441 276.64539 278.37921 279.92950
 281.59363 283.36053 284.99228 286.52972 287.86023 289.03741 290.11139 291.08435
 291.95944 292.73871 293.41943 294.28696
 366.78100 356.34574 345.78848 334.66523 323.07897 311.28371 299.16445 286.97820
 274.70094 262.60868 250.62842 239.94016 230.07291 221.18765 213.38039 206.39313
 200.23788 195.18662 191.77936 189.83210 188.87984 188.95459 189.80033 191.11907
 192.85481 194.96056 197.23430 199.60404 202.05978 204.55052 206.64927 208.50201
 210.13875 211.29449 211.53424 211.77298 211.72072 211.43646 211.08021 210.72095
 210.34869 210.06943 209.88817 209.76292 209.70166 210.04340 210.44014 210.83989
 211.64363 212.83237 214.09311 215.88685 217.82560 219.87934 221.98508 224.07882
 226.14957 228.24431 230.35205 232.46879 234.60853 236.79128 239.05802 241.43876
 244.07050 246.33225 248.34499 250.12073 251.54847 252.68221 253.51496 253.84170
 253.88944 253.67418 253.04493 252.00367 250.62041 248.79215 246.71189 244.55564
 242.35738 240.17212 238.00286 235.85261 233.72335 231.60109 229.63783 227.80557
 226.09932 224.58206 223.22280 222.00554 220.89829 219.86903 218.98377 218.13551
 217.38825 216.57900 215.68774 215.06248 214.52322 213.79124 212.05057 210.99098
 211.08221 211.72227 213.17772 215.24329 218.19498 222.66077 228.55116 233.43916
 237.26039 241.44427 245.71892 249.95631 254.02565 257.51181 260.30579 262.83560
 265.61966 268.24658 270.70773 272.85205 274.76001 276.46564 278.03720 279.68903
 281.17804 282.72119 284.31143 285.80948 287.11227 288.26492 289.31653 290.26920
 291.12604 291.88904 292.55560 293.40506
 366.78100 356.34379 345.78459 334.65938 323.07117 311.27397 299.15276 286.96455
 274.68534 262.59114 250.60893 239.91872 230.04952 221.16231 213.35310 206.36390
 200.20669 195.15348 191.74428 189.79507 188.84086 188.91365 189.75745 191.07424
 192.80803 194.91183 197.18362 199.55141 202.00521 204.49400 206.59079 208.44159
 210.07638 211.23017 211.46796 211.70476 211.65055 211.36434 211.00614 210.64493
 210.27072 209.98952 209.80631 209.67910 209.61590 209.95569 210.35048 210.74827
 211.55007 212.73686 213.99565 215.78745 217.72424 219.77603 221.87983 223.97162
 226.04041 228.13321 230.23900 232.35379 234.49158 236.67238 238.93717 241.31596
 243.94576 246.20555 248.21634 249.99014 251.41593 252.54772 253.37852 253.70331
 253.74910 253.53189 252.90069 251.85748 250.47227 248.64207 246.55986 244.40165
 242.20145 240.01424 237.84303 235.69083 233.55962 231.43541 229.47020 227.63600
 225.92779 224.40858 223.04738 221.82817 220.71896 219.68776 218.80055 217.95034
 217.20114 216.38993 215.49672 214.86952 214.32831 213.74893 212.25259 210.99449
 210.98080 211.76572 213.19243 215.27083 218.26440 222.60045 228.51483 233.41687
 237.26492 241.45647 245.73975 250.03922 254.13948 257.69772 260.45151 262.96326
 265.55930 268.11093 270.51007 272.74506 274.70599 276.34814 277.95407 279.56982
 280.90448 282.81592 284.53580 286.04599 287.35291 288.50922 289.56418 290.51987
 291.37943 292.14487 292.81354 293.66568
 366.78100 356.34138 345.77975 334.65213 323.06151 311.26188 299.13826 286.94764
 274.66601 262.56939 250.58477 239.89214 230.02052 221.13090 213.31927 206.32765
 200.16802 195.11240 191.70078 189.74915 188.79253 188.86291 189.70428 191.01866
 192.75004 194.85141 197.12079 199.48617 201.93754 204.42392 206.51830 208.36667
 209.99905 211.15043 211.38580 211.62018 211.56356 211.27493 210.91431 210.55069
 210.17406 209.89044 209.70481 209.57519 209.50957 209.84694 210.23932 210.63470
 211.43407 212.61845 213.87483 215.66420 217.59858 219.64796 221.74933 223.83871
 225.90509 227.99546 230.09884 232.21122 234.34659 236.52497 238.78735 241.16372
 243.79110 246.04848 248.05685 249.82823 251.25161 252.38098 253.20936 253.53173
 253.57511 253.35549 252.72186 251.67624 250.28862 248.45599 246.37137 244.21075
 242.00812 239.81850 237.64488 235.49025 233.35663 231.23001 229.26238 227.42576
 225.71514 224.19351 222.82989 221.60827 220.49664 219.46302 218.57340 217.72077
 216.96915 216.15553 215.25990 214.63028 214.08665 213.67207 212.44557 211.04166
 210.85953 211.65466 213.09676 215.23463 218.31815 222.65446 228.45384 233.38426
 237.24371 241.46680 245.77698 250.11757 254.26387 257.88278 260.84058 263.36923
 265.84250 268.31204 270.67230 272.82877 274.60516 276.23184 278.12598 279.60168
 280.78879 281.80634 282.68683 283.45999 284.12909 284.72107 285.26117 285.75046
 286.19052 286.58240 286.92471 287.36099
 366.78100 356.34526 345.78753 334.66379 323.07706 311.28132 299.16158 286.97485
 274.69711 262.60438 250.62364 239.93490 230.06717 221.18143 213.37370 206.38596
 200.23022 195.17849 191.77075 189.82302 188.87028 188.94454 189.78981 191.10807
 192.84334 194.94860 197.22186 199.59113 202.04639 204.53666 206.63492 208.48718
 210.12345 211.27871 211.51798 211.75624 211.70351 211.41877 211.06203 210.70230
 210.32956 210.04983 209.86809 209.74235 209.68062 210.02188 210.41815 210.81741
 211.62067 212.80894 214.06920 215.86247 217.80073 219.85399 221.95926 224.05252
 226.12279 228.21705 230.32431 232.44058 234.57984 236.76211 239.02837 241.40863
 244.03990 246.30116 248.31343 250.08869 251.51595 252.64922 253.48148 253.80775
 253.85501 253.63927 253.00954 251.96780 250.58407 248.75533 246.67459 244.51786
 242.31912 240.13339 237.96365 235.81291 233.68318 231.56044 229.59671 227.76397
 226.05723 224.53950 223.17976 221.96203 220.85429 219.82455 218.93882 218.09008
 217.34235 216.53261 215.64087 215.01514 214.47540 213.84171 212.30017 211.23422
 211.11810 211.78806 212.95535 214.98108 218.04471 222.49127 228.34792 233.24304
 237.10371 241.31647 245.63112 250.01512 254.24947 257.87433 260.80008 263.38608
 266.00595 268.60782 271.11166 273.44025 275.25732 276.82974 278.19839 279.92203
 282.16348 284.40845 286.35110 288.05688 289.53311 290.83917 292.03076 293.11026
 294.08118 294.94574 295.70102 296.66354
 366.78100 356.34735 345.79171 334.67006 323.08541 311.29177 299.17412 286.98948
 274.71383 262.62318 250.64454 239.95789 230.09224 221.20860 213.40295 206.41731
 200.26366 195.21401 191.80837 189.86272 188.91207 188.98843 189.83578 191.15614
 192.89349 195.00084 197.27620 199.64755 202.10490 204.59726 206.69761 208.55197
 210.19032 211.34767 211.58903 211.82938 211.77873 211.49609 211.14144 210.78380
 210.41315 210.13550 209.95586 209.83221 209.77256 210.11592 210.51427 210.91562
 211.72098 212.91133 214.17369 215.96904 217.90939 219.96475 222.07210 224.16745
 226.23981 228.33616 230.44552 232.56387 234.70522 236.88958 239.15793 241.54028
 244.17364 246.43699 248.45135 250.22870 251.65805 252.79341 253.62776 253.95611
 254.00547 253.79182 253.16418 252.12453 250.74288 248.91624 246.83759 244.68294
 242.48630 240.30265 238.13500 235.98636 233.85871 231.73807 229.77642 227.94577
 226.24113 224.72548 223.36783 222.15219 221.04654 220.01890 219.13525 218.28860
 217.54296 216.73531 215.84566 215.22202 214.68437 213.92697 212.15846 211.18900
 211.20119 211.94322 213.14708 214.99472 218.01886 222.50655 228.20006 233.12129
 236.94862 241.16341 245.48857 249.78839 253.85745 257.34763 260.24963 262.92307
 265.58664 268.23267 270.73309 273.04953 275.15762 277.05646 278.84314 280.58691
 282.17679 283.69199 285.18396 286.58542 287.90588 289.10223 290.19373 291.18256
 292.07187 292.86383 293.55566 294.43732
 366.78100 356.34677 345.79055 334.66832 323.08309 311.28886 299.17064 286.98541
 274.70918 262.61796 250.63873 239.95150 230.08527 221.20105 213.39482 206.40859
 200.25437 195.20414 191.79791 189.85168 188.90046 188.97623 189.82300 191.14277
 192.87955 194.98632 197.26109 199.63187 202.08864 204.58041 206.68018 208.53396
 210.17173 211.32850 211.56928 211.80905 211.75782 211.47459 211.11937 210.76114
 210.38991 210.11169 209.93146 209.80723 209.74700 210.08978 210.48755 210.88832
 211.69310 212.88287 214.14464 215.93941 217.87919 219.93396 222.04073 224.13550
 226.20728 228.30305 230.41182 232.52960 234.67037 236.85414 239.12191 241.50369
 244.13646 246.39923 248.41301 250.18978 251.61855 252.75332 253.58710 253.91487
 253.96364 253.74942 253.12119 252.08096 250.69873 248.87151 246.79228 244.63705
 242.43983 240.25560 238.08737 235.93814 233.80992 231.68869 229.72646 227.89524
 226.19001 224.67378 223.31555 222.09933 220.99310 219.96487 219.08064 218.23342
 217.48719 216.67896 215.78874 215.16451 214.62628 213.88284 212.13197 211.30795
 211.13263 211.82352 213.25755 215.09384 217.99405 222.38446 228.23308 233.03970
 236.95026 241.13591 245.47122 249.73595 253.77301 257.27966 260.17419 262.77255
 265.39688 268.04749 270.51437 272.77829 274.86398 276.79922 278.62213 280.33792
 281.91687 283.29861 284.48743 285.56000 286.52267 287.33856 288.02814 288.59586
 289.01190 289.28876 289.50412 289.77859
 366.78100 356.34633 345.78967 334.66700 323.08133 311.28666 299.16800 286.98233
 274.70566 262.61399 250.63433 239.94666 230.07999 221.19532 213.38866 206.40199
 200.24732 195.19665 191.78999 189.84332 188.89165 188.96698 189.81332 191.13265
 192.86898 194.97532 197.24965 199.61998 202.07631 204.56765 206.66698 208.52031
 210.15764 211.31398 211.55431 211.79364 211.74197 211.45831 211.10264 210.74397
 210.37230 210.09364 209.91297 209.78830 209.72763 210.06997 210.46730 210.86763
 211.67196 212.86130 214.12263 215.91696 217.85630 219.91063 222.01696 224.11129
 226.18263 228.27796 230.38629 232.50362 234.64396 236.82729 239.09462 241.47595
 244.10829 246.37062 248.38395 250.16028 251.58862 252.72295 253.55628 253.88361
 253.93195 253.71728 253.08861 252.04795 250.66528 248.83761 246.75794 244.60228
 242.40461 240.21994 238.05127 235.90161 233.77294 231.65127 229.68860 227.85694
 226.15127 224.63460 223.27593 222.05927 220.95260 219.92393 219.03926 218.19160
 217.44493 216.63626 215.74559 215.12093 214.58226 213.88261 212.22960 211.29803
 211.12801 211.85641 213.21620 215.01192 217.89047 222.32748 228.23962 232.98505
 236.90640 241.14354 245.49786 249.79517 253.91296 257.44196 260.25439 262.72516
 265.35440 268.02817 270.44592 272.65219 274.69547 276.61578 278.42291 280.14102
 281.78958 283.22351 284.33221 285.25974 286.16586 287.03024 287.78442 288.39172
 288.84616 289.16617 289.38879 289.91205
 366.78100 356.34347 345.78394 334.65841 323.06987 311.27234 299.15081 286.96228
 274.68275 262.58822 250.60569 239.91516 230.04562 221.15809 213.34856 206.35903
 200.20150 195.14797 191.73844 189.78890 188.83437 188.90684 189.75031 191.06678
 192.80025 194.90372 197.17519 199.54265 201.99612 204.48459 206.58106 208.43153
 210.06600 211.21947 211.45694 211.69340 211.63887 211.35234 210.99381 210.63228
 210.25775 209.97622 209.79268 209.66515 209.60162 209.94109 210.33556 210.73303
 211.53450 212.72097 213.97943 215.77090 217.70737 219.75884 221.86231 223.95378
 226.02225 228.11471 230.22018 232.33465 234.47212 236.65259 238.91706 241.29553
 243.92500 246.18446 248.19493 249.96840 251.39387 252.52534 253.35581 253.68028
 253.72574 253.50821 252.87668 251.83315 250.44762 248.61709 246.53456 244.37603
 242.17549 239.98796 237.81643 235.66390 233.53237 231.40784 229.44231 227.60778
 225.89924 224.37971 223.01818 221.79865 220.68912 219.65759 218.77006 217.91952
 217.16999 216.35846 215.46493 214.83740 214.29587 213.78067 212.54163 211.23660
 211.03043 211.59717 213.02780 215.09854 218.12299 222.47177 228.19083 233.04932
 236.89680 241.14392 245.50026 249.81650 253.89955 257.41214 260.25812 262.77496
 265.37726 267.97223 270.35440 272.54156 274.54279 276.43506 278.25470 280.01071
 281.64774 283.01553 284.14670 285.06314 285.88837 286.66263 287.55048 288.47980
 289.37277 290.16794 290.86258 291.74783
 366.78100 356.34129 345.77958 334.65187 323.06116 311.26145 299.13774 286.94703
 274.66532 262.56861 250.58390 239.89119 230.01947 221.12976 213.31805 206.32634
 200.16663 195.11092 191.69921 189.74750 188.79079 188.86108 189.70237 191.01666
 192.74795 194.84924 197.11853 199.48382 201.93511 204.42140 206.51569 208.36398
 209.99627 211.14756 211.38285 211.61714 211.56042 211.27171 210.91100 210.54729
 210.17058 209.88687 209.70116 209.57145 209.50574 209.84303 210.23532 210.63061
 211.42990 212.61419 213.87048 215.65977 217.59406 219.64335 221.74464 223.83393
 225.90022 227.99051 230.09380 232.20608 234.34137 236.51966 238.78195 241.15824
 243.78553 246.04282 248.05111 249.82240 251.24569 252.37498 253.20327 253.52556
 253.56885 253.34914 252.71543 251.66972 250.28201 248.44930 246.36459 244.20388
 242.00117 239.81146 237.63774 235.48303 233.34932 231.22261 229.25490 227.41819
 225.70748 224.18577 222.82206 221.60035 220.48864 219.45493 218.56522 217.71251
 216.96080 216.14709 215.25138 214.62167 214.07796 213.73120 212.75706 211.23102
 211.05605 211.67270 213.18079 215.29430 218.29990 222.58243 228.21806 232.98631
 236.82047 241.06500 245.42162 249.75623 253.84525 257.30988 260.12762 262.68973
 265.44128 268.06372 270.40134 272.55408 274.48975 276.35104 278.12228 279.83716
 281.35632 282.61557 283.79608 285.26086 286.62381 287.82965 288.92981 289.92648
 290.82288 291.62112 292.31845 293.20712
 366.78100 356.34119 345.77937 334.65156 323.06074 311.26093 299.13711 286.94630
 274.66448 262.56767 250.58285 239.89004 230.01822 221.12841 213.31659 206.32478
 200.16497 195.10915 191.69734 189.74552 188.78871 188.85889 189.70008 191.01426
 192.74545 194.84663 197.11582 199.48100 201.93219 204.41838 206.51256 208.36075
 209.99293 211.14412 211.37930 211.61349 211.55667 211.26786 210.90704 210.54323
 210.16641 209.88260 209.69678 209.56697 209.50116 209.83834 210.23053 210.62571
 211.42490 212.60908 213.86527 215.65445 217.58864 219.63782 221.73901 223.82819
 225.89438 227.98457 230.08775 232.19994 234.33512 236.51331 238.77549 241.15168
 243.77886 246.03605 248.04423 249.81542 251.23860 252.36779 253.19597 253.51816
 253.56135 253.34153 252.70772 251.66190 250.27409 248.44127 246.35646 244.19564
 241.99283 239.80301 237.62920 235.47438 233.34057 231.21376 229.24594 227.40913
 225.69831 224.17650 222.81268 221.59087 220.47905 219.44524 218.55542 217.70261
 216.95079 216.13698 215.24116 214.61135 214.06754 213.77275 212.82840 211.36076
 211.00066 211.68697 213.34940 215.44739 218.29765 222.41388 228.18074 232.92751
 236.75133 240.97882 245.33836 249.68597 253.77400 257.27316 260.01318 262.64969
 265.44461 268.13083 270.51254 272.59937 274.48599 276.36557 278.07336 279.60693
 281.12546 283.13651 284.97116 286.58212 287.97626 289.20972 290.33505 291.35452
 292.27145 293.08795 293.80124 294.71027
 366.78100 356.34169 345.78037 334.65306 323.06274 311.26343 299.14011 286.94980
 274.66848 262.57217 250.58786 239.89554 230.02423 221.13491 213.32360 206.33228
 200.17297 195.11765 191.70634 189.75503 188.79871 188.86940 189.71108 191.02577
 192.75745 194.85914 197.12882 199.49451 201.94620 204.43288 206.52757 208.37625
 210.00894 211.16062 211.39631 211.63099 211.57468 211.28636 210.92605 210.56274
 210.18642 209.90311 209.71779 209.58848 209.52316 209.86085 210.25353 210.64922
 211.44891 212.63359 213.89028 215.67996 217.61465 219.66433 221.76602 223.85570
 225.92239 228.01308 230.11676 232.22945 234.36513 236.54382 238.80650 241.18319
 243.81087 246.06856 248.07725 249.84893 251.27262 252.40230 253.23099 253.55367
 253.59736 253.37804 252.74473 251.69942 250.31210 248.47979 246.39547 244.23516
 242.03284 239.84353 237.67021 235.51590 233.38259 231.25627 229.28896 227.45264
 225.74233 224.22101 222.85770 221.63638 220.52507 219.49175 218.60244 217.75013
 216.99881 216.18550 215.29018 214.66087 214.11755 213.83066 212.90617 211.52431
 210.76883 211.44121 213.29547 215.51357 218.41612 222.53227 228.15739 232.93410
 236.78136 241.03474 245.40395 249.76576 253.88228 257.39197 260.23111 262.82965
 265.55313 268.23688 270.60962 272.66818 274.47079 276.25571 277.96744 279.91147
 282.44519 284.61700 286.49634 288.14655 289.57465 290.83817 291.99091 293.03525
 293.97449 294.81088 295.54156 296.47272
 366.78100 356.34615 345.78930 334.66645 323.08061 311.28576 299.16691 286.98106
 274.70421 262.61236 250.63252 239.94467 230.07782 221.19297 213.38612 206.39927
 200.24443 195.19358 191.78673 189.83988 188.88803 188.96318 189.80934 191.12849
 192.86464 194.97079 197.24494 199.61509 202.07125 204.56240 206.66155 208.51470
 210.15185 211.30800 211.54816 211.78731 211.73546 211.45161 211.09576 210.73691
 210.36507 210.08622 209.90537 209.78052 209.71967 210.06182 210.45898 210.85913
 211.66328 212.85243 214.11358 215.90773 217.84688 219.90104 222.00719 224.10134
 226.17249 228.26764 230.37579 232.49295 234.63310 236.81625 239.08340 241.46455
 244.09670 246.35886 248.37201 250.14816 251.57631 252.71046 253.54361 253.87077
 253.91892 253.70407 253.07522 252.03437 250.65152 248.82368 246.74383 244.58798
 242.39013 240.20528 238.03643 235.88659 233.75774 231.63589 229.67304 227.84119
 226.13534 224.61850 223.25965 222.04280 220.93595 219.90710 219.02225 218.17441
 217.42756 216.61871 215.72786 215.10301 214.56416 214.05042 212.81628 211.79980
 210.90784 211.30385 212.91006 215.15648 218.22829 222.44994 228.07242 232.91391
 236.79756 241.09355 245.50217 249.88818 254.06375 257.68890 260.64124 263.21936
 265.86444 268.51254 270.82941 272.82538 274.52316 276.41211 278.07962 280.45367
 282.87210 284.94507 286.73889 288.31400 289.67709 290.88312 291.98340 292.98019
 293.87671 294.67505 295.37247 296.26123
 366.78100 356.35183 345.80066 334.68348 323.10331 311.31414 299.20097 287.02079
 274.74962 262.66345 250.68928 240.00711 230.14593 221.26676 213.46559 206.48442
 200.33524 195.29007 191.88890 189.94773 189.00155 189.08238 189.93421 191.25904
 193.00087 195.11269 197.39252 199.76835 202.23018 204.72700 206.83183 208.69066
 210.33349 211.49532 211.74114 211.98597 211.93980 211.66163 211.31145 210.95828
 210.59211 210.31894 210.14377 210.02459 209.96942 210.31725 210.72008 211.12590
 211.93573 213.13056 214.39739 216.19722 218.14204 220.20187 222.31370 224.41353
 226.49035 228.59118 230.70501 232.82784 234.97366 237.16249 239.43532 241.82215
 244.45998 246.72780 248.74663 250.52846 251.96229 253.10211 253.94094 254.27377
 254.32760 254.11843 253.49525 252.46008 251.08291 249.26074 247.18656 245.03639
 242.84422 240.66505 238.50188 236.35770 234.23453 232.11836 230.16119 228.33501
 226.63484 225.12367 223.77050 222.55933 221.45815 220.43498 219.55581 218.71364
 217.97246 217.16929 216.28412 215.66495 215.13177 214.34618 212.59384 211.91953
 211.46616 211.60599 212.76059 214.81299 217.91039 222.17719 227.81029 232.67744
 236.58701 240.89592 245.32948 249.77199 253.99457 257.61246 260.57617 263.21988
 265.92828 268.66431 271.08920 273.12506 274.64188 276.34210 278.16251 280.55774
 283.16440 285.41928 287.37054 289.08389 290.56665 291.87851 293.07538 294.15964
 295.13483 296.00323 296.76187 297.72867
 366.78100 356.35307 345.80314 334.68721 323.10828 311.32035 299.20842 287.02949
 274.75956 262.67464 250.70171 240.02078 230.16085 221.28292 213.48299 206.50306
 200.35513 195.31120 191.91127 189.97134 189.02641 189.10848 189.96155 191.28762
 193.03069 195.14376 197.42484 199.80191 202.26498 204.76305 206.86912 208.72919
 210.37326 211.53633 211.78340 212.02947 211.98454 211.70761 211.35868 211.00675
 210.64182 210.36989 210.19596 210.07803 210.02411 210.37318 210.77725 211.18432
 211.99539 213.19146 214.45953 216.26060 218.20667 220.26774 222.38081 224.48188
 226.55995 228.66202 230.77709 232.90116 235.04823 237.23831 239.51238 241.90045
 244.53952 246.80859 248.82866 250.61173 252.04680 253.18787 254.02794 254.36201
 254.41708 254.20915 253.58722 252.55329 251.17736 249.35643 247.28351 245.13458
 242.94365 240.76572 238.60379 236.46086 234.33893 232.22400 230.26807 228.44314
 226.74421 225.23428 223.88235 222.67242 221.57249 220.55056 219.67263 218.83170
 218.09178 217.28985 216.40592 215.78799 215.25606 214.45389 212.55626 211.60124
 211.74760 212.31177 213.24850 214.84062 217.69928 222.00513 227.52350 232.39130
 236.30156 240.64233 245.12889 249.54974 253.61096 257.05295 260.05026 262.96805
 265.89401 268.68085 271.13562 273.17569 274.84219 276.56345 278.64227 280.94977
 283.17105 285.26566 287.07819 288.66971 290.04706 291.26566 292.37744 293.38464
 294.29050 295.09717 295.80185 296.69992
 366.78100 356.34868 345.79436 334.67404 323.09072 311.29840 299.18208 286.99876
 274.72444 262.63512 250.65780 239.97248 230.10816 221.22584 213.42152 206.43720
 200.28488 195.23656 191.83224 189.88792 188.93860 189.01628 189.86496 191.18664
 192.92532 195.03400 197.31068 199.68336 202.14204 204.63572 206.73740 208.59308
 210.23276 211.39144 211.63412 211.87580 211.82647 211.54515 211.19183 210.83551
 210.46619 210.18987 210.01155 209.88923 209.83091 210.17559 210.57527 210.97795
 211.78463 212.97631 214.23999 216.03667 217.97835 220.03503 222.14371 224.24039
 226.31407 228.41175 230.52243 232.64211 234.78479 236.97047 239.24015 241.62383
 244.25851 246.52319 248.53887 250.31755 251.74823 252.88491 253.72059 254.05027
 254.10095 253.88863 253.26231 252.22399 250.84367 249.01835 246.94103 244.78771
 242.59239 240.41007 238.24375 236.09643 233.97011 231.85079 229.89047 228.06115
 226.35783 224.84351 223.48719 222.27287 221.16855 220.14223 219.25991 218.41459
 217.67027 216.86395 215.97563 215.35331 214.81699 214.22305 212.79132 211.52969
 211.08226 212.08517 213.58636 215.30792 218.04984 222.20544 227.55949 232.41415
 236.27989 240.56950 244.98550 249.30092 253.29358 256.77457 259.78647 262.62085
 265.43887 268.19122 270.76328 273.08228 275.12708 276.97336 278.78799 280.61526
 282.34634 283.92233 285.32382 286.62219 287.83011 288.95920 289.98935 290.92261
 291.76193 292.50937 293.16232 293.99445
 366.78100 356.34737 345.79173 334.67010 323.08547 311.29183 299.17420 286.98957
 274.71394 262.62330 250.64467 239.95804 230.09240 221.20877 213.40314 206.41750
 200.26387 195.21424 191.80861 189.86297 188.91234 188.98871 189.83607 191.15644
 192.89381 195.00117 197.27654 199.64791 202.10528 204.59764 206.69801 208.55238
 210.19074 211.34811 211.58948 211.82984 211.77921 211.49658 211.14195 210.78431
 210.41368 210.13605 209.95641 209.83278 209.77315 210.11651 210.51488 210.91625
 211.72162 212.91198 214.17435 215.96972 217.91008 219.96545 222.07282 224.16818
 226.24055 228.33692 230.44629 232.56465 234.70602 236.89039 239.15875 241.54112
 244.17449 246.43785 248.45222 250.22959 251.65896 252.79432 253.62869 253.95706
 254.00642 253.79279 253.16516 252.12552 250.74389 248.91726 246.83863 244.68399
 242.48736 240.30373 238.13609 235.98746 233.85983 231.73919 229.77756 227.94693
 226.24230 224.72666 223.36903 222.15340 221.04776 220.02013 219.13650 218.28986
 217.54423 216.73660 215.84697 215.22333 214.68570 214.14014 212.84987 211.87018
 210.97972 211.51276 213.24255 215.24046 218.04323 222.21590 227.71214 232.43259
 236.33476 240.60236 245.02432 249.34752 253.36768 256.87665 259.88562 262.65613
 265.39090 268.05594 270.52625 272.78174 274.84827 276.78357 278.61325 280.39435
 282.07623 283.55835 284.84915 285.89868 286.71457 287.62570 288.58636 289.51099
 290.35718 291.11072 291.76898 292.60788
 366.78100 356.35008 345.79716 334.67823 323.09631 311.30539 299.19047 287.00855
 274.73563 262.64770 250.67178 239.98786 230.12494 221.24402 213.44109 206.45817
 200.30725 195.26033 191.85741 189.91449 188.96656 189.04564 189.89572 191.21880
 192.95888 195.06895 197.34703 199.72111 202.18119 204.67627 206.77935 208.63642
 210.27750 211.43758 211.68166 211.92474 211.87681 211.59689 211.24497 210.89005
 210.52213 210.24721 210.07028 209.94936 209.89244 210.23852 210.63960 211.04367
 211.85175 213.04483 214.30991 216.10799 218.05107 220.10914 222.21922 224.31730
 226.39238 228.49146 230.60353 232.72461 234.86869 237.05577 239.32685 241.71193
 244.34800 246.61408 248.63116 250.41124 251.84332 252.98139 253.81847 254.14955
 254.20163 253.99071 253.36579 252.32886 250.94994 249.12602 247.05010 244.89818
 242.70425 240.52333 238.35841 236.21249 234.08757 231.96964 230.01072 228.18280
 226.48088 224.96796 223.61304 222.40011 221.29719 220.27227 219.39135 218.54743
 217.80450 216.99958 216.11266 215.49174 214.95682 214.30962 212.80070 211.89281
 211.19809 211.47452 213.06165 215.18381 218.09172 222.28453 227.70029 232.44937
 236.31137 240.60828 245.02643 249.36099 253.39635 256.90271 259.93512 262.74142
 265.50632 268.15677 270.59311 272.81516 274.86911 276.81284 278.68320 280.47116
 282.08615 283.48755 284.59219 285.60709 286.82428 288.02121 289.11322 290.10251
 290.99228 291.78461 292.47678 293.35886
 366.78100 356.34985 345.79671 334.67756 323.09541 311.30426 299.18912 287.00697
 274.73382 262.64567 250.66953 239.98538 230.12223 221.24108 213.43794 206.45479
 200.30364 195.25650 191.85335 189.91020 188.96205 189.04091 189.89076 191.21361
 192.95346 195.06332 197.34117 199.71502 202.17487 204.66973 206.77258 208.62943
 210.27028 211.43014 211.67399 211.91684 211.86870 211.58855 211.23640 210.88125
 210.51311 210.23796 210.06081 209.93966 209.88252 210.22837 210.62922 211.03307
 211.84093 213.03378 214.29863 216.09649 218.03934 220.09719 222.20704 224.30490
 226.37975 228.47860 230.59045 232.71131 234.85516 237.04201 239.31286 241.69772
 244.33357 246.59942 248.61627 250.39613 251.82798 252.96583 253.80269 254.13354
 254.18539 253.97424 253.34910 252.31195 250.93280 249.10865 247.03251 244.88036
 242.68621 240.50506 238.33992 236.19377 234.06862 231.95048 229.99133 228.16318
 226.46103 224.94789 223.59274 222.37959 221.27644 220.25130 219.37015 218.52600
 217.78285 216.97771 216.09056 215.46941 214.93427 214.32343 212.87605 211.81151
 211.22525 211.61723 213.09941 215.12064 218.02209 222.24207 227.65652 232.40195
 236.26082 240.55922 244.98190 249.31664 253.33792 256.81714 259.85684 262.72147
 265.56985 268.29105 270.77719 273.01611 275.04657 276.96667 278.80347 280.54300
 282.12830 283.51407 284.67014 285.79761 287.00443 288.18030 289.25610 290.23071
 291.10724 291.88782 292.56970 293.43869
 366.78100 356.34737 345.79175 334.67012 323.08549 311.29186 299.17424 286.98961
 274.71398 262.62336 250.64473 239.95810 230.09248 221.20885 213.40322 206.41759
 200.26397 195.21434 191.80871 189.86309 188.91246 188.98883 189.83620 191.15658
 192.89395 195.00132 197.27670 199.64807 202.10544 204.59782 206.69819 208.55256
 210.19093 211.34831 211.58968 211.83005 211.77943 211.49680 211.14217 210.78454
 210.41392 210.13629 209.95666 209.83304 209.77341 210.11678 210.51516 210.91653
 211.72190 212.91227 214.17465 215.97002 217.91039 219.96577 222.07314 224.16851
 226.24088 228.33726 230.44663 232.56500 234.70638 236.89075 239.15912 241.54150
 244.17487 246.43824 248.45261 250.22999 251.65936 252.79473 253.62911 253.95748
 254.00685 253.79323 253.16560 252.12597 250.74434 248.91772 246.83909 244.68446
 242.48784 240.30421 238.13658 235.98795 233.86033 231.73970 229.77807 227.94745
 226.24282 224.72719 223.36957 222.15394 221.04831 220.02068 219.13706 218.29043
 217.54480 216.73718 215.84755 215.22392 214.68629 214.20786 213.04739 211.80940
 211.11343 211.59923 213.09830 215.08963 217.98293 222.18829 227.61198 232.33583
 236.20107 240.48447 244.89748 249.19608 253.15900 256.59558 259.62863 262.52347
 265.39352 268.14264 270.67169 272.95480 275.01135 276.95624 278.81860 280.55933
 282.15421 283.55682 284.76917 285.89407 287.05847 288.14847 289.24692 290.24811
 291.14859 291.95047 292.65094 293.54367
 366.78100 356.34645 345.78990 334.66735 323.08179 311.28724 299.16869 286.98314
 274.70659 262.61504 250.63549 239.94794 230.08138 221.19683 213.39028 206.40373
 200.24918 195.19863 191.79208 189.84553 188.89397 188.96942 189.81587 191.13532
 192.87177 194.97822 197.25267 199.62312 202.07956 204.57101 206.67046 208.52391
 210.16136 211.31781 211.55826 211.79771 211.74615 211.46260 211.10705 210.74850
 210.37695 210.09840 209.91785 209.79329 209.73274 210.07519 210.47264 210.87309
 211.67754 212.86699 214.12844 215.92288 217.86233 219.91678 222.02323 224.11768
 226.18913 228.28458 230.39303 232.51047 234.65092 236.83437 239.10182 241.48327
 244.11572 246.37817 248.39162 250.16806 251.59651 252.73096 253.56441 253.89186
 253.94031 253.72576 253.09721 252.05665 250.67410 248.84655 246.76700 244.61145
 242.41390 240.22935 238.06080 235.91124 233.78269 231.66114 229.69859 227.86704
 226.16149 224.64494 223.28638 222.06983 220.96328 219.93473 219.05018 218.20263
 217.45608 216.64753 215.75697 215.13242 214.59387 214.17210 213.13716 211.75941
 211.09056 211.62723 213.12840 215.13231 218.00429 222.17780 227.60568 232.29688
 236.16652 240.45566 244.87706 249.16643 253.11119 256.53336 259.54593 262.42477
 265.27612 268.00598 270.52988 272.82343 274.89975 276.88007 278.77509 280.54092
 282.14163 283.53586 284.73145 285.85806 287.03589 288.09125 289.11002 290.06857
 290.93066 291.69839 292.36905 293.22372
 366.78100 356.34743 345.79187 334.67030 323.08573 311.29217 299.17460 286.99003
 274.71446 262.62390 250.64533 239.95876 230.09320 221.20963 213.40406 206.41850
 200.26493 195.21536 191.80980 189.86423 188.91366 188.99009 189.83753 191.15796
 192.89539 195.00283 197.27826 199.64969 202.10713 204.59956 206.69999 208.55443
 210.19286 211.35029 211.59172 211.83216 211.78159 211.49902 211.14446 210.78689
 210.41632 210.13876 209.95919 209.83562 209.77605 210.11949 210.51792 210.91935
 211.72479 212.91522 214.17765 215.97309 217.91352 219.96895 222.07639 224.17182
 226.24425 228.34068 230.45012 232.56855 234.70998 236.89442 239.16285 241.54528
 244.17872 246.44215 248.45658 250.23402 251.66345 252.79888 253.63331 253.96175
 254.01118 253.79761 253.17005 252.13048 250.74891 248.92235 246.84378 244.68921
 242.49265 240.30908 238.14151 235.99294 233.86538 231.74481 229.78324 227.95268
 226.24811 224.73254 223.37498 222.15941 221.05384 220.02628 219.14271 218.29614
 217.55057 216.74301 215.85344 215.22987 214.69231 214.22813 213.11134 211.75496
 211.16472 211.72012 213.16714 215.15860 217.99136 222.14737 227.60388 232.23721
 236.12080 240.42082 244.86154 249.15341 253.09477 256.52530 259.53787 262.41144
 265.24881 267.96808 270.47983 272.76953 274.86182 276.83963 278.72229 280.46896
 282.04276 283.40970 284.59732 285.70212 286.78934 287.79327 288.73386 289.61774
 290.45898 291.20813 291.86255 292.69656
 366.78100 356.34974 345.79648 334.67722 323.09496 311.30370 299.18844 287.00618
 274.73292 262.64465 250.66839 239.98413 230.12087 221.23961 213.43635 206.45309
 200.30183 195.25457 191.85131 189.90805 188.95979 189.03853 189.88827 191.21101
 192.95075 195.06049 197.33823 199.71196 202.17170 204.66644 206.76918 208.62592
 210.26666 211.42640 211.67014 211.91288 211.86462 211.58436 211.23210 210.87684
 210.50858 210.23332 210.05606 209.93480 209.87753 210.22327 210.62401 211.02775
 211.83549 213.02823 214.29297 216.09071 218.03345 220.09119 222.20093 224.29867
 226.37341 228.47215 230.58389 232.70463 234.84837 237.03511 239.30584 241.69058
 244.32632 246.59206 248.60880 250.38854 251.82028 252.95802 253.79476 254.12550
 254.17724 253.96598 253.34072 252.30346 250.92420 249.09994 247.02368 244.87142
 242.67715 240.49589 238.33063 236.18437 234.05911 231.94085 229.98159 228.15333
 226.45107 224.93781 223.58255 222.36929 221.26603 220.24077 219.35951 218.51525
 217.77199 216.96672 216.07946 215.45820 214.92294 214.35141 212.99609 211.85454
 211.25830 211.72406 213.17033 215.15817 217.96967 222.11038 227.56100 232.15620
 236.04156 240.35146 244.80154 249.09143 253.02100 256.44254 259.46805 262.36877
 265.21936 267.93784 270.43942 272.72379 274.82578 276.81451 278.69995 280.44067
 282.00427 283.35648 284.51169 285.58923 286.61713 287.41971 288.35352 289.21439
 290.01895 290.74112 291.37198 292.17596
 366.78100 356.35155 345.80010 334.68264 323.10219 311.31274 299.19929 287.01884
 274.74739 262.66093 250.68648 240.00403 230.14258 221.26313 213.46167 206.48022
 200.33077 195.28532 191.88387 189.94242 188.99596 189.07651 189.92806 191.25261
 192.99416 195.10571 197.38525 199.76080 202.22235 204.71890 206.82345 208.68199
 210.32454 211.48609 211.73164 211.97619 211.92974 211.65128 211.30083 210.94738
 210.58093 210.30748 210.13202 210.01257 209.95712 210.30467 210.70722 211.11277
 211.92231 213.11686 214.38341 216.18296 218.12751 220.18706 222.29860 224.39815
 226.47470 228.57525 230.68880 232.81134 234.95689 237.14544 239.41799 241.80454
 244.44209 246.70963 248.72818 250.50973 251.94328 253.08283 253.92137 254.25392
 254.30747 254.09802 253.47457 252.43912 251.06166 249.23921 247.16476 245.01431
 242.82186 240.64240 238.47895 236.33450 234.21105 232.09460 230.13715 228.31069
 226.61024 225.09879 223.74534 222.53389 221.43244 220.40898 219.52953 218.68708
 217.94563 217.14218 216.25672 215.63727 215.10382 214.45055 212.90996 211.91762
 211.35730 211.67429 213.12254 215.17810 218.00952 222.11967 227.53603 232.10832
 235.98415 240.29602 244.74699 249.02849 252.94145 256.35599 259.40497 262.34244
 265.20981 267.92703 270.41479 272.68448 274.79440 276.80405 278.70276 280.44119
 281.99057 283.32507 284.46143 285.51270 286.51437 287.34531 288.21213 289.06644
 289.86917 290.59390 291.22702 292.03384
 366.78100 356.35102 345.79904 334.68105 323.10007 311.31009 299.19611 287.01513
 274.74314 262.65616 250.68118 239.99820 230.13622 221.25624 213.45425 206.47227
 200.32229 195.27631 191.87433 189.93234 188.98536 189.06538 189.91640 191.24042
 192.98143 195.09245 197.37147 199.74649 202.20751 204.70353 206.80754 208.66556
 210.30758 211.46860 211.71362 211.95763 211.91065 211.63167 211.28069 210.92671
 210.55972 210.28574 210.10976 209.98978 209.93380 210.28082 210.68283 211.08785
 211.89687 213.09089 214.35691 216.15592 218.09994 220.15896 222.26998 224.36900
 226.44501 228.54503 230.65805 232.78007 234.92509 237.11311 239.38512 241.77114
 244.40816 246.67518 248.69320 250.47421 251.90723 253.04625 253.88427 254.21629
 254.26930 254.05932 253.43534 252.39936 251.02138 249.19840 247.12341 244.97243
 242.77945 240.59947 238.43549 236.29050 234.16652 232.04954 230.09156 228.26458
 226.56359 225.05161 223.69763 222.48565 221.38367 220.35968 219.47970 218.63672
 217.89474 217.09076 216.20478 215.58479 215.05081 214.42656 212.95177 211.90678
 211.43195 211.64322 213.08006 215.20834 218.04852 222.13718 227.54593 232.07414
 235.94336 240.25493 244.70683 248.97639 252.86980 256.27753 259.34180 262.30688
 265.18329 267.89850 270.37384 272.62808 274.74417 276.76517 278.66528 280.39102
 281.92188 283.24985 284.38293 285.40982 286.42957 287.34177 288.11792 288.90668
 289.68008 290.40491 291.03806 291.84497
 366.78100 356.35016 345.79732 334.67848 323.09664 311.30581 299.19097 287.00913
 274.73629 262.64845 250.67261 239.98877 230.12593 221.24510 213.44226 206.45942
 200.30858 195.26174 191.85890 189.91606 188.96822 189.04738 189.89755 191.22071
 192.96087 195.07103 197.34919 199.72335 202.18351 204.67867 206.78184 208.63900
 210.28016 211.44032 211.68448 211.92764 211.87980 211.59996 211.24812 210.89329
 210.52545 210.25061 210.07377 209.95293 209.89609 210.24225 210.64341 211.04758
 211.85574 213.04890 214.31406 216.11222 218.05538 220.11354 222.22370 224.32187
 226.39703 228.49619 230.60835 232.72951 234.87367 237.06083 239.33199 241.71715
 244.35332 246.61948 248.63664 250.41680 251.84896 252.98712 253.82428 254.15544
 254.20761 253.99677 253.37193 252.33509 250.95625 249.13241 247.05657 244.90473
 242.71089 240.53006 238.36522 236.21938 234.09454 231.97670 230.01786 228.19002
 226.48818 224.97535 223.62051 222.40767 221.30483 220.27999 219.39915 218.55531
 217.81247 217.00763 216.12080 215.49996 214.96512 214.38486 213.01317 211.87212
 211.50687 211.67427 213.04474 215.20035 218.05371 222.14275 227.54668 232.03047
 235.90135 240.21527 244.66899 248.92609 252.79173 256.18451 259.26364 262.25879
 265.14337 267.85626 270.31738 272.54718 274.66824 276.70959 278.61078 280.31955
 281.82892 283.13565 284.25806 285.30219 286.35696 287.32092 288.07819 288.77151
 289.54852 290.26767 290.91696 291.74445
 366.78100 356.35002 345.79704 334.67806 323.09608 311.30509 299.19011 287.00813
 274.73515 262.64717 250.67119 239.98721 230.12423 221.24324 213.44026 206.45728
 200.30630 195.25932 191.85634 189.91336 188.96538 189.04440 189.89441 191.21743
 192.95745 195.06747 197.34549 199.71951 202.17953 204.67455 206.77756 208.63458
 210.27560 211.43562 211.67964 211.92266 211.87468 211.59470 211.24272 210.88773
 210.51975 210.24477 210.06779 209.94681 209.88983 210.23585 210.63687 211.04088
 211.84890 213.04192 214.30694 216.10496 218.04798 220.10600 222.21602 224.31404
 226.38905 228.48807 230.60009 232.72111 234.86513 237.05215 239.32317 241.70819
 244.34420 246.61022 248.62724 250.40726 251.83928 252.97730 253.81432 254.14534
 254.19736 253.98637 253.36139 252.32441 250.94543 249.12145 247.04547 244.89349
 242.69951 240.51852 238.35354 236.20756 234.08258 231.96460 230.00562 228.17764
 226.47566 224.96267 223.60769 222.39471 221.29173 220.26675 219.38577 218.54179
 217.79881 216.99383 216.10684 215.48586 214.95088 214.37837 213.02577 211.89252
 211.54813 211.67859 213.02936 215.21132 218.06808 222.14549 227.54330 231.99997
 235.85428 240.17647 244.63870 248.89021 252.72931 256.10703 259.19882 262.21790
 265.10764 267.81339 270.26205 272.47708 274.60538 276.66083 278.56680 280.26303
 281.76099 283.05396 284.16531 285.19186 286.23413 287.21408 288.00449 288.75970
 289.52542 290.24094 290.91049 291.76764
 366.78100 356.34986 345.79671 334.67757 323.09542 311.30428 299.18914 287.00699
 274.73385 262.64571 250.66956 239.98542 230.12227 221.24113 213.43799 206.45484
 200.30370 195.25655 191.85341 189.91027 188.96212 189.04098 189.89084 191.21369
 192.95355 195.06340 197.34126 199.71512 202.17497 204.66983 206.77268 208.62954
 210.27040 211.43025 211.67411 211.91697 211.86882 211.58868 211.23653 210.88139
 210.51325 210.23810 210.06096 209.93981 209.88267 210.22853 210.62938 211.03324
 211.84110 213.03395 214.29881 216.09666 218.03952 220.09738 222.20723 224.30509
 226.37995 228.47880 230.59066 232.71151 234.85537 237.04223 239.31308 241.69794
 244.33379 246.59965 248.61651 250.39636 251.82822 252.96608 253.80293 254.13379
 254.18564 253.97450 253.34936 252.31221 250.93307 249.10892 247.03278 244.88064
 242.68649 240.50535 238.34021 236.19406 234.06892 231.95077 229.99163 228.16349
 226.46134 224.94820 223.59305 222.37991 221.27677 220.25162 219.37048 218.52634
 217.78319 216.97805 216.09090 215.46976 214.93462 214.37245 213.04430 211.90182
 211.59175 211.71945 213.03072 215.22307 218.06322 222.13002 227.51303 231.92114
 235.80043 240.12869 244.59610 248.84601 252.66281 256.03522 259.15662 262.21274
 265.10855 267.81885 270.26282 272.42703 274.52066 276.57016 278.44086 280.10477
 281.60052 282.88824 284.01987 285.10974 286.15396 287.06644 287.85983 288.64136
 289.41821 290.12808 290.79034 291.64984
 366.78100 356.35000 345.79701 334.67801 323.09602 311.30502 299.19002 287.00803
 274.73503 262.64704 250.67104 239.98704 230.12405 221.24305 213.44006 206.45706
 200.30606 195.25907 191.85607 189.91308 188.96508 189.04408 189.89409 191.21709
 192.95710 195.06710 197.34510 199.71911 202.17911 204.67412 206.77712 208.63412
 210.27513 211.43513 211.67914 211.92214 211.87414 211.59415 211.24215 210.88716
 210.51916 210.24416 210.06717 209.94617 209.88918 210.23518 210.63618 211.04019
 211.84819 213.04120 214.30620 216.10420 218.04721 220.10521 222.21522 224.31322
 226.38823 228.48723 230.59923 232.72024 234.86424 237.05125 239.32225 241.70725
 244.34326 246.60926 248.62627 250.40627 251.83827 252.97628 253.81328 254.14429
 254.19629 253.98529 253.36030 252.32330 250.94431 249.12031 247.04431 244.89232
 242.69832 240.51733 238.35233 236.20633 234.08134 231.96334 230.00435 228.17635
 226.47435 224.96136 223.60636 222.39337 221.29037 220.26537 219.38438 218.54038
 217.79739 216.99239 216.10539 215.48440 214.94940 214.39864 213.08846 211.92609
 211.49974 211.58943 213.10443 215.35803 218.21266 222.18007 227.42972 231.93860
 235.72443 240.07010 244.53360 248.76370 252.54895 255.92522 259.09814 262.17490
 265.08920 267.80048 270.24057 272.41989 274.48212 276.46790 278.31293 279.97232
 281.41995 282.67224 283.81491 284.85480 285.76874 286.81854 287.79608 288.68915
 289.51080 290.24246 290.88165 291.69620
 366.78100 356.35132 345.79964 334.68196 323.10128 311.31160 299.19792 287.01724
 274.74556 262.65888 250.68419 240.00151 230.13983 221.26015 213.45847 206.47679
 200.32711 195.28143 191.87975 189.93807 188.99139 189.07171 189.92303 191.24735
 192.98867 195.09999 197.37931 199.75463 202.21595 204.71226 206.81658 208.67490
 210.31722 211.47854 211.72386 211.96818 211.92150 211.64282 211.29214 210.93846
 210.57178 210.29810 210.12242 210.00274 209.94706 210.29438 210.69670 211.10202
 211.91133 213.10565 214.37197 216.17129 218.11561 220.17493 222.28625 224.38557
 226.46189 228.56221 230.67553 232.79785 234.94317 237.13149 239.40381 241.79013
 244.42745 246.69477 248.71309 250.49441 251.92772 253.06704 253.90536 254.23768
 254.29100 254.08132 253.45764 252.42196 251.04428 249.22160 247.14692 244.99624
 242.80356 240.62388 238.46020 236.31552 234.19184 232.07516 230.11748 228.29079
 226.59011 225.07843 223.72475 222.51307 221.41139 220.38771 219.50803 218.66535
 217.92367 217.11999 216.23431 215.61463 215.08095 214.51042 213.11264 211.88969
 211.48889 211.79758 213.39517 215.58459 218.39607 222.29085 227.44226 231.88617
 235.68079 240.02623 244.50604 248.72543 252.47441 255.83307 259.02075 262.08759
 264.98102 267.66113 270.08478 272.29712 274.40234 276.41071 278.26666 279.88043
 281.24384 282.40805 283.79803 285.31097 286.67407 287.88007 288.98035 289.97714
 290.87363 291.67197 292.36938 293.25815
 366.78100 356.35133 345.79965 334.68198 323.10130 311.31163 299.19796 287.01728
 274.74561 262.65893 250.68426 240.00158 230.13991 221.26024 213.45856 206.47689
 200.32721 195.28154 191.87987 189.93819 188.99152 189.07184 189.92317 191.24750
 192.98882 195.10015 197.37947 199.75480 202.21612 204.71245 206.81678 208.67510
 210.31743 211.47875 211.72408 211.96841 211.92173 211.64306 211.29238 210.93871
 210.57204 210.29836 210.12269 210.00301 209.94734 210.29466 210.69699 211.10232
 211.91164 213.10597 214.37229 216.17162 218.11595 220.17527 222.28660 224.38592
 226.46225 228.56258 230.67590 232.79823 234.94355 237.13188 239.40421 241.79053
 244.42786 246.69518 248.71351 250.49483 251.92816 253.06749 253.90581 254.23814
 254.29146 254.08179 253.45812 252.42244 251.04477 249.22209 247.14742 244.99675
 242.80407 240.62440 238.46072 236.31605 234.19237 232.07570 230.11803 228.29135
 226.59068 225.07900 223.72533 222.51366 221.41198 220.38831 219.50863 218.66596
 217.92429 217.12061 216.23494 215.61526 215.08159 214.55589 213.16750 211.83371
 211.48322 211.98820 213.38004 215.55988 218.37404 222.19473 227.47478 231.92348
 235.71944 240.03551 244.49255 248.72685 252.51535 255.91721 259.10895 262.16400
 265.03680 267.67722 270.03983 272.20245 274.27890 276.24277 278.00702 279.45236
 281.44656 283.68530 285.64728 287.37003 288.86093 290.17999 291.38345 292.47369
 293.45422 294.32742 295.09021 296.06229
 366.78100 356.35101 345.79901 334.68102 323.10003 311.31003 299.19604 287.01505
 274.74305 262.65606 250.68107 239.99808 230.13608 221.25609 213.45410 206.47210
 200.32211 195.27612 191.87412 189.93213 188.98514 189.06514 189.91615 191.24016
 192.98116 195.09217 197.37118 199.74618 202.20719 204.70320 206.80720 208.66521
 210.30722 211.46823 211.71323 211.95724 211.91025 211.63125 211.28026 210.92627
 210.55927 210.28528 210.10929 209.98929 209.93330 210.28031 210.68231 211.08732
 211.89633 213.09033 214.35634 216.15535 218.09935 220.15836 222.26937 224.36838
 226.44438 228.54439 230.65740 232.77940 234.92441 237.11242 239.38442 241.77043
 244.40744 246.67444 248.69245 250.47346 251.90646 253.04547 253.88348 254.21548
 254.26849 254.05850 253.43451 252.39851 251.02052 249.19753 247.12253 244.97154
 242.77855 240.59855 238.43456 236.28957 234.16557 232.04858 230.09059 228.26359
 226.56260 225.05061 223.69661 222.48462 221.38263 220.35863 219.47864 218.63565
 217.89366 217.08966 216.20367 215.58368 215.04968 214.54520 213.18890 211.84288
 211.64084 211.98553 213.23799 215.31599 218.26579 222.24980 227.30214 231.87506
 235.71899 240.08836 244.57063 248.79303 252.57443 256.01682 259.29681 262.42899
 265.31354 267.91455 270.23975 272.36255 274.35031 276.13034 277.71271 279.55048
 281.66000 283.81616 285.76498 287.47623 288.95712 290.26736 291.46274 292.54568
 293.51965 294.38699 295.14468 296.11026
 366.78100 356.34937 345.79575 334.67612 323.09350 311.30187 299.18625 287.00362
 274.73000 262.64137 250.66475 239.98012 230.11650 221.23487 213.43125 206.44762
 200.29600 195.24837 191.84475 189.90112 188.95250 189.03087 189.88025 191.20262
 192.94200 195.05137 197.32875 199.70212 202.16150 204.65587 206.75825 208.61462
 210.25500 211.41437 211.65775 211.90012 211.85150 211.57087 211.21825 210.86262
 210.49400 210.21837 210.04075 209.91912 209.86150 210.20687 210.60725 211.01062
 211.81800 213.01037 214.27474 216.07212 218.01449 220.07187 222.18124 224.27862
 226.35299 228.45137 230.56274 232.68312 234.82649 237.01287 239.28324 241.66762
 244.30299 246.56837 248.58474 250.36412 251.79549 252.93287 253.76924 254.09962
 254.15099 253.93937 253.31374 252.27612 250.89649 249.07187 246.99524 244.84262
 242.64799 240.46637 238.30074 236.15412 234.02849 231.90987 229.95024 228.12162
 226.41899 224.90537 223.54974 222.33612 221.23249 220.20687 219.32524 218.48062
 217.73699 216.93137 216.04374 215.42211 214.88649 214.41809 213.24995 211.87216
 211.56190 212.01559 213.23114 215.29637 218.26016 222.23996 227.14209 231.75450
 235.59390 239.88493 244.25539 248.39088 252.16602 255.67809 259.03958 262.25366
 265.24112 267.98068 270.46869 272.73309 274.82227 276.75916 278.53482 280.06604
 281.31464 282.39270 283.57535 284.77124 285.99872 287.20728 288.30991 289.30878
 290.20718 291.00723 291.70612 292.59677
 366.78100 356.34899 345.79499 334.67498 323.09198 311.29997 299.18396 287.00096
 274.72695 262.63794 250.66094 239.97593 230.11193 221.22992 213.42591 206.44191
 200.28990 195.24190 191.83789 189.89388 188.94488 189.02287 189.87187 191.19386
 192.93285 195.04185 197.31884 199.69183 202.15083 204.64482 206.74682 208.60281
 210.24280 211.40180 211.64479 211.88679 211.83778 211.55677 211.20377 210.84776
 210.47876 210.20275 210.02474 209.90274 209.84473 210.18972 210.58972 210.99271
 211.79971 212.99170 214.25569 216.05269 217.99468 220.05168 222.16067 224.25766
 226.33166 228.42965 230.54065 232.66064 234.80363 236.98963 239.25962 241.64361
 244.27861 246.54360 248.55960 250.33859 251.76958 252.90658 253.74257 254.07257
 254.12356 253.91155 253.28555 252.24754 250.86754 249.04253 246.96552 244.81252
 242.61751 240.43550 238.26950 236.12249 233.99649 231.87748 229.91747 228.08847
 226.38546 224.87146 223.51545 222.30144 221.19744 220.17143 219.28943 218.44442
 217.70041 216.89441 216.00640 215.38439 214.84839 214.34840 213.16711 212.11874
 211.58420 211.94804 213.22113 215.25606 218.13736 222.12746 227.27397 231.55324
 235.59665 239.80275 244.17363 248.27681 251.99849 255.42723 258.70325 261.83835
 264.79562 267.55981 270.13071 272.49200 274.68631 276.73956 278.63464 280.30066
 281.70914 282.87924 283.87097 284.74222 285.59451 286.54791 287.45328 288.01843
 288.69458 289.39771 290.06509 290.91559
 366.78100 356.34807 345.79315 334.67222 323.08830 311.29537 299.17844 286.99452
 274.71959 262.62966 250.65174 239.96581 230.10089 221.21796 213.41303 206.42811
 200.27518 195.22625 191.82133 189.87640 188.92648 189.00355 189.85162 191.17270
 192.91077 195.01884 197.29492 199.66699 202.12507 204.61814 206.71921 208.57429
 210.21336 211.37143 211.61351 211.85458 211.80466 211.52273 211.16880 210.81188
 210.44195 210.16503 209.98610 209.86317 209.80425 210.14832 210.54739 210.94947
 211.75554 212.94662 214.20969 216.00576 217.94684 220.00291 222.11098 224.20706
 226.28013 228.37721 230.48728 232.60635 234.74843 236.93350 239.20257 241.58565
 244.21972 246.48380 248.49887 250.27694 251.70702 252.84309 253.67816 254.00724
 254.05731 253.84439 253.21746 252.17853 250.79761 248.97168 246.89375 244.73983
 242.54390 240.36098 238.19405 236.04612 233.91920 231.79927 229.83835 228.00842
 226.30449 224.78957 223.43264 222.21771 221.11279 220.08586 219.20294 218.35701
 217.61208 216.80516 215.91623 215.29330 214.75638 214.29866 213.21724 212.10204
 211.54607 211.87491 213.16447 215.26451 218.15320 222.14294 227.34718 231.63779
 235.59425 239.86139 244.27914 248.45030 252.19510 255.60492 258.83844 261.92487
 264.80658 267.47287 269.94370 272.22839 274.42307 276.50565 278.40115 280.00443
 281.33246 282.45880 283.44492 284.40436 285.37943 286.43118 287.38635 288.02917
 288.66086 289.35974 289.99530 290.85568
 366.78100 356.34455 345.78610 334.66165 323.07420 311.27776 299.15731 286.96986
 274.69141 262.59796 250.61651 239.92706 230.05861 221.17216 213.36372 206.37527
 200.21882 195.16637 191.75792 189.80947 188.85602 188.92957 189.77413 191.09168
 192.82623 194.93078 197.20333 199.57188 202.02643 204.51598 206.61353 208.46509
 210.10064 211.25519 211.49374 211.73129 211.67784 211.39239 211.03494 210.67449
 210.30105 210.02060 209.83815 209.71170 209.64925 209.98980 210.38535 210.78390
 211.58645 212.77401 214.03356 215.82611 217.76366 219.81621 221.92076 224.01331
 226.08286 228.17641 230.28297 232.39852 234.53707 236.71862 238.98417 241.36372
 243.99427 246.25482 248.26638 250.04093 251.46748 252.60003 253.43158 253.75713
 253.80368 253.58723 252.95678 251.91434 250.52989 248.70044 246.61899 244.46154
 242.26209 240.07564 237.90519 235.75374 233.62330 231.49985 229.53540 227.70195
 225.99450 224.47605 223.11560 221.89715 220.78870 219.75826 218.87181 218.02236
 217.27391 216.46346 215.57101 214.94456 214.40411 214.12199 213.45312 212.16486
 211.34338 211.66028 213.03940 215.23015 218.23570 222.22635 227.38199 231.73262
 235.60400 239.88637 244.30913 248.50888 252.28058 255.71838 258.97736 262.08569
 264.97031 267.60815 270.00186 272.19455 274.29996 276.31265 278.11703 279.63388
 280.90692 282.00778 283.05310 284.14966 285.29010 286.34119 287.25943 287.97473
 288.76715 289.52405 290.20721 291.07785
 366.78100 356.34472 345.78643 334.66215 323.07487 311.27859 299.15830 286.97102
 274.69274 262.59946 250.61817 239.92889 230.06061 221.17432 213.36604 206.37776
 200.22148 195.16919 191.76091 189.81263 188.85935 188.93306 189.77778 191.09550
 192.83022 194.93493 197.20765 199.57637 202.03108 204.52080 206.61852 208.47024
 210.10595 211.26067 211.49939 211.73711 211.68382 211.39854 211.04126 210.68097
 210.30769 210.02741 209.84513 209.71884 209.65656 209.99728 210.39300 210.79171
 211.59443 212.78215 214.04187 215.83458 217.77230 219.82502 221.92973 224.02245
 226.09217 228.18589 230.29260 232.40832 234.54704 236.72876 238.99447 241.37419
 244.00491 246.26562 248.27734 250.05206 251.47878 252.61149 253.44321 253.76893
 253.81565 253.59936 252.96908 251.92680 250.54252 248.71323 246.63195 244.47467
 242.27538 240.08910 237.91882 235.76754 233.63725 231.51397 229.54969 227.71641
 226.00912 224.49084 223.13056 221.91227 220.80399 219.77371 218.88743 218.03814
 217.28986 216.47958 215.58730 214.96101 214.42073 214.12029 213.40660 212.43018
 211.32654 211.57565 212.98996 215.11043 218.16452 222.19566 227.35951 231.70409
 235.59021 239.86830 244.28680 248.46306 252.20052 255.62949 258.92944 262.10083
 265.04529 267.71704 270.10599 272.24164 274.26859 276.22562 277.97696 279.45538
 280.70029 281.78683 282.86392 284.03677 285.14612 286.20245 287.14380 287.98325
 288.77783 289.54465 290.21457 291.06827
 366.78100 356.34691 345.79083 334.66874 323.08365 311.28956 299.17148 286.98639
 274.71030 262.61922 250.64013 239.95304 230.08695 221.20287 213.39678 206.41069
 200.25661 195.20652 191.80043 189.85434 188.90326 188.97917 189.82608 191.14600
 192.88291 194.98982 197.26474 199.63565 202.09256 204.58447 206.68439 208.53830
 210.17621 211.33313 211.57404 211.81395 211.76286 211.47978 211.12469 210.76660
 210.39552 210.11743 209.93734 209.81325 209.75317 210.09608 210.49399 210.89491
 211.69982 212.88973 214.15164 215.94656 217.88647 219.94138 222.04830 224.14321
 226.21512 228.31103 230.41995 232.53786 234.67877 236.86269 239.13060 241.51251
 244.14543 246.40834 248.42225 250.19916 251.62808 252.76299 253.59690 253.92482
 253.97373 253.75964 253.13155 252.09147 250.70938 248.88229 246.80321 244.64812
 242.45103 240.26694 238.09886 235.94977 233.82168 231.70060 229.73851 227.90742
 226.20233 224.68625 223.32816 222.11207 221.00599 219.97790 219.09381 218.24672
 217.50064 216.69255 215.80246 215.17838 214.64029 214.22388 213.24007 212.57649
 211.66357 211.58606 212.84079 214.93251 218.02644 222.10439 227.32872 231.64120
 235.58511 239.86903 244.29800 248.45624 252.14139 255.51950 258.80417 261.98605
 264.96503 267.70367 270.16006 272.29782 274.28775 276.22357 277.94882 279.41431
 280.67081 281.78052 282.84793 283.92145 285.00815 286.06082 287.01443 287.75909
 288.53589 289.27209 289.96201 290.84119
 366.78100 356.34584 345.78868 334.66552 323.07936 311.28420 299.16505 286.97889
 274.70173 262.60957 250.62941 239.94125 230.07409 221.18893 213.38177 206.39461
 200.23946 195.18830 191.78114 189.83398 188.88182 188.95666 189.80250 191.12134
 192.85718 194.96302 197.23687 199.60671 202.06255 204.55339 206.65223 208.50507
 210.14191 211.29775 211.53759 211.77643 211.72427 211.44012 211.08396 210.72480
 210.35264 210.07348 209.89232 209.76716 209.70600 210.04784 210.44468 210.84453
 211.64837 212.83721 214.09805 215.89189 217.83073 219.88457 221.99041 224.08425
 226.15509 228.24993 230.35778 232.47462 234.61446 236.79730 239.06414 241.44498
 244.07682 246.33866 248.35150 250.12734 251.55519 252.68903 253.52187 253.84871
 253.89655 253.68139 253.05223 252.01107 250.62791 248.79975 246.71960 244.56344
 242.36528 240.18012 238.01096 235.86080 233.73164 231.60948 229.64632 227.81416
 226.10800 224.59085 223.23169 222.01453 220.90737 219.87821 218.99305 218.14489
 217.39773 216.58857 215.69741 215.07226 214.53310 214.16580 213.29803 212.51512
 211.97304 211.68880 212.68756 214.79002 217.86424 221.99696 227.28970 231.57195
 235.56975 239.86984 244.32928 248.50818 252.18105 255.52226 258.76404 261.88992
 264.83041 267.58923 270.10123 272.27234 274.26428 276.19623 277.88419 279.33307
 280.60510 281.73154 282.79504 283.85165 284.87531 285.93338 286.89194 287.60941
 288.27829 288.97040 289.59647 290.44043
 366.78100 356.34440 345.78579 334.66119 323.07359 311.27698 299.15638 286.96877
 274.69017 262.59657 250.61496 239.92536 230.05676 221.17015 213.36155 206.37294
 200.21634 195.16374 191.75513 189.80653 188.85293 188.92632 189.77072 191.08811
 192.82251 194.92691 197.19930 199.56770 202.02210 204.51149 206.60889 208.46028
 210.09568 211.25008 211.48847 211.72587 211.67227 211.38666 211.02906 210.66845
 210.29485 210.01425 209.83164 209.70504 209.64244 209.98283 210.37823 210.77662
 211.57902 212.76642 214.02581 215.81821 217.75561 219.80800 221.91240 224.00479
 226.07419 228.16759 230.27398 232.38938 234.52778 236.70917 238.97457 241.35396
 243.98436 246.24476 248.25615 250.03055 251.45695 252.58934 253.42074 253.74613
 253.79253 253.57593 252.94532 251.90272 250.51812 248.68851 246.60691 244.44930
 242.24970 240.06310 237.89249 235.74089 233.61029 231.48668 229.52208 227.68847
 225.98087 224.46227 223.10166 221.88306 220.77446 219.74385 218.85725 218.00764
 217.25904 216.44844 215.55583 214.92923 214.38863 214.09174 213.39029 212.48767
 212.10162 211.72740 212.57092 214.75902 217.81837 221.95724 227.25475 231.54059
 235.53084 239.84384 244.31401 248.50940 252.20494 255.57257 258.80963 261.89822
 264.78009 267.49872 270.00839 272.20053 274.20935 276.11697 277.76132 279.20859
 280.49005 281.63162 282.68866 283.72260 284.77704 285.83093 286.79980 287.45221
 288.15817 288.84650 289.46408 290.28610
 366.78100 356.34453 345.78605 334.66158 323.07411 311.27764 299.15716 286.96969
 274.69122 262.59775 250.61627 239.92680 230.05833 221.17186 213.36338 206.37491
 200.21844 195.16596 191.75749 189.80902 188.85555 188.92907 189.77360 191.09113
 192.82566 194.93018 197.20271 199.57124 202.02577 204.51529 206.61282 208.46435
 210.09987 211.25440 211.49293 211.73046 211.67698 211.39151 211.03404 210.67357
 210.30009 210.01962 209.83715 209.71068 209.64820 209.98873 210.38426 210.78278
 211.58531 212.77284 214.03237 215.82489 217.76242 219.81495 221.91948 224.01200
 226.08153 228.17506 230.28159 232.39711 234.53564 236.71717 238.98269 241.36222
 243.99275 246.25328 248.26480 250.03933 251.46586 252.59839 253.42991 253.75544
 253.80197 253.58550 252.95502 251.91255 250.52808 248.69860 246.61713 244.45966
 242.26019 240.07371 237.90324 235.75177 233.62130 231.49782 229.53335 227.69988
 225.99241 224.47393 223.11346 221.89499 220.78651 219.75604 218.86957 218.02010
 217.27162 216.46115 215.56868 214.94221 214.40173 214.10355 213.39902 212.53111
 212.15494 211.73355 212.49350 214.76431 217.82909 221.93326 227.20569 231.52124
 235.47964 239.79492 244.24641 248.42345 252.13377 255.56894 258.86621 261.97342
 264.81393 267.46796 269.94470 272.14795 274.15225 276.01526 277.62933 279.07513
 280.39474 281.57748 282.66672 283.69360 284.65274 285.70682 286.66632 287.41528
 288.10977 288.79947 289.42172 290.25388
 366.78100 356.34384 345.78468 334.65952 323.07136 311.27420 299.15303 286.96487
 274.68571 262.59155 250.60939 239.91923 230.05007 221.16291 213.35375 206.36459
 200.20742 195.15426 191.74510 189.79594 188.84178 188.91462 189.75846 191.07530
 192.80914 194.91298 197.18481 199.55265 202.00649 204.49533 206.59217 208.44301
 210.07785 211.23169 211.46953 211.70637 211.65220 211.36604 211.00788 210.64672
 210.27256 209.99140 209.80824 209.68108 209.61792 209.95776 210.35259 210.75043
 211.55227 212.73911 213.99795 215.78979 217.72663 219.77847 221.88231 223.97415
 226.04298 228.13582 230.24166 232.35650 234.49434 236.67518 238.94002 241.31886
 243.94870 246.20854 248.21937 249.99321 251.41905 252.55089 253.38173 253.70657
 253.75241 253.53525 252.90409 251.86093 250.47576 248.64560 246.56344 244.40528
 242.20512 240.01796 237.84680 235.69464 233.56348 231.43932 229.47415 227.63999
 225.93183 224.41267 223.05151 221.83235 220.72319 219.69203 218.80487 217.95471
 217.20554 216.39438 215.50122 214.87406 214.33290 214.07448 213.46396 212.58047
 212.14677 211.70889 212.42239 214.74190 217.87219 221.94556 227.18541 231.56308
 235.46045 239.77469 244.18915 248.32272 252.01248 255.49210 258.85178 262.00168
 264.89578 267.54358 269.97983 272.14355 274.10635 275.88800 277.43027 278.87823
 280.21164 281.43478 282.54388 283.61597 284.70126 285.71805 286.56754 287.28073
 287.99585 288.68503 289.30902 290.10971
 366.78100 356.34308 345.78316 334.65724 323.06832 311.27040 299.14848 286.95956
 274.67965 262.58473 250.60181 239.91089 230.04097 221.15305 213.34313 206.35321
 200.19529 195.14137 191.73145 189.78153 188.82661 188.89869 189.74177 191.05785
 192.79094 194.89402 197.16510 199.53218 201.98526 204.47334 206.56942 208.41950
 210.05358 211.20666 211.44374 211.67982 211.62490 211.33798 210.97906 210.61715
 210.24223 209.96031 209.77639 209.64847 209.58455 209.92363 210.31771 210.71479
 211.51587 212.70195 213.96003 215.75111 217.68719 219.73827 221.84136 223.93244
 226.00052 228.09260 230.19768 232.31176 234.44884 236.62892 238.89300 241.27108
 243.90016 246.15924 248.16932 249.94240 251.36748 252.49856 253.32865 253.65273
 253.69781 253.47989 252.84797 251.80405 250.41813 248.58721 246.50429 244.34537
 242.14445 239.95653 237.78461 235.63169 233.49977 231.37486 229.40894 227.57402
 225.86510 224.34518 222.98326 221.76334 220.65342 219.62150 218.73358 217.88266
 217.13274 216.32082 215.42690 214.79898 214.25706 214.03343 213.50508 212.72903
 212.16220 211.52809 212.23604 214.70511 217.95560 222.01663 227.23332 231.64102
 235.49501 239.80746 244.19923 248.29224 251.92726 255.39731 258.78397 261.99362
 264.93469 267.57077 269.99606 272.15109 274.07013 275.78052 277.27695 278.67993
 280.01877 281.23956 282.39645 283.52902 284.62442 285.60901 286.42325 287.16019
 287.89542 288.59131 289.22964 290.05688
 366.78100 356.34303 345.78307 334.65710 323.06814 311.27017 299.14821 286.95924
 274.67928 262.58431 250.60135 239.91038 230.04042 221.15245 213.34249 206.35252
 200.19456 195.14059 191.73062 189.78066 188.82569 188.89773 189.74076 191.05680
 192.78983 194.89287 197.16390 199.53094 201.98397 204.47201 206.56804 208.41808
 210.05211 211.20515 211.44218 211.67822 211.62325 211.33628 210.97732 210.61535
 210.24039 209.95842 209.77446 209.64649 209.58253 209.92156 210.31560 210.71263
 211.51367 212.69970 213.95774 215.74877 217.68481 219.73584 221.83887 223.92991
 225.99794 228.08998 230.19501 232.30905 234.44608 236.62612 238.89015 241.26819
 243.89722 246.15626 248.16629 249.93933 251.36436 252.49540 253.32543 253.64947
 253.69450 253.47653 252.84457 251.80060 250.41464 248.58367 246.50071 244.34174
 242.14078 239.95281 237.78085 235.62788 233.49592 231.37095 229.40499 227.57002
 225.86106 224.34109 222.97912 221.75916 220.64919 219.61723 218.72926 217.87830
 217.12833 216.31637 215.42240 214.79444 214.25247 214.02460 213.48622 212.94232
 212.23387 211.34041 212.08287 214.62369 217.93896 222.01523 227.25108 231.68716
 235.52444 239.84532 244.23892 248.32207 251.91026 255.34790 258.73126 261.93143
 264.84845 267.54950 270.01218 272.17130 274.05151 275.68686 277.13779 278.51266
 279.87531 281.14706 282.34140 283.49112 284.54456 285.51950 286.32678 287.05908
 287.76550 288.43900 289.04477 289.83441
 366.78100 356.34290 345.78279 334.65669 323.06759 311.26948 299.14738 286.95828
 274.67817 262.58307 250.59997 239.90886 230.03876 221.15066 213.34055 206.35045
 200.19235 195.13825 191.72814 189.77804 188.82294 188.89483 189.73773 191.05363
 192.78652 194.88942 197.16032 199.52721 201.98011 204.46801 206.56390 208.41380
 210.04770 211.20059 211.43749 211.67339 211.61828 211.33118 210.97208 210.60997
 210.23487 209.95277 209.76866 209.64056 209.57646 209.91536 210.30925 210.70615
 211.50705 212.69294 213.95084 215.74174 217.67763 219.72853 221.83143 223.92232
 225.99022 228.08212 230.18701 232.30091 234.43781 236.61770 238.88160 241.25950
 243.88839 246.14729 248.15719 249.93008 251.35498 252.48588 253.31577 253.63967
 253.68457 253.46646 252.83436 251.79026 250.40416 248.57305 246.48995 244.33085
 242.12974 239.94164 237.76954 235.61643 233.48433 231.35923 229.39312 227.55802
 225.84892 224.32881 222.96671 221.74661 220.63650 219.60440 218.71630 217.86519
 217.11509 216.30299 215.40888 214.78078 214.23868 214.01596 213.48976 213.08797
 212.25632 211.32288 212.09381 214.50716 217.82671 221.92766 227.19748 231.68044
 235.52097 239.85284 244.25172 248.34612 251.94771 255.38034 258.75397 261.92487
 264.83423 267.52328 270.00513 272.19333 274.01456 275.57153 276.98700 278.34760
 279.80179 281.08261 282.34268 283.50800 284.54895 285.50519 286.32706 287.09390
 287.84070 288.53625 289.16638 289.98285
 366.78100 356.34396 345.78492 334.65988 323.07184 311.27480 299.15376 286.96572
 274.68668 262.59264 250.61060 239.92056 230.05152 221.16448 213.35544 206.36640
 200.20936 195.15632 191.74728 189.79824 188.84420 188.91716 189.76112 191.07808
 192.81204 194.91600 197.18796 199.55592 202.00988 204.49884 206.59580 208.44677
 210.08173 211.23569 211.47365 211.71061 211.65657 211.37053 211.01249 210.65145
 210.27741 209.99637 209.81333 209.68629 209.62325 209.96321 210.35817 210.75613
 211.55809 212.74505 214.00401 215.79597 217.73293 219.78489 221.88885 223.98081
 226.04977 228.14273 230.24869 232.36365 234.50161 236.68257 238.94753 241.32649
 243.95645 246.21641 248.22737 250.00133 251.42729 252.55925 253.39021 253.71517
 253.76113 253.54409 252.91305 251.87001 250.48497 248.65493 246.57289 244.41485
 242.21481 240.02777 237.85673 235.70469 233.57365 231.44961 229.48457 227.65053
 225.94249 224.42345 223.06241 221.84337 220.73434 219.70330 218.81626 217.96622
 217.21718 216.40614 215.51310 214.88606 214.34502 214.07338 213.43161 213.23459
 212.26671 211.36035 212.12263 214.39783 217.72989 221.85912 227.14569 231.66727
 235.51465 239.84418 244.23289 248.32797 251.96333 255.41994 258.79523 261.96103
 264.86380 267.51697 270.02380 272.17676 273.94470 275.45184 276.88416 278.30643
 279.74512 281.13553 282.39841 283.51837 284.57712 285.54089 286.38913 287.12875
 287.84897 288.51224 289.09174 289.83023
 366.78100 356.34480 345.78661 334.66241 323.07521 311.27902 299.15882 286.97163
 274.69343 262.60023 250.61904 239.92984 230.06164 221.17545 213.36725 206.37906
 200.22286 195.17066 191.76247 189.81427 188.86107 188.93488 189.77968 191.09748
 192.83229 194.93709 197.20990 199.57870 202.03350 204.52331 206.62111 208.47291
 210.10872 211.26352 211.50232 211.74013 211.68693 211.40174 211.04454 210.68434
 210.31115 210.03095 209.84875 209.72256 209.66036 210.00117 210.39697 210.79577
 211.59858 212.78638 214.04618 215.83899 217.77679 219.82959 221.93440 224.02720
 226.09701 228.19081 230.29761 232.41342 234.55222 236.73402 238.99983 241.37963
 244.01043 246.27124 248.28304 250.05785 251.48465 252.61745 253.44926 253.77506
 253.82186 253.60567 252.97547 251.93328 250.54908 248.71988 246.63869 244.48149
 242.28229 240.09610 237.92590 235.77470 233.64451 231.52131 229.55712 227.72392
 226.01672 224.49853 223.13833 221.92013 220.81194 219.78174 218.89555 218.04635
 217.29815 216.48796 215.59576 214.96956 214.42937 214.12889 213.42159 213.22238
 212.47478 211.41170 211.98901 214.24551 217.62817 221.82204 227.13571 231.69823
 235.53874 239.85570 244.22282 248.30014 251.95064 255.41498 258.78369 261.95236
 264.85727 267.51013 270.04773 272.24487 273.94254 275.36978 276.74506 278.24985
 279.74088 281.13031 282.37170 283.53207 284.68860 285.64572 286.45236 287.24020
 288.00504 288.70221 289.31128 290.08743
 366.78100 356.34220 345.78140 334.65459 323.06479 311.26599 299.14319 286.95339
 274.67258 262.57678 250.59298 239.90118 230.03038 221.14157 213.33077 206.33997
 200.18117 195.12636 191.71556 189.76476 188.80896 188.88016 189.72235 191.03755
 192.76975 194.87195 197.14215 199.50834 201.96054 204.44774 206.54294 208.39214
 210.02533 211.17753 211.41373 211.64893 211.59313 211.30532 210.94552 210.58272
 210.20692 209.92412 209.73931 209.61051 209.54571 209.88391 210.27710 210.67330
 211.47350 212.65870 213.91590 215.70609 217.64129 219.69149 221.79369 223.88389
 225.95108 228.04228 230.14648 232.25968 234.39588 236.57507 238.83827 241.21547
 243.84367 246.10187 248.11106 249.88326 251.30746 252.43766 253.26685 253.59005
 253.63425 253.41545 252.78265 251.73784 250.35104 248.51924 246.43544 244.27564
 242.07383 239.88503 237.71223 235.55843 233.42563 231.29982 229.33302 227.49722
 225.78742 224.26662 222.90381 221.68301 220.57221 219.53941 218.65061 217.79880
 217.04800 216.23520 215.34040 214.71159 214.16879 214.01910 213.65419 213.00911
 212.57883 211.66429 211.98424 214.07291 217.41313 221.69148 227.04607 231.67073
 235.54471 239.87288 244.24068 248.31657 251.98546 255.44682 258.79410 261.95856
 264.86407 267.53604 270.05676 272.27966 274.00864 275.39056 276.65860 278.24997
 279.72156 281.09491 282.31644 283.48807 284.66693 285.62463 286.46356 287.27682
 288.00797 288.65906 289.22781 289.95264
 366.78100 356.34002 345.77703 334.64805 323.05607 311.25508 299.13010 286.93812
 274.65513 262.55715 250.57117 239.87718 230.00420 221.11322 213.30023 206.30725
 200.14627 195.08928 191.67630 189.72332 188.76533 188.83435 189.67437 190.98738
 192.71740 194.81742 197.08543 199.44945 201.89947 204.38448 206.47750 208.32452
 209.95553 211.10555 211.33957 211.57258 211.51460 211.22462 210.86263 210.49765
 210.11967 209.83468 209.64770 209.51672 209.44973 209.78575 210.17677 210.57078
 211.36880 212.55182 213.80683 215.59485 217.52787 219.57588 221.67590 223.76392
 225.82893 227.91795 230.01997 232.13098 234.26500 236.44202 238.70303 241.07805
 243.70407 245.96008 247.96710 249.73712 251.15913 252.28715 253.11417 253.43518
 253.47720 253.25622 252.62123 251.57425 250.18527 248.35128 246.26530 244.10332
 241.89933 239.70835 237.53337 235.37738 233.24240 231.11442 229.14543 227.30745
 225.59547 224.07248 222.70750 221.48452 220.37153 219.33655 218.44557 217.59158
 216.83860 216.02362 215.12663 214.49565 213.95067 213.93127 213.83214 212.96175
 212.42679 211.83701 212.18781 214.10487 217.28633 221.53645 226.87032 231.55167
 235.47182 239.82704 244.20946 248.29628 252.00302 255.50067 258.85889 262.03323
 264.95145 267.61719 270.13077 272.32111 274.04291 275.46494 276.73773 278.25735
 279.73834 281.17252 282.49368 283.83566 285.02939 286.11691 287.20645 288.19351
 289.08127 289.87180 290.56241 291.44250
 366.78100 356.34222 345.78144 334.65467 323.06489 311.26611 299.14333 286.95355
 274.67278 262.57700 250.59322 239.90144 230.03066 221.14189 213.33111 206.34033
 200.18155 195.12677 191.71600 189.76522 188.80944 188.88066 189.72288 191.03811
 192.77033 194.87255 197.14277 199.50899 201.96122 204.44844 206.54366 208.39288
 210.02611 211.17833 211.41455 211.64977 211.59399 211.30622 210.94644 210.58366
 210.20788 209.92510 209.74033 209.61155 209.54677 209.88499 210.27821 210.67444
 211.47466 212.65988 213.91710 215.70732 217.64255 219.69277 221.79499 223.88521
 225.95243 228.04366 230.14788 232.26110 234.39732 236.57654 238.83977 241.21699
 243.84521 246.10343 248.11265 249.88488 251.30910 252.43932 253.26854 253.59176
 253.63599 253.41721 252.78443 251.73965 250.35287 248.52110 246.43732 244.27754
 242.07576 239.88698 237.71421 235.56043 233.42765 231.30187 229.33510 227.49932
 225.78954 224.26876 222.90598 221.68521 220.57443 219.54165 218.65287 217.80109
 217.05032 216.23754 215.34276 214.71398 214.17120 214.04456 213.72441 213.15320
 212.29897 211.79089 212.37221 214.28127 217.33748 221.50793 226.77943 231.44391
 235.38078 239.74944 244.13438 248.22021 251.93820 255.47305 258.87363 262.07098
 265.01166 267.66315 270.16400 272.35031 274.06802 275.43228 276.71756 278.25201
 279.85986 281.35349 282.79416 284.16977 285.40631 286.57193 287.68512 288.69357
 289.60056 290.40823 291.11380 292.01300
 366.78100 356.34263 345.78227 334.65590 323.06654 311.26817 299.14581 286.95644
 274.67607 262.58071 250.59734 239.90598 230.03561 221.14725 213.33688 206.34651
 200.18815 195.13378 191.72342 189.77305 188.81769 188.88932 189.73196 191.04759
 192.78022 194.88286 197.15349 199.52013 201.97276 204.46040 206.55603 208.40566
 210.03930 211.19193 211.42857 211.66420 211.60884 211.32147 210.96210 210.59974
 210.22437 209.94201 209.75764 209.62928 209.56491 209.90354 210.29718 210.69381
 211.49445 212.68008 213.93772 215.72835 217.66399 219.71462 221.81725 223.90789
 225.97552 228.06716 230.17179 232.28543 234.42206 236.60169 238.86533 241.24296
 243.87160 246.13023 248.13987 249.91250 251.33713 252.46777 253.29740 253.62104
 253.66567 253.44731 252.81494 251.77057 250.38421 248.55284 246.46948 244.31011
 242.10875 239.92038 237.74801 235.59465 233.46228 231.33692 229.37055 227.53519
 225.82582 224.30546 222.94309 221.72272 220.61236 219.57999 218.69163 217.84026
 217.08990 216.27753 215.38316 214.75480 214.21243 214.05411 213.68262 213.42149
 212.33888 211.51933 212.15005 214.30690 217.44820 221.57832 226.81378 231.40532
 235.32259 239.64304 243.98251 248.06436 251.82776 255.41727 258.87305 262.10034
 265.04178 267.67700 270.06647 272.14490 273.81323 275.25027 276.73322 278.35815
 280.00146 281.51013 282.85815 284.18695 285.36578 286.39420 287.37164 288.33356
 289.20145 289.97430 290.64948 291.50989
 366.78100 356.34132 345.77965 334.65197 323.06129 311.26161 299.13794 286.94726
 274.66558 262.56890 250.58423 239.89155 230.01987 221.13019 213.31852 206.32684
 200.16716 195.11148 191.69981 189.74813 188.79145 188.86177 189.70310 191.01742
 192.74874 194.85006 197.11939 199.48471 201.93603 204.42235 206.51668 208.36500
 209.99732 211.14864 211.38397 211.61829 211.56161 211.27293 210.91226 210.54858
 210.17190 209.88822 209.70255 209.57287 209.50719 209.84451 210.23684 210.63216
 211.43148 212.61580 213.87213 215.66145 217.59577 219.64509 221.74642 223.83574
 225.90206 227.99238 230.09571 232.20803 234.34335 236.52167 238.78400 241.16032
 243.78764 246.04496 248.05329 249.82461 251.24793 252.37725 253.20558 253.52790
 253.57122 253.35154 252.71787 251.67219 250.28451 248.45183 246.36716 244.20648
 242.00380 239.81412 237.64045 235.48577 233.35209 231.22542 229.25774 227.42106
 225.71038 224.18871 222.82503 221.60335 220.49167 219.45800 218.56832 217.71564
 216.96396 216.15029 215.25461 214.62493 214.08125 213.99666 213.79402 213.51233
 212.41086 211.42195 211.93457 214.15547 217.50282 221.71077 226.92905 231.49864
 235.31523 239.59511 243.88898 247.91051 251.63867 255.25827 258.78952 262.10300
 265.11023 267.75610 270.09863 272.09781 273.69223 275.10306 276.62036 278.31506
 280.04083 281.58176 283.01505 284.36188 285.54797 286.60733 287.67462 288.64148
 289.51108 290.28549 290.96198 291.82407
 366.78100 356.34352 345.78404 334.65856 323.07008 311.27260 299.15113 286.96265
 274.68317 262.58869 250.60621 239.91573 230.04625 221.15877 213.34929 206.35981
 200.20233 195.14885 191.73938 189.78990 188.83542 188.90794 189.75146 191.06798
 192.80150 194.90502 197.17654 199.54406 201.99758 204.48611 206.58263 208.43315
 210.06767 211.22119 211.45871 211.69523 211.64075 211.35427 210.99579 210.63431
 210.25983 209.97836 209.79488 209.66740 209.60392 209.94344 210.33796 210.73548
 211.53700 212.72352 213.98204 215.77356 217.71008 219.76161 221.86513 223.95665
 226.02517 228.11769 230.22321 232.33773 234.47525 236.65577 238.92029 241.29881
 243.92834 246.18786 248.19838 249.97190 251.39742 252.52894 253.35946 253.68398
 253.72950 253.51202 252.88054 251.83706 250.45159 248.62111 246.53863 244.38015
 242.17967 239.99219 237.82071 235.66823 233.53675 231.41227 229.44679 227.61232
 225.90384 224.38436 223.02288 221.80340 220.69392 219.66244 218.77496 217.92448
 217.17500 216.36352 215.47004 214.84257 214.30109 214.13994 213.77028 213.44389
 212.51498 211.62222 212.06657 214.19220 217.54947 221.78596 227.11974 231.62361
 235.41736 239.65849 243.91293 247.88277 251.57159 255.17097 258.69962 262.03952
 265.07410 267.76450 270.10953 272.04468 273.63794 275.10440 276.75952 278.51721
 280.21158 282.01834 283.71338 285.43988 286.93402 288.25595 289.46201 290.55460
 291.53729 292.41235 293.17682 294.15103
 366.78100 356.34553 345.78806 334.66459 323.07812 311.28265 299.16318 286.97670
 274.69923 262.60676 250.62629 239.93782 230.07035 221.18488 213.37741 206.38994
 200.23447 195.18300 191.77553 189.82806 188.87558 188.95011 189.79564 191.11417
 192.84970 194.95523 197.22876 199.59829 202.05382 204.54435 206.64288 208.49541
 210.13194 211.28746 211.52699 211.76552 211.71305 211.42858 211.07211 210.71264
 210.34017 210.06070 209.87923 209.75376 209.69229 210.03382 210.43034 210.82987
 211.63340 212.82193 214.08246 215.87599 217.81452 219.86805 221.97358 224.06711
 226.13764 228.23217 230.33970 232.45622 234.59575 236.77828 239.04481 241.42534
 244.05687 246.31840 248.33093 250.10646 251.53399 252.66752 253.50005 253.82658
 253.87410 253.65863 253.02916 251.98769 250.60422 248.77575 246.69528 244.53881
 242.34034 240.15487 237.98540 235.83493 233.70545 231.58298 229.61951 227.78704
 226.08057 224.56310 223.20363 221.98616 220.87869 219.84922 218.96375 218.11528
 217.36781 216.55833 215.66686 215.04139 214.50192 214.27039 213.74475 213.40794
 212.61613 211.69986 211.96613 213.99094 217.37543 221.65546 227.17677 231.71721
 235.51779 239.74770 243.99629 247.97281 251.65672 255.22430 258.72684 262.07614
 265.14127 267.86172 270.20120 272.08295 273.52164 274.88736 276.43314 278.54382
 280.69348 282.82669 284.83243 286.59366 288.11783 289.46631 290.69662 291.81119
 292.81363 293.70630 294.48611 295.47989
 366.78100 356.34392 345.78484 334.65976 323.07168 311.27460 299.15353 286.96545
 274.68637 262.59229 250.61021 239.92013 230.05105 221.16397 213.35489 206.36581
 200.20874 195.15566 191.74658 189.79750 188.84342 188.91634 189.76026 191.07718
 192.81110 194.91502 197.18694 199.55487 202.00879 204.49771 206.59463 208.44555
 210.08047 211.23439 211.47231 211.70923 211.65515 211.36908 211.01100 210.64992
 210.27584 209.99476 209.81168 209.68460 209.62152 209.96144 210.35636 210.75428
 211.55621 212.74313 214.00205 215.79397 217.73089 219.78281 221.88673 223.97865
 226.04757 228.14049 230.24642 232.36134 234.49926 236.68018 238.94510 241.32402
 243.95394 246.21386 248.22478 249.99870 251.42462 252.55655 253.38747 253.71239
 253.75831 253.54123 252.91015 251.86707 250.48199 248.65191 246.56983 244.41176
 242.21168 240.02460 237.85352 235.70144 233.57036 231.44628 229.48120 227.64712
 225.93904 224.41996 223.05889 221.83981 220.73073 219.69965 218.81257 217.96249
 217.21341 216.40233 215.50925 214.88217 214.34109 214.21237 213.84750 213.36031
 212.82327 211.95677 211.97942 213.76672 217.05244 221.45551 226.88658 231.55569
 235.42789 239.70757 243.98286 247.97807 251.67194 255.24672 258.76410 262.14728
 265.28989 268.09048 270.47363 272.34393 273.63553 274.81180 276.32065 278.61557
 280.77667 282.86246 284.83853 286.57367 288.07529 289.40381 290.61591 291.71396
 292.70157 293.58102 294.34930 295.32837
 366.78100 356.34236 345.78173 334.65509 323.06545 311.26682 299.14418 286.95454
 274.67391 262.57827 250.59463 239.90300 230.03236 221.14372 213.33309 206.34245
 200.18381 195.12918 191.71854 189.76790 188.81227 188.88363 189.72599 191.04136
 192.77372 194.87608 197.14645 199.51281 201.96517 204.45254 206.54790 208.39726
 210.03063 211.18299 211.41935 211.65472 211.59908 211.31144 210.95181 210.58917
 210.21353 209.93090 209.74626 209.61762 209.55299 209.89135 210.28471 210.68108
 211.48144 212.66680 213.92417 215.71453 217.64989 219.70026 221.80262 223.89298
 225.96035 228.05171 230.15607 232.26944 234.40580 236.58516 238.84853 241.22589
 243.85425 246.11262 248.12198 249.89434 251.31871 252.44907 253.27843 253.60180
 253.64616 253.42752 252.79489 251.75025 250.36361 248.53198 246.44834 244.28870
 242.08707 239.89843 237.72579 235.57216 233.43952 231.31388 229.34725 227.51161
 225.80197 224.28134 222.91870 221.69806 220.58743 219.55479 218.66615 217.81452
 217.06388 216.25124 215.35661 214.72797 214.18533 214.14941 213.95297 213.28058
 212.83629 212.33653 212.36134 213.88945 216.92871 221.25888 226.50012 231.26253
 235.16507 239.44800 243.69427 247.67607 251.40865 255.06410 258.67395 262.15036
 265.41846 268.35132 270.84183 272.80508 274.14505 275.20206 276.60379 278.59781
 280.73871 282.71036 284.66992 286.39059 287.87964 289.19711 290.39908 291.48798
 292.46732 293.33945 294.10129 295.07220
 366.78100 356.34275 345.78249 334.65624 323.06698 311.26873 299.14647 286.95722
 274.67696 262.58171 250.59845 239.90720 230.03694 221.14869 213.33843 206.34818
 200.18992 195.13567 191.72541 189.77516 188.81991 188.89165 189.73440 191.05014
 192.78289 194.88563 197.15638 199.52312 201.97587 204.46361 206.55936 208.40910
 210.04285 211.19559 211.43234 211.66808 211.61283 211.32557 210.96632 210.60407
 210.22881 209.94656 209.76230 209.63405 209.56979 209.90854 210.30228 210.69903
 211.49977 212.68552 213.94326 215.73401 217.66975 219.72050 221.82324 223.91399
 225.98173 228.07348 230.17823 232.29197 234.42872 236.60846 238.87221 241.24995
 243.87870 246.13744 248.14719 249.91993 251.34468 252.47542 253.30517 253.62891
 253.67366 253.45540 252.82315 251.77889 250.39264 248.56139 246.47813 244.31888
 242.11762 239.92937 237.75711 235.60386 233.47160 231.34635 229.38009 227.54484
 225.83558 224.31533 222.95307 221.73282 220.62256 219.59031 218.70205 217.85080
 217.10054 216.28829 215.39404 214.76578 214.22353 214.17178 213.97318 213.31247
 212.59468 212.27238 212.60832 214.29102 217.24522 221.40166 226.49677 231.20900
 235.07697 239.32063 243.50053 247.41479 251.11389 254.77472 258.41327 261.93787
 265.27951 268.30649 270.89221 272.92261 274.30951 275.41592 276.86469 278.71060
 280.83386 282.73550 284.60403 286.27798 287.72665 289.00836 290.17770 291.23706
 292.18982 293.03827 293.77948 294.72403
 366.78100 356.34389 345.78479 334.65968 323.07157 311.27447 299.15336 286.96525
 274.68614 262.59204 250.60993 239.91982 230.05072 221.16361 213.35450 206.36540
 200.20829 195.15518 191.74607 189.79697 188.84286 188.91575 189.75965 191.07654
 192.81043 194.91433 197.18622 199.55411 202.00800 204.49690 206.59379 208.44468
 210.07958 211.23347 211.47136 211.70826 211.65415 211.36804 211.00993 210.64883
 210.27472 209.99361 209.81051 209.68340 209.62029 209.96019 210.35508 210.75297
 211.55487 212.74176 214.00065 215.79254 217.72944 219.78133 221.88522 223.97712
 226.04601 228.13890 230.24480 232.35969 234.49758 236.67847 238.94337 241.32226
 243.95215 246.21205 248.22294 249.99683 251.42273 252.55462 253.38551 253.71040
 253.75630 253.53919 252.90808 251.86498 250.47987 248.64976 246.56766 244.40955
 242.20944 240.02234 237.85123 235.69912 233.56801 231.44391 229.47880 227.64469
 225.93659 224.41748 223.05637 221.83727 220.72816 219.69705 218.80994 217.95984
 217.21073 216.39962 215.50652 214.87941 214.33830 214.22939 213.94319 213.45703
 212.55511 211.82465 212.33218 214.35809 217.51445 221.67007 226.79871 231.39204
 235.22600 239.45808 243.63690 247.51727 251.12662 254.67479 258.20981 261.65189
 264.94919 267.98660 270.58517 272.58829 273.96542 275.21628 276.83011 278.82117
 280.92966 282.80411 284.56079 286.21655 287.64948 288.91724 290.07388 291.12170
 292.06412 292.90335 293.63647 294.57077
 366.78100 356.34569 345.78839 334.66508 323.07877 311.28347 299.16416 286.97785
 274.70054 262.60824 250.62793 239.93962 230.07232 221.18701 213.37970 206.39240
 200.23709 195.18578 191.77848 189.83117 188.87886 188.95356 189.79925 191.11794
 192.85363 194.95933 197.23302 199.60271 202.05841 204.54910 206.64779 208.50049
 210.13718 211.29287 211.53257 211.77126 211.71895 211.43464 211.07834 210.71903
 210.34672 210.06742 209.88611 209.76080 209.69950 210.04119 210.43788 210.83758
 211.64127 212.82996 214.09066 215.88435 217.82304 219.87673 221.98243 224.07612
 226.14681 228.24151 230.34920 232.46589 234.60559 236.78828 239.05497 241.43567
 244.06736 246.32905 248.34174 250.11744 251.54513 252.67882 253.51152 253.83821
 253.88590 253.67060 253.04129 251.99998 250.61668 248.78837 246.70806 244.55176
 242.35345 240.16814 237.99883 235.84853 233.71922 231.59691 229.63361 227.80130
 226.09499 224.57769 223.21838 222.00107 220.89377 219.86446 218.97915 218.13085
 217.38354 216.57423 215.68292 215.05762 214.51831 214.33461 213.89026 213.53905
 212.80519 211.62689 211.95822 214.04794 217.37009 221.64235 226.93298 231.51613
 235.34557 239.57826 243.79024 247.71759 251.34508 254.85129 258.29584 261.62292
 264.80573 267.74234 270.28613 272.26303 273.61768 274.97809 276.71414 278.83020
 280.95560 282.86032 284.71106 286.37808 287.82074 289.09714 290.26163 291.31659
 292.26541 293.11035 293.84845 294.78909
 366.78100 356.34590 345.78879 334.66569 323.07958 311.28448 299.16538 286.97927
 274.70217 262.61006 250.62996 239.94185 230.07475 221.18965 213.38254 206.39544
 200.24033 195.18923 191.78213 189.83502 188.88292 188.95781 189.80371 191.12261
 192.85850 194.96440 197.23829 199.60819 202.06409 204.55498 206.65388 208.50677
 210.14367 211.29956 211.53946 211.77836 211.72625 211.44215 211.08604 210.72694
 210.35484 210.07573 209.89463 209.76952 209.70842 210.05032 210.44721 210.84711
 211.65100 212.83990 214.10079 215.89469 217.83359 219.88748 221.99338 224.08727
 226.15817 228.25307 230.36096 232.47786 234.61775 236.80065 239.06755 241.44844
 244.08034 246.34223 248.35513 250.13102 251.55892 252.69282 253.52571 253.85261
 253.90050 253.68540 253.05630 252.01519 250.63209 248.80398 246.72388 244.56778
 242.36967 240.18457 238.01546 235.86536 233.73626 231.61415 229.65105 227.81894
 226.11284 224.59573 223.23663 222.01953 220.91242 219.88332 218.99821 218.15011
 217.40301 216.59390 215.70280 215.07769 214.53859 214.36893 213.91563 213.46109
 213.02904 211.86888 211.88089 213.70982 216.99854 221.43413 226.78682 231.44650
 235.30870 239.57597 243.83418 247.82642 251.51984 255.07141 258.53241 261.83163
 264.95950 267.82016 270.32056 272.29602 273.59180 274.87048 276.65649 278.92670
 281.08447 283.00589 284.99567 286.76297 288.29242 289.64557 290.88013 291.99857
 293.00446 293.90021 294.68274 295.67996
 366.78100 356.34293 345.78286 334.65679 323.06772 311.26965 299.14758 286.95851
 274.67845 262.58338 250.60031 239.90924 230.03917 221.15110 213.34103 206.35096
 200.19289 195.13882 191.72875 189.77868 188.82361 188.89554 189.73847 191.05441
 192.78734 194.89027 197.16120 199.52813 201.98106 204.46899 206.56492 208.41485
 210.04878 211.20171 211.43864 211.67457 211.61950 211.33243 210.97336 210.61130
 210.23623 209.95416 209.77009 209.64202 209.57795 209.91688 210.31081 210.70774
 211.50867 212.69460 213.95253 215.74346 217.67939 219.73032 221.83326 223.92419
 225.99212 228.08405 230.18898 232.30291 234.43984 236.61977 238.88370 241.26163
 243.89056 246.14949 248.15942 249.93235 251.35728 252.48822 253.31815 253.64208
 253.68701 253.46894 252.83687 251.79280 250.40673 248.57566 246.49259 244.33352
 242.13245 239.94438 237.77231 235.61924 233.48717 231.36211 229.39604 227.56097
 225.85190 224.33183 222.96976 221.74969 220.63962 219.60755 218.71948 217.86841
 217.11834 216.30627 215.41220 214.78413 214.24207 214.23009 214.10115 213.31798
 212.94940 212.35117 212.20213 213.64070 216.75357 221.15593 226.44295 231.19890
 235.09904 239.39619 243.67522 247.71202 251.48975 255.14200 258.69012 262.04172
 265.16977 268.02115 270.50412 272.49490 273.86014 275.07178 276.79761 278.87814
 280.98221 282.83133 284.46170 286.01886 287.42111 288.66174 289.79364 290.81903
 291.74127 292.56256 293.28000 294.19427
 366.78100 356.34181 345.78062 334.65343 323.06324 311.26405 299.14086 286.95067
 274.66948 262.57329 250.58910 239.89691 230.02572 221.13652 213.32533 206.33414
 200.17495 195.11976 191.70857 189.75738 188.80119 188.87200 189.71381 191.02862
 192.76043 194.86224 197.13205 199.49786 201.94967 204.43648 206.53129 208.38010
 210.01291 211.16472 211.40053 211.63534 211.57915 211.29095 210.93076 210.56757
 210.19138 209.90819 209.72300 209.59381 209.52862 209.86643 210.25924 210.65505
 211.45486 212.63967 213.89648 215.68629 217.62110 219.67091 221.77272 223.86253
 225.92934 228.02015 230.12396 232.23677 234.37258 236.55139 238.81419 241.19100
 243.81881 246.07662 248.08543 249.85724 251.28105 252.41086 253.23967 253.56248
 253.60629 253.38710 252.75391 251.70872 250.32153 248.48934 246.40515 244.24496
 242.04277 239.85358 237.68039 235.52620 233.39301 231.26682 229.29962 227.46343
 225.75324 224.23205 222.86886 221.64767 220.53648 219.50329 218.61410 217.76191
 217.01072 216.19753 215.30234 214.67315 214.12996 214.16655 214.19341 213.49887
 212.58922 212.30525 212.59431 213.94644 216.78693 221.03525 226.26427 230.98189
 234.86761 239.10471 243.32703 247.36124 251.20972 254.98181 258.64737 262.09192
 265.28250 268.15311 270.60938 272.59106 273.98572 275.07706 276.81012 278.89755
 280.86227 282.64114 284.21829 285.60617 286.89493 288.10745 289.21368 290.21588
 291.11722 291.91989 292.62106 293.51465
 366.78100 356.34474 345.78648 334.66221 323.07495 311.27869 299.15843 286.97116
 274.69290 262.59964 250.61838 239.92912 230.06085 221.17459 213.36633 206.37807
 200.22180 195.16954 191.76128 189.81302 188.85976 188.93349 189.77823 191.09597
 192.83071 194.93544 197.20818 199.57692 202.03166 204.52139 206.61913 208.47087
 210.10661 211.26135 211.50008 211.73782 211.68456 211.39930 211.04203 210.68177
 210.30851 210.02825 209.84599 209.71972 209.65746 209.99820 210.39394 210.79267
 211.59541 212.78315 214.04289 215.83563 217.77336 219.82610 221.93084 224.02358
 226.09331 228.18705 230.29379 232.40953 234.54827 236.73000 238.99574 241.37548
 244.00622 246.26695 248.27869 250.05343 251.48017 252.61290 253.44464 253.77038
 253.81712 253.60086 252.97059 251.92833 250.54407 248.71481 246.63354 244.47628
 242.27702 240.09076 237.92050 235.76923 233.63897 231.51571 229.55145 227.71818
 226.01092 224.49266 223.13240 221.91414 220.80587 219.77561 218.88935 218.04009
 217.29182 216.48156 215.58930 214.96304 214.42278 214.32426 214.08031 213.66847
 212.65326 211.98586 212.50980 214.21584 217.08260 221.22057 226.39262 231.00751
 234.84328 239.04475 243.22157 247.20467 251.03307 254.82935 258.53558 262.03284
 265.26920 268.15289 270.60822 272.58435 273.92477 275.18600 276.91183 278.95786
 280.88458 282.68900 284.29709 285.83011 287.22668 288.46228 289.58960 290.61087
 291.52939 292.34732 293.06186 293.97244
 366.78100 356.34542 345.78785 334.66427 323.07769 311.28212 299.16254 286.97596
 274.69838 262.60581 250.62523 239.93665 230.06908 221.18350 213.37592 206.38835
 200.23277 195.18119 191.77361 189.82604 188.87346 188.94788 189.79331 191.11173
 192.84715 194.95258 197.22600 199.59542 202.05084 204.54127 206.63969 208.49211
 210.12854 211.28396 211.52338 211.76181 211.70923 211.42465 211.06807 210.70850
 210.33592 210.05634 209.87477 209.74919 209.68761 210.02904 210.42546 210.82488
 211.62831 212.81673 214.07715 215.87057 217.80900 219.86242 221.96784 224.06127
 226.13169 228.22611 230.33354 232.44996 234.58938 236.77180 239.03823 241.41865
 244.05007 246.31150 248.32392 250.09934 251.52677 252.66019 253.49261 253.81903
 253.86646 253.65088 253.02130 251.97973 250.59615 248.76757 246.68700 244.53042
 242.33184 240.14627 237.97669 235.82611 233.69653 231.57396 229.61038 227.77780
 226.07123 224.55365 223.19407 221.97650 220.86892 219.83934 218.95376 218.10519
 217.35761 216.54803 215.65646 215.03088 214.49130 214.38603 214.09621 213.60683
 212.87781 211.87950 212.20488 214.11482 217.15697 221.33839 226.58751 231.14191
 234.93869 239.11246 243.27521 247.24562 251.05232 254.82204 258.51346 262.01141
 265.26868 268.17551 270.62314 272.55975 273.91190 275.11346 276.87842 278.95074
 281.03839 282.89539 284.62592 286.32071 287.78745 289.08511 290.26901 291.34158
 292.30621 293.16525 293.91565 294.87198
 366.78100 356.34369 345.78438 334.65908 323.07077 311.27346 299.15215 286.96384
 274.68453 262.59023 250.60792 239.91761 230.04830 221.16099 213.35168 206.36238
 200.20507 195.15176 191.74245 189.79314 188.83884 188.91153 189.75522 191.07191
 192.80560 194.90929 197.18099 199.54868 202.00237 204.49106 206.58775 208.43844
 210.07314 211.22683 211.46452 211.70121 211.64690 211.36060 211.00229 210.64098
 210.26667 209.98536 209.80205 209.67475 209.61144 209.95113 210.34582 210.74351
 211.54520 212.73190 213.99059 215.78228 217.71897 219.77066 221.87436 223.96605
 226.03474 228.12743 230.23312 232.34781 234.48551 236.66620 238.93089 241.30958
 243.93927 246.19896 248.20966 249.98335 251.40904 252.54073 253.37142 253.69612
 253.74181 253.52450 252.89319 251.84988 250.46457 248.63427 246.55196 244.39365
 242.19334 240.00603 237.83472 235.68242 233.55111 231.42680 229.46149 227.62718
 225.91888 224.39957 223.03826 221.81895 220.70964 219.67833 218.79103 217.94072
 217.19141 216.38010 215.48679 214.85948 214.31818 214.31552 214.22385 213.56218
 213.00438 212.01509 212.01938 213.81187 216.97633 221.27515 226.56973 231.16522
 234.96918 239.15727 243.33060 247.29355 251.06721 254.80217 258.46732 261.94489
 265.19754 268.12100 270.61206 272.58899 273.94000 275.13940 276.90735 278.96298
 281.04050 282.87421 284.49734 286.04221 287.41260 288.62503 289.73117 290.73328
 291.63458 292.43716 293.13831 294.03183
 366.78100 356.34366 345.78432 334.65898 323.07064 311.27329 299.15195 286.96361
 274.68427 262.58993 250.60759 239.91725 230.04791 221.16056 213.35122 206.36188
 200.20454 195.15120 191.74186 189.79252 188.83818 188.91083 189.75449 191.07115
 192.80481 194.90847 197.18013 199.54779 202.00145 204.49011 206.58676 208.43742
 210.07208 211.22574 211.46340 211.70006 211.64572 211.35938 211.00103 210.63969
 210.26535 209.98401 209.80067 209.67333 209.60999 209.94965 210.34430 210.74196
 211.54362 212.73028 213.98894 215.78060 217.71726 219.76892 221.87258 223.96423
 226.03289 228.12555 230.23121 232.34587 234.48353 236.66419 238.92885 241.30750
 243.93716 246.19682 248.20748 249.98114 251.40680 252.53846 253.36912 253.69378
 253.73943 253.52209 252.89075 251.84741 250.46207 248.63173 246.54939 244.39105
 242.19070 240.00336 237.83202 235.67968 233.54834 231.42400 229.45866 227.62432
 225.91597 224.39663 223.03529 221.81595 220.70661 219.67527 218.78793 217.93759
 217.18825 216.37690 215.48356 214.85622 214.31488 214.32806 214.27289 213.61169
 213.01974 212.18407 212.07538 213.65442 216.76027 221.12383 226.45966 231.09570
 234.91016 239.11461 243.30522 247.28760 251.06715 254.79681 258.44547 261.89850
 265.13873 268.06781 270.57852 272.57153 273.95016 275.16104 276.93488 278.99576
 281.01331 282.83746 284.45422 285.98938 287.34048 288.53589 289.62650 290.61450
 291.50314 292.29443 292.98572 293.86667
 366.78100 356.34452 345.78603 334.66155 323.07407 311.27759 299.15710 286.96962
 274.69114 262.59766 250.61617 239.92669 230.05821 221.17173 213.36324 206.37476
 200.21828 195.16580 191.75731 189.80883 188.85535 188.92887 189.77338 191.09090
 192.82542 194.92994 197.20245 199.57097 202.02549 204.51501 206.61252 208.46404
 210.09956 211.25407 211.49259 211.73011 211.67663 211.39114 211.03366 210.67318
 210.29970 210.01921 209.83673 209.71025 209.64777 209.98828 210.38380 210.78232
 211.58484 212.77235 214.03187 215.82439 217.76191 219.81442 221.91894 224.01146
 226.08098 228.17449 230.28101 232.39653 234.53504 236.71656 238.98208 241.36160
 243.99211 246.25263 248.26415 250.03867 251.46518 252.59770 253.42922 253.75474
 253.80125 253.58477 252.95429 251.91181 250.52732 248.69784 246.61636 244.45888
 242.25939 240.07291 237.90243 235.75095 233.62046 231.49698 229.53250 227.69902
 225.99153 224.47305 223.11257 221.89408 220.78560 219.75512 218.86864 218.01915
 217.27067 216.46019 215.56771 214.94122 214.40074 214.38901 214.28229 213.64532
 212.96304 212.25739 212.19537 213.69342 216.70010 221.05659 226.39246 231.02913
 234.84117 239.05478 243.26424 247.28033 251.09810 254.84795 258.49399 261.92773
 265.14911 268.07672 270.59357 272.59686 274.01843 275.22681 276.98517 279.03894
 281.01740 282.84464 284.50394 286.07855 287.44122 288.64685 289.74680 290.74329
 291.63950 292.43759 293.13480 294.02328
 366.78100 356.34477 345.78653 334.66230 323.07506 311.27883 299.15859 286.97136
 274.69312 262.59989 250.61866 239.92942 230.06119 221.17495 213.36672 206.37848
 200.22225 195.17001 191.76178 189.81354 188.86031 188.93408 189.77884 191.09661
 192.83137 194.93614 197.20890 199.57767 202.03243 204.52220 206.61997 208.47173
 210.10750 211.26226 211.50103 211.73879 211.68556 211.40032 211.04309 210.68286
 210.30962 210.02939 209.84715 209.72092 209.65868 209.99945 210.39521 210.79398
 211.59675 212.78451 214.04428 215.83704 217.77481 219.82757 221.93234 224.02510
 226.09487 228.18863 230.29540 232.41117 234.54993 236.73170 238.99746 241.37723
 244.00799 246.26876 248.28052 250.05529 251.48206 252.61482 253.44659 253.77235
 253.81912 253.60288 252.97265 251.93041 250.54618 248.71695 246.63571 244.47848
 242.27924 240.09301 237.92277 235.77154 233.64130 231.51807 229.55384 227.72060
 226.01337 224.49513 223.13490 221.91666 220.80843 219.77819 218.89196 218.04272
 217.29449 216.48426 215.59202 214.96579 214.42555 214.41963 214.32738 213.68663
 212.90846 212.27454 212.24942 213.75717 216.70782 221.02518 226.31407 230.93599
 234.74170 238.95827 243.17957 247.22928 251.09769 254.88956 258.55341 261.97797
 265.18015 268.10052 270.61404 272.64520 274.07581 275.29449 277.00806 279.07605
 281.05615 282.90097 284.60623 286.16507 287.51413 288.70770 289.79666 290.78317
 291.67044 292.46054 293.15076 294.03040
 366.78100 356.34420 345.78540 334.66060 323.07280 311.27600 299.15520 286.96740
 274.68860 262.59480 250.61300 239.92320 230.05440 221.16760 213.35880 206.37000
 200.21320 195.16040 191.75160 189.80280 188.84900 188.92220 189.76640 191.08360
 192.81780 194.92200 197.19420 199.56240 202.01660 204.50580 206.60300 208.45420
 210.08940 211.24360 211.48180 211.71900 211.66520 211.37940 211.02160 210.66080
 210.28700 210.00620 209.82340 209.69660 209.63380 209.97400 210.36920 210.76740
 211.56960 212.75680 214.01600 215.80820 217.74540 219.79760 221.90180 223.99400
 226.06320 228.15640 230.26260 232.37780 234.51600 236.69720 238.96240 241.34160
 243.97180 246.23200 248.24320 250.01740 251.44360 252.57580 253.40700 253.73220
 253.77840 253.56160 252.93080 251.88800 250.50320 248.67340 246.59160 244.43380
 242.23400 240.04720 237.87640 235.72460 233.59380 231.47000 229.50520 227.67140
 225.96360 224.44480 223.08400 221.86520 220.75640 219.72560 218.83880 217.98900
 217.24020 216.42940 215.53660 214.90980 214.36900 214.41142 214.40959 213.69875
 212.89694 212.28809 212.26692 213.81487 216.75818 221.01860 226.22879 230.83018
 234.62270 238.83168 243.04758 247.11644 251.03551 254.88463 258.59045 262.02921
 265.23108 268.15237 270.67239 272.73788 274.17404 275.35242 277.02319 279.05676
 281.13177 282.98746 284.70587 286.28625 287.65396 288.86401 289.96802 290.96817
 291.86768 292.66870 293.36847 294.26022
 366.78100 356.34259 345.78218 334.65577 323.06636 311.26795 299.14554 286.95613
 274.67572 262.58031 250.59690 239.90549 230.03508 221.14667 213.33626 206.34585
 200.18744 195.13303 191.72262 189.77221 188.81680 188.88839 189.73098 191.04657
 192.77916 194.88175 197.15234 199.51893 201.97152 204.45911 206.55470 208.40429
 210.03788 211.19047 211.42706 211.66265 211.60724 211.31983 210.96042 210.59801
 210.22260 209.94019 209.75578 209.62737 209.56296 209.90155 210.29514 210.69173
 211.49232 212.67791 213.93550 215.72609 217.66168 219.71227 221.81486 223.90545
 225.97304 228.06463 230.16922 232.28281 234.41940 236.59899 238.86258 241.24017
 243.86876 246.12736 248.13695 249.90954 251.33413 252.46472 253.29431 253.61790
 253.66249 253.44408 252.81167 251.76726 250.38085 248.54944 246.46603 244.30662
 242.10521 239.91680 237.74439 235.59098 233.45857 231.33316 229.36675 227.53134
 225.82193 224.30152 222.93911 221.71870 220.60829 219.57588 218.68747 217.83606
 217.08565 216.27324 215.37883 214.75042 214.20801 214.34776 214.54245 213.68198
 212.88260 212.21901 212.23093 213.86761 216.88043 221.07141 226.19948 230.77812
 234.55084 238.74571 242.93739 247.00182 250.94749 254.83453 258.57355 262.02771
 265.22958 268.15866 270.74109 272.86627 274.34384 275.46552 277.13297 279.08521
 280.97778 282.80295 284.42844 285.97433 287.32211 288.51456 289.60248 290.58807
 291.47449 292.26385 292.95343 293.83218
 366.78100 356.34111 345.77923 334.65134 323.06045 311.26056 299.13668 286.94579
 274.66390 262.56701 250.58213 239.88924 230.01735 221.12747 213.31558 206.32369
 200.16380 195.10792 191.69603 189.74414 188.78725 188.85737 189.69848 191.01259
 192.74371 194.84482 197.11393 199.47904 201.93016 204.41627 206.51038 208.35849
 209.99061 211.14172 211.37683 211.61095 211.55406 211.26517 210.90428 210.54040
 210.16351 209.87962 209.69373 209.56385 209.49796 209.83507 210.22719 210.62230
 211.42141 212.60552 213.86164 215.65075 217.58486 219.63397 221.73509 223.82420
 225.89031 227.98043 230.08354 232.19565 234.33076 236.50888 238.77099 241.14710
 243.77421 246.03133 248.03944 249.81055 251.23367 252.36278 253.19089 253.51300
 253.55612 253.33623 252.70234 251.65645 250.26857 248.43568 246.35079 244.18991
 241.98702 239.79713 237.62324 235.46836 233.33447 231.20758 229.23969 227.40281
 225.69192 224.17003 222.80614 221.58426 220.47237 219.43848 218.54860 217.69571
 216.94382 216.12993 215.23405 214.60416 214.06027 214.28734 214.67647 213.68962
 212.89261 212.12865 212.09038 213.82019 216.93785 221.10632 226.20251 230.76895
 234.52722 238.69412 242.86668 246.92496 250.88000 254.79085 258.54984 262.00110
 265.19101 268.11557 270.70840 272.88068 274.42407 275.62262 277.24896 279.16660
 280.90942 282.62381 284.21353 285.66013 286.99930 288.18411 289.26508 290.24438
 291.12512 291.90945 292.59464 293.46780
 366.78100 356.34222 345.78144 334.65467 323.06489 311.26611 299.14333 286.95355
 274.67278 262.57700 250.59322 239.90144 230.03066 221.14189 213.33111 206.34033
 200.18155 195.12677 191.71600 189.76522 188.80944 188.88066 189.72288 191.03811
 192.77033 194.87255 197.14277 199.50899 201.96122 204.44844 206.54366 208.39288
 210.02611 211.17833 211.41455 211.64977 211.59399 211.30622 210.94644 210.58366
 210.20788 209.92510 209.74033 209.61155 209.54677 209.88499 210.27821 210.67444
 211.47466 212.65988 213.91710 215.70732 217.64255 219.69277 221.79499 223.88521
 225.95243 228.04366 230.14788 232.26110 234.39732 236.57654 238.83977 241.21699
 243.84521 246.10343 248.11265 249.88488 251.30910 252.43932 253.26854 253.59176
 253.63599 253.41721 252.78443 251.73965 250.35287 248.52110 246.43732 244.27754
 242.07576 239.88698 237.71421 235.56043 233.42765 231.30187 229.33510 227.49932
 225.78954 224.26876 222.90598 221.68521 220.57443 219.54165 218.65287 217.80109
 217.05032 216.23754 215.34276 214.71398 214.17120 214.35591 214.66846 213.80025
 212.87608 212.10364 212.04308 213.78511 216.94810 221.11691 226.20053 230.75029
 234.50784 238.65750 242.81425 246.86754 250.83624 254.76651 258.53342 261.98053
 265.16479 268.08691 270.69781 272.91214 274.46774 275.66629 277.21066 279.15152
 280.86536 282.48846 284.08270 285.51544 286.80685 287.94943 288.99188 289.93625
 290.78558 291.54196 292.20270 293.04471
 366.78100 356.34528 345.78755 334.66383 323.07710 311.28138 299.16166 286.97493
 274.69721 262.60449 250.62376 239.93504 230.06731 221.18159 213.37387 206.38614
 200.23042 195.17870 191.77097 189.82325 188.87052 188.94480 189.79008 191.10835
 192.84363 194.94891 197.22218 199.59146 202.04673 204.53701 206.63529 208.48756
 210.12384 211.27912 211.51839 211.75667 211.70394 211.41922 211.06250 210.70277
 210.33005 210.05033 209.86860 209.74288 209.68115 210.02243 210.41871 210.81798
 211.62126 212.80954 214.06981 215.86309 217.80136 219.85464 221.95992 224.05319
 226.12347 228.21775 230.32502 232.44130 234.58057 236.76285 239.02913 241.40940
 244.04068 246.30196 248.31423 250.08951 251.51678 252.65006 253.48234 253.80861
 253.85589 253.64017 253.01044 251.96872 250.58499 248.75627 246.67555 244.51882
 242.32010 240.13438 237.96465 235.81393 233.68420 231.56148 229.59776 227.76503
 226.05831 224.54058 223.18086 221.96314 220.85541 219.82569 218.93997 218.09124
 217.34352 216.53379 215.64207 215.01635 214.47662 214.52942 214.57373 213.94409
 212.87199 212.05655 212.08823 213.82520 216.95639 221.10571 226.23996 230.74016
 234.48790 238.61865 242.77238 246.82600 250.80000 254.72987 258.48615 261.93066
 265.10236 268.01407 270.62033 272.82953 274.49500 275.83691 277.36816 279.14252
 280.84189 282.55020 284.21536 285.72293 287.02762 288.18195 289.23508 290.18912
 291.04721 291.81134 292.47885 293.32953
 366.78100 356.34774 345.79249 334.67123 323.08698 311.29372 299.17646 286.99221
 274.71695 262.62669 250.64844 239.96218 230.09693 221.21367 213.40841 206.42316
 200.26990 195.22065 191.81539 189.87013 188.91988 188.99662 189.84437 191.16511
 192.90285 195.01060 197.28634 199.65808 202.11583 204.60857 206.70932 208.56406
 210.20280 211.36055 211.60229 211.84304 211.79278 211.51052 211.15627 210.79901
 210.42876 210.15150 209.97224 209.84899 209.78973 210.13347 210.53222 210.93396
 211.73971 212.93045 214.19319 215.98894 217.92968 219.98543 222.09317 224.18891
 226.26166 228.35840 230.46815 232.58689 234.72863 236.91338 239.18212 241.56486
 244.19861 246.46235 248.47710 250.25484 251.68458 252.82033 253.65507 253.98382
 254.03356 253.82030 253.19305 252.15379 250.77254 248.94628 246.86802 244.71377
 242.51751 240.33425 238.16700 236.01874 233.89149 231.77123 229.80997 227.97972
 226.27546 224.76021 223.40295 222.18769 221.08244 220.05518 219.17193 218.32567
 217.58041 216.77316 215.88390 215.26064 214.72339 214.68460 214.53558 213.97182
 212.90840 211.97157 211.96831 213.79607 216.97078 221.03391 226.26012 230.75093
 234.48967 238.59438 242.74536 246.81360 250.79861 254.73775 258.47934 261.90775
 265.05533 267.94165 270.53448 272.72186 274.45145 275.92780 277.52518 279.23227
 281.40829 283.46329 285.24158 286.80304 288.15433 289.34988 290.44064 291.42880
 292.31757 293.10898 293.80035 294.68143
 366.78100 356.34726 345.79152 334.66978 323.08503 311.29129 299.17355 286.98881
 274.71307 262.62233 250.64359 239.95685 230.09110 221.20736 213.40162 206.41588
 200.26214 195.21240 191.80666 189.86091 188.91017 188.98643 189.83369 191.15395
 192.89121 194.99847 197.27373 199.64498 202.10224 204.59450 206.69476 208.54902
 210.18728 211.34454 211.58579 211.82605 211.77531 211.49257 211.13783 210.78009
 210.40935 210.13160 209.95186 209.82812 209.76838 210.11164 210.50990 210.91116
 211.71642 212.90667 214.16893 215.96419 217.90445 219.95971 222.06697 224.16223
 226.23448 228.33074 230.44000 232.55826 234.69952 236.88378 239.15204 241.53430
 244.16755 246.43081 248.44507 250.22233 251.65159 252.78685 253.62111 253.94936
 253.99862 253.78488 253.15714 252.11740 250.73566 248.90892 246.83018 244.67543
 242.47869 240.29495 238.12721 235.97847 233.85073 231.72999 229.76824 227.93750
 226.23276 224.71702 223.35928 222.14354 221.03780 220.01006 219.12631 218.27957
 217.53383 216.72609 215.83635 215.21261 214.67487 214.69229 214.59476 213.89250
 212.97110 211.93433 211.87552 213.77109 216.98845 221.09065 226.28276 230.78053
 234.51666 238.61871 242.76122 246.81709 250.80217 254.75056 258.48788 261.89307
 265.02814 267.92068 270.54095 272.72906 274.32977 275.65915 277.26093 279.27444
 281.43906 283.50323 285.28946 286.85788 288.21521 289.41611 290.51175 291.50433
 292.39703 293.19199 293.88644 294.77145
 366.78100 356.34518 345.78736 334.66355 323.07673 311.28091 299.16109 286.97428
 274.69646 262.60364 250.62282 239.93401 230.06619 221.18037 213.37255 206.38474
 200.22892 195.17710 191.76928 189.82147 188.86865 188.94283 189.78801 191.10620
 192.84138 194.94656 197.21974 199.58892 202.04411 204.53429 206.63247 208.48465
 210.12084 211.27602 211.51520 211.75338 211.70057 211.41575 211.05893 210.69911
 210.32630 210.04648 209.86466 209.73884 209.67703 210.01821 210.41439 210.81357
 211.61675 212.80494 214.06512 215.85830 217.79648 219.84967 221.95485 224.04803
 226.11821 228.21240 230.31958 232.43576 234.57494 236.75713 239.02331 241.40349
 244.03467 246.29586 248.30804 250.08322 251.51040 252.64359 253.47577 253.80195
 253.84913 253.63331 253.00350 251.96168 250.57786 248.74904 246.66823 244.51141
 242.31259 240.12677 237.95696 235.80614 233.67632 231.55350 229.58969 227.75687
 226.05005 224.53223 223.17242 221.95460 220.84678 219.81696 218.93115 218.08233
 217.33451 216.52469 215.63287 215.00706 214.46724 214.59528 214.74739 213.82193
 212.93282 211.91354 211.90497 213.79382 217.01649 221.19873 226.22942 230.80145
 234.52647 238.63330 242.77480 246.81787 250.78239 254.68008 258.39236 261.80438
 264.94858 267.85455 270.48755 272.72281 274.47934 275.92709 277.42062 278.89804
 280.12164 281.08594 282.63998 284.20483 285.55908 286.75723 287.85037 288.84070
 289.73135 290.52451 291.21738 292.10037
 366.78100 356.34419 345.78539 334.66058 323.07278 311.27597 299.15517 286.96736
 274.68856 262.59475 250.61295 239.92314 230.05434 221.16753 213.35873 206.36992
 200.21312 195.16031 191.75150 189.80270 188.84889 188.92209 189.76628 191.08348
 192.81767 194.92187 197.19406 199.56226 202.01645 204.50565 206.60284 208.45404
 210.08923 211.24342 211.48162 211.71881 211.66501 211.37920 211.02140 210.66059
 210.28679 210.00598 209.82318 209.69637 209.63357 209.97376 210.36896 210.76715
 211.56935 212.75654 214.01573 215.80793 217.74512 219.79732 221.90151 223.99371
 226.06290 228.15610 230.26229 232.37749 234.51568 236.69688 238.96207 241.34127
 243.97146 246.23166 248.24285 250.01704 251.44324 252.57543 253.40663 253.73182
 253.77802 253.56121 252.93041 251.88760 250.50280 248.67299 246.59119 244.43338
 242.23358 240.04677 237.87596 235.72416 233.59335 231.46955 229.50474 227.67094
 225.96313 224.44433 223.08352 221.86472 220.75591 219.72511 218.83830 217.98850
 217.23969 216.42889 215.53608 214.90927 214.36847 214.54646 214.86232 213.88342
 212.88121 211.82658 211.75555 213.61848 216.88347 221.08974 226.16203 230.73132
 234.48880 238.59813 242.75597 246.81960 250.79045 254.68570 258.39404 261.78696
 264.91806 267.82352 270.45569 272.72366 274.52209 275.95001 277.39798 278.89520
 280.20117 281.08783 281.77396 282.83786 284.11829 285.32111 286.41849 287.41263
 288.30676 289.10300 289.79858 290.68500
 366.78100 356.34421 345.78541 334.66062 323.07283 311.27603 299.15524 286.96744
 274.68865 262.59486 250.61306 239.92327 230.05448 221.16768 213.35889 206.37009
 200.21330 195.16051 191.75171 189.80292 188.84913 188.92233 189.76654 191.08374
 192.81795 194.92216 197.19436 199.56257 202.01678 204.50598 206.60319 208.45439
 210.08960 211.24381 211.48201 211.71922 211.66543 211.37963 211.02184 210.66105
 210.28725 210.00646 209.82366 209.69687 209.63408 209.97428 210.36949 210.76770
 211.56990 212.75711 214.01631 215.80852 217.74573 219.79793 221.90214 223.99435
 226.06355 228.15676 230.26296 232.37817 234.51638 236.69758 238.96279 241.34200
 243.97220 246.23241 248.24362 250.01782 251.44403 252.57623 253.40744 253.73265
 253.77885 253.56206 252.93127 251.88847 250.50368 248.67388 246.59209 244.43430
 242.23450 240.04771 237.87692 235.72512 233.59433 231.47053 229.50574 227.67195
 225.96415 224.44536 223.08457 221.86577 220.75698 219.72618 218.83939 217.98960
 217.24080 216.43001 215.53722 214.91042 214.36963 214.55539 214.90883 213.92738
 212.80244 211.80620 211.69081 213.51143 216.81268 221.03539 226.12175 230.67212
 234.45700 238.57669 242.75395 246.84000 250.82689 254.72508 258.42041 261.79700
 264.91974 267.82556 270.47131 272.78513 274.61850 276.06607 277.46634 278.90973
 280.16437 280.91205 281.45486 282.59366 283.81314 284.99042 286.08344 287.07367
 287.96426 288.75732 289.45016 290.33307
 366.78100 356.34502 345.78704 334.66306 323.07608 311.28010 299.16012 286.97314
 274.69516 262.60217 250.62119 239.93221 230.06423 221.17825 213.37027 206.38229
 200.22631 195.17433 191.76635 189.81837 188.86539 188.93941 189.78443 191.10245
 192.83747 194.94249 197.21551 199.58452 202.03954 204.52956 206.62758 208.47960
 210.11562 211.27064 211.50966 211.74768 211.69470 211.40972 211.05274 210.69276
 210.31978 210.03980 209.85782 209.73184 209.66985 210.01087 210.40689 210.80591
 211.60893 212.79695 214.05697 215.84999 217.78801 219.84103 221.94605 224.03907
 226.10909 228.20311 230.31013 232.42615 234.56517 236.74719 239.01320 241.39322
 244.02424 246.28526 248.29728 250.07230 251.49932 252.63234 253.46436 253.79038
 253.83740 253.62142 252.99144 251.94946 250.56548 248.73650 246.65552 244.49853
 242.29955 240.11357 237.94359 235.79261 233.66263 231.53965 229.57567 227.74269
 226.03571 224.51773 223.15775 221.93977 220.83179 219.80181 218.91583 218.06685
 217.31887 216.50888 215.61690 214.99092 214.45094 214.59541 214.89777 214.08766
 212.64827 211.53391 211.54926 213.45911 216.80180 221.01135 226.18935 230.68643
 234.49977 238.60800 242.78674 246.86806 250.84508 254.71786 258.37988 261.73700
 264.84726 267.75607 270.42883 272.79233 274.69028 276.17596 277.60144 278.99310
 280.19504 280.96780 281.37897 281.89096 283.00443 284.10300 285.16785 286.11340
 286.96381 287.72113 288.38269 289.22577
 366.78100 356.34596 345.78891 334.66587 323.07983 311.28479 299.16574 286.97970
 274.70266 262.61062 250.63057 239.94253 230.07549 221.19045 213.38340 206.39636
 200.24132 195.19028 191.78323 189.83619 188.88415 188.95911 189.80506 191.12402
 192.85998 194.96593 197.23989 199.60985 202.06581 204.55676 206.65572 208.50868
 210.14564 211.30159 211.54155 211.78051 211.72847 211.44442 211.08838 210.72934
 210.35730 210.07825 209.89721 209.77217 209.71113 210.05308 210.45004 210.85000
 211.65395 212.84291 214.10387 215.89783 217.83678 219.89074 221.99670 224.09066
 226.16161 228.25657 230.36453 232.48149 234.62144 236.80440 239.07136 241.45232
 244.08427 246.34623 248.35919 250.13514 251.56310 252.69706 253.53002 253.85697
 253.90493 253.68989 253.06085 252.01980 250.63676 248.80872 246.72868 244.57263
 242.37459 240.18955 238.02051 235.87046 233.74142 231.61938 229.65634 227.82429
 226.11825 224.60121 223.24216 222.02512 220.91808 219.88904 219.00399 218.15595
 217.40891 216.59987 215.70882 215.08378 214.54474 214.64287 214.86516 214.22229
 212.81273 211.39148 211.34964 213.36093 216.76854 220.96907 226.26808 230.70616
 234.54694 238.64372 242.82169 246.89171 250.85606 254.70430 258.33661 261.66345
 264.75079 267.65536 270.34085 272.71918 274.65848 276.22510 277.66003 278.99731
 280.15475 280.90628 281.30545 281.70935 282.57669 283.64822 284.65067 285.51688
 286.34204 287.07684 287.71875 288.53677
 366.78100 356.34632 345.78964 334.66696 323.08129 311.28661 299.16793 286.98225
 274.70557 262.61389 250.63421 239.94653 230.07986 221.19518 213.38850 206.40182
 200.24714 195.19646 191.78978 189.84310 188.89143 188.96675 189.81307 191.13239
 192.86871 194.97503 197.24935 199.61968 202.07600 204.56732 206.66664 208.51996
 210.15728 211.31360 211.55392 211.79325 211.74157 211.45789 211.10221 210.74353
 210.37185 210.09317 209.91250 209.78782 209.72714 210.06946 210.46678 210.86710
 211.67142 212.86074 214.12207 215.91639 217.85571 219.91003 222.01635 224.11067
 226.18199 228.27731 230.38564 232.50296 234.64328 236.82660 239.09392 241.47524
 244.10756 246.36989 248.38321 250.15953 251.58785 252.72217 253.55549 253.88281
 253.93113 253.71646 253.08778 252.04710 250.66442 248.83674 246.75706 244.60138
 242.40370 240.21903 238.05035 235.90067 233.77199 231.65031 229.68763 227.85595
 226.15028 224.63360 223.27492 222.05824 220.95156 219.92288 219.03820 218.19052
 217.44385 216.63517 215.74449 215.11981 214.58113 214.66887 214.87613 214.20590
 212.98444 211.34879 211.16676 213.26372 216.71111 220.90039 226.30048 230.71771
 234.56883 238.66457 242.84633 246.91722 250.88641 254.72775 258.34158 261.63474
 264.69608 267.58984 270.28275 272.69290 274.68393 276.28119 277.69574 278.97995
 280.03860 280.70844 280.97113 281.38644 282.34201 283.42236 284.41318 285.23685
 286.01956 286.75586 287.39911 288.21884
 366.78100 356.34677 345.79054 334.66832 323.08309 311.28886 299.17063 286.98540
 274.70918 262.61795 250.63872 239.95149 230.08526 221.20103 213.39481 206.40858
 200.25435 195.20412 191.79789 189.85167 188.90044 188.97621 189.82298 191.14275
 192.87953 194.98630 197.26107 199.63184 202.08861 204.58039 206.68016 208.53393
 210.17170 211.32847 211.56924 211.80902 211.75779 211.47456 211.11933 210.76110
 210.38988 210.11165 209.93142 209.80719 209.74696 210.08974 210.48751 210.88828
 211.69305 212.88282 214.14460 215.93937 217.87914 219.93391 222.04068 224.13545
 226.20723 228.30300 230.41177 232.52954 234.67031 236.85409 239.12186 241.50363
 244.13640 246.39917 248.41295 250.18972 251.61849 252.75326 253.58703 253.91481
 253.96358 253.74935 253.12112 252.08089 250.69866 248.87144 246.79221 244.63698
 242.43975 240.25552 238.08730 235.93807 233.80984 231.68861 229.72638 227.89516
 226.18993 224.67370 223.31547 222.09924 220.99301 219.96479 219.08056 218.23333
 217.48710 216.67887 215.78865 215.16442 214.62619 214.69817 214.86821 214.21439
 213.05042 211.32460 211.02971 213.19878 216.65570 220.82237 226.31625 230.71498
 234.57635 238.67563 242.86076 246.93408 250.91516 254.75679 258.35880 261.62241
 264.66080 267.54150 270.23633 272.67447 274.70929 276.32867 277.72937 278.96738
 279.97104 280.57373 280.80353 281.12054 281.94556 282.96738 283.96481 284.86685
 285.66296 286.38000 287.02310 287.84262
 366.78100 356.34753 345.79206 334.67059 323.08612 311.29264 299.17517 286.99070
 274.71523 262.62476 250.64629 239.95982 230.09435 221.21088 213.40540 206.41993
 200.26646 195.21699 191.81152 189.86605 188.91558 188.99211 189.83964 191.16016
 192.89769 195.00522 197.28075 199.65228 202.10981 204.60234 206.70287 208.55740
 210.19592 211.35345 211.59498 211.83551 211.78504 211.50257 211.14810 210.79063
 210.42016 210.14268 209.96321 209.83974 209.78027 210.12380 210.52233 210.92386
 211.72939 212.91992 214.18244 215.97797 217.91850 219.97403 222.08156 224.17709
 226.24962 228.34615 230.45568 232.57420 234.71573 236.90026 239.16879 241.55132
 244.18485 246.44838 248.46291 250.24044 251.66996 252.80549 253.64002 253.96855
 254.01808 253.80461 253.17714 252.13767 250.75620 248.92972 246.85125 244.69678
 242.50031 240.31684 238.14937 236.00090 233.87343 231.75296 229.79148 227.96101
 226.25654 224.74107 223.38360 222.16813 221.06266 220.03519 219.15172 218.30524
 217.55977 216.75230 215.86283 215.23936 214.70189 214.74040 214.83139 214.25934
 213.10570 211.32188 211.00024 213.17180 216.60637 220.74246 226.32539 230.70366
 234.58014 238.68239 242.86630 246.93541 250.92732 254.77226 258.36337 261.60123
 264.62192 267.49054 270.18582 272.65146 274.71899 276.35724 277.74884 278.94342
 279.94577 280.54318 280.80972 281.08807 281.66653 282.39612 283.29056 284.18808
 285.03479 285.77203 286.41061 287.23895
 366.78100 356.34816 345.79331 334.67247 323.08863 311.29578 299.17894 286.99510
 274.72025 262.63041 250.65256 239.96672 230.10188 221.21903 213.41419 206.42935
 200.27650 195.22766 191.82282 189.87797 188.92813 189.00529 189.85344 191.17460
 192.91276 195.02091 197.29707 199.66923 202.12738 204.62054 206.72169 208.57685
 210.21601 211.37416 211.61632 211.85748 211.80763 211.52579 211.17195 210.81510
 210.44526 210.16842 209.98957 209.86673 209.80789 210.15204 210.55120 210.95335
 211.75951 212.95067 214.21382 216.00998 217.95114 220.00729 222.11545 224.21161
 226.28476 228.38192 230.49208 232.61123 234.75339 236.93855 239.20770 241.59086
 244.22502 246.48917 248.50433 250.28248 251.71264 252.84880 253.68395 254.01311
 254.06327 253.85042 253.22358 252.18474 250.80389 248.97805 246.90021 244.74636
 242.55052 240.36768 238.20083 236.05299 233.92614 231.80630 229.84546 228.01561
 226.31177 224.79693 223.44008 222.22524 221.12040 220.09355 219.21071 218.36487
 217.62002 216.81318 215.92434 215.30149 214.76465 214.77922 214.81366 214.27731
 213.16843 211.31084 210.91344 213.12491 216.57143 220.68616 226.30737 230.71338
 234.57846 238.68863 242.86949 246.93604 250.93535 254.78069 258.35953 261.57785
 264.58621 267.44315 270.13712 272.61993 274.70499 276.36319 277.73767 278.89230
 279.88626 280.47348 280.72293 280.94907 281.49640 282.20007 283.13315 284.01697
 284.84720 285.59122 286.23303 287.06271
 366.78100 356.34833 345.79366 334.67299 323.08932 311.29665 299.17998 286.99632
 274.72165 262.63198 250.65431 239.96864 230.10397 221.22130 213.41663 206.43196
 200.27929 195.23062 191.82595 189.88128 188.93161 189.00895 189.85728 191.17861
 192.91694 195.02527 197.30160 199.67393 202.13226 204.62559 206.72692 208.58225
 210.22158 211.37991 211.62225 211.86358 211.81391 211.53224 211.17857 210.82190
 210.45223 210.17556 209.99689 209.87422 209.81555 210.15988 210.55921 210.96154
 211.76788 212.95921 214.22254 216.01887 217.96020 220.01653 222.12486 224.22119
 226.29452 228.39185 230.50218 232.62151 234.76384 236.94918 239.21851 241.60184
 244.23617 246.50050 248.51583 250.29416 251.72449 252.86082 253.69615 254.02548
 254.07581 253.86314 253.23647 252.19781 250.81714 248.99147 246.91380 244.76013
 242.56446 240.38179 238.21512 236.06745 233.94078 231.82111 229.86044 228.03077
 226.32711 224.81244 223.45577 222.24110 221.13643 220.10976 219.22709 218.38142
 217.63675 216.83008 215.94141 215.31874 214.78207 214.79555 214.82741 214.27126
 213.20602 211.29596 210.81064 213.05482 216.53960 220.63065 226.28838 230.73215
 234.57773 238.69965 242.87991 246.94487 250.94690 254.79079 258.35934 261.56747
 264.56674 267.41309 270.09940 272.58118 274.66965 276.33853 277.69547 278.82474
 279.80209 280.37677 280.60367 280.82373 281.38666 282.12668 283.05844 283.94128
 284.76212 285.50952 286.17700 287.03720
 366.78100 356.34830 345.79360 334.67290 323.08921 311.29651 299.17981 286.99611
 274.72141 262.63171 250.65401 239.96831 230.10362 221.22092 213.41622 206.43152
 200.27882 195.23012 191.82542 189.88072 188.93103 189.00833 189.85663 191.17793
 192.91623 195.02453 197.30083 199.67313 202.13144 204.62474 206.72604 208.58134
 210.22064 211.37894 211.62124 211.86255 211.81285 211.53115 211.17745 210.82075
 210.45105 210.17435 209.99565 209.87296 209.81426 210.15856 210.55786 210.96016
 211.76646 212.95776 214.22106 216.01737 217.95867 220.01497 222.12327 224.21957
 226.29287 228.39017 230.50047 232.61978 234.76208 236.94738 239.21668 241.59998
 244.23428 246.49858 248.51389 250.29219 251.72249 252.85879 253.69409 254.02339
 254.07369 253.86099 253.23430 252.19560 250.81490 248.98920 246.91150 244.75780
 242.56210 240.37940 238.21271 236.06501 233.93831 231.81861 229.85791 228.02821
 226.32451 224.80981 223.45312 222.23842 221.13372 220.10702 219.22432 218.37862
 217.63392 216.82723 215.93853 215.31583 214.77913 214.79922 214.84671 214.26811
 213.23839 211.28860 210.73264 212.99313 216.51350 220.58272 226.26392 230.73187
 234.57236 238.70377 242.88480 246.94762 250.95349 254.79892 258.36517 261.56833
 264.56198 267.39590 270.06821 272.53622 274.61411 276.28082 277.62146 278.74026
 279.71167 280.27402 280.50070 280.75357 281.33701 282.10962 283.04669 283.93106
 284.75153 285.50089 286.17310 287.03952
 366.78100 356.34850 345.79401 334.67351 323.09001 311.29752 299.18102 286.99752
 274.72302 262.63353 250.65603 239.97053 230.10604 221.22354 213.41904 206.43455
 200.28205 195.23355 191.82905 189.88456 188.93506 189.01256 189.86107 191.18257
 192.92107 195.02958 197.30608 199.67858 202.13708 204.63059 206.73209 208.58759
 210.22710 211.38560 211.62810 211.86961 211.82011 211.53861 211.18511 210.82862
 210.45912 210.18262 210.00413 209.88163 209.82313 210.16764 210.56714 210.96964
 211.77614 212.96765 214.23115 216.02765 217.96916 220.02566 222.13416 224.23067
 226.30417 228.40167 230.51217 232.63168 234.77418 236.95968 239.22919 241.61269
 244.24719 246.51170 248.52720 250.30570 251.73620 252.87271 253.70821 254.03771
 254.08822 253.87572 253.24922 252.21073 250.83023 249.00473 246.92723 244.77374
 242.57824 240.39574 238.22925 236.08175 233.95525 231.83576 229.87526 228.04576
 226.34227 224.82777 223.47127 222.25677 221.15228 220.12578 219.24328 218.39779
 217.65329 216.84679 215.95830 215.33580 214.79930 214.81482 214.85144 214.27307
 213.28465 211.27577 210.64655 212.92427 216.47897 220.53650 226.21884 230.71454
 234.54950 238.69144 242.87669 246.94385 250.95401 254.80342 258.37158 261.58044
 264.57089 267.39243 270.04388 272.48608 274.54022 276.19128 277.51984 278.63727
 279.60550 280.17682 280.44357 280.75327 281.35303 282.17780 283.12466 284.01508
 284.85092 285.60651 286.27350 287.12469
 366.78100 356.34873 345.79447 334.67420 323.09094 311.29867 299.18240 286.99914
 274.72487 262.63560 250.65834 239.97307 230.10881 221.22654 213.42227 206.43801
 200.28574 195.23748 191.83321 189.88894 188.93968 189.01741 189.86615 191.18788
 192.92661 195.03535 197.31208 199.68481 202.14355 204.63728 206.73902 208.59475
 210.23448 211.39322 211.63595 211.87769 211.82842 211.54715 211.19389 210.83762
 210.46836 210.19209 210.01382 209.89156 209.83329 210.17802 210.57776 210.98049
 211.78723 212.97896 214.24269 216.03943 217.98116 220.03790 222.14663 224.24336
 226.31710 228.41483 230.52556 232.64530 234.78803 236.97377 239.24350 241.62723
 244.26197 246.52670 248.54244 250.32117 251.75190 252.88864 253.72437 254.05411
 254.10484 253.89257 253.26631 252.22804 250.84777 249.02251 246.94524 244.79198
 242.59671 240.41444 238.24818 236.10091 233.97465 231.85538 229.89511 228.06585
 226.36258 224.84832 223.49205 222.27778 221.17352 220.14725 219.26498 218.41972
 217.67545 216.86919 215.98092 215.35865 214.82239 214.83363 214.86021 214.26601
 213.33366 211.26242 210.54114 212.85687 216.44682 220.50815 226.15344 230.69658
 234.51495 238.67047 242.86398 246.94452 250.95732 254.80930 258.38141 261.60330
 264.59140 267.39865 270.02628 272.42722 274.44699 276.07614 277.39273 278.52496
 279.48880 280.11044 280.44144 280.80481 281.42645 282.29352 283.24542 284.15338
 285.00583 285.78412 286.46808 287.33966
 366.78100 356.34842 345.79385 334.67327 323.08970 311.29712 299.18054 286.99697
 274.72239 262.63282 250.65524 239.96967 230.10509 221.22251 213.41794 206.43336
 200.28079 195.23221 191.82763 189.88306 188.93348 189.01091 189.85933 191.18075
 192.91918 195.02760 197.30403 199.67645 202.13488 204.62830 206.72972 208.58515
 210.22457 211.38300 211.62542 211.86684 211.81727 211.53569 211.18212 210.82554
 210.45596 210.17939 210.00081 209.87824 209.81966 210.16409 210.56351 210.96593
 211.77236 212.96378 214.22721 216.02363 217.96505 220.02148 222.12990 224.22633
 226.29975 228.39718 230.50760 232.62702 234.76945 236.95487 239.22430 241.60772
 244.24214 246.50657 248.52199 250.30042 251.73084 252.86726 253.70269 254.03211
 254.08254 253.86996 253.24339 252.20481 250.82423 248.99866 246.92108 244.76751
 242.57193 240.38935 238.22278 236.07520 233.94863 231.82905 229.86847 228.03890
 226.33532 224.82075 223.46417 222.24960 221.14502 220.11844 219.23587 218.39029
 217.64572 216.83914 215.95056 215.32799 214.79141 214.82591 214.90742 214.22505
 213.38063 211.26033 210.53487 212.81483 216.39302 220.48463 226.08641 230.67998
 234.48126 238.64949 242.85295 246.94984 250.96443 254.81877 258.39551 261.63245
 264.61810 267.40833 270.00980 272.36243 274.33667 275.93552 277.24554 278.40640
 279.39511 280.10809 280.49066 280.89404 281.54886 282.40866 283.38129 284.28891
 285.17899 285.99976 286.71674 287.63049
 366.78100 356.34766 345.79232 334.67098 323.08664 311.29330 299.17596 286.99162
 274.71628 262.62594 250.64760 239.96126 230.09592 221.21258 213.40724 206.42189
 200.26855 195.21921 191.81387 189.86853 188.91819 188.99485 189.84251 191.16317
 192.90083 195.00849 197.28415 199.65581 202.11347 204.60613 206.70679 208.56145
 210.20011 211.35777 211.59943 211.84009 211.78975 211.50741 211.15307 210.79573
 210.42539 210.14805 209.96871 209.84537 209.78602 210.12968 210.52834 210.93000
 211.73566 212.92632 214.18898 215.98464 217.92530 219.98096 222.08862 224.18428
 226.25694 228.35360 230.46326 232.58192 234.72358 236.90824 239.17690 241.55956
 244.19322 246.45688 248.47154 250.24920 251.67886 252.81452 253.64918 253.97784
 254.02750 253.81416 253.18681 252.14747 250.76613 248.93979 246.86145 244.70711
 242.51077 240.32743 238.16009 236.01175 233.88441 231.76407 229.80273 227.97239
 226.26805 224.75271 223.39537 222.18003 221.07469 220.04735 219.16401 218.31767
 217.57233 216.76499 215.87565 215.25231 214.71497 214.79436 214.97807 214.16310
 213.39799 211.29584 210.52507 212.76350 216.34175 220.46329 226.02344 230.65579
 234.44994 238.62935 242.84315 246.95461 250.97110 254.82771 258.41199 261.66330
 264.64792 267.41974 269.99030 272.29343 274.22232 275.79349 277.09595 278.26981
 279.30566 280.06503 280.52182 280.98663 281.62524 282.57425 283.54535 284.45273
 285.39117 286.24112 286.98364 287.92990
 366.78100 356.34713 345.79127 334.66940 323.08454 311.29067 299.17281 286.98794
 274.71208 262.62121 250.64235 239.95548 230.08962 221.20575 213.39988 206.41402
 200.26015 195.21029 191.80442 189.85856 188.90769 188.98383 189.83096 191.15110
 192.88823 194.99537 197.27050 199.64163 202.09877 204.59090 206.69104 208.54517
 210.18331 211.34044 211.58158 211.82171 211.77085 211.48798 211.13311 210.77525
 210.40438 210.12652 209.94665 209.82279 209.76292 210.10606 210.50419 210.90533
 211.71046 212.90060 214.16273 215.95786 217.89800 219.95313 222.06027 224.15540
 226.22754 228.32367 230.43281 232.55094 234.69208 236.87621 239.14435 241.52648
 244.15961 246.42275 248.43688 250.21402 251.64315 252.77829 253.61242 253.94056
 253.98969 253.77583 253.14796 252.10810 250.72623 248.89936 246.82050 244.66563
 242.46877 240.28490 238.11704 235.96817 233.84031 231.71944 229.75758 227.92671
 226.22185 224.70598 223.34811 222.13225 221.02638 219.99852 219.11465 218.26779
 217.52192 216.71406 215.82419 215.20033 214.66246 214.77214 215.01918 214.14282
 213.38333 211.30998 210.54179 212.70299 216.27072 220.43846 225.96989 230.62401
 234.42023 238.60828 242.83165 246.95404 250.97380 254.83429 258.42914 261.69571
 264.68033 267.43292 269.97131 272.22839 274.10916 275.64798 276.93414 278.09845
 279.16431 279.96481 280.51114 281.03275 281.78595 282.75543 283.72739 284.67346
 285.57999 286.38724 287.09247 287.99118
 366.78100 356.34684 345.79068 334.66852 323.08336 311.28920 299.17104 286.98588
 274.70972 262.61857 250.63941 239.95225 230.08609 221.20193 213.39577 206.40961
 200.25545 195.20529 191.79913 189.85297 188.90181 188.97765 189.82449 191.14433
 192.88117 194.98801 197.26285 199.63370 202.09054 204.58238 206.68222 208.53606
 210.17390 211.33074 211.57158 211.81142 211.76026 211.47710 211.12194 210.76378
 210.39262 210.11446 209.93430 209.81014 209.74998 210.09283 210.49067 210.89151
 211.69635 212.88619 214.14803 215.94287 217.88271 219.93755 222.04439 224.13923
 226.21107 228.30691 230.41575 232.53359 234.67443 236.85827 239.12612 241.50796
 244.14080 246.40364 248.41748 250.19432 251.62316 252.75800 253.59184 253.91968
 253.96852 253.75436 253.12620 252.08604 250.70388 248.87672 246.79756 244.64240
 242.44525 240.26109 238.09293 235.94377 233.81561 231.69445 229.73229 227.90113
 226.19597 224.67981 223.32165 222.10549 220.99933 219.97117 219.08701 218.23985
 217.49369 216.68553 215.79538 215.17122 214.63306 214.75803 215.03899 214.15666
 213.38084 211.29645 210.52798 212.68790 216.23529 220.40192 225.91937 230.57881
 234.38319 238.57782 242.80852 246.93916 250.96567 254.83629 258.44952 261.73572
 264.72607 267.46204 269.96262 272.16605 273.98837 275.48007 276.73999 277.89511
 278.98325 279.83835 280.46497 281.07932 282.02338 283.09561 284.11810 285.07626
 285.95755 286.74234 287.42789 288.30157
 366.78100 356.34698 345.79097 334.66895 323.08393 311.28992 299.17190 286.98688
 274.71087 262.61985 250.64084 239.95382 230.08780 221.20379 213.39777 206.41175
 200.25774 195.20772 191.80170 189.85569 188.90467 188.98065 189.82764 191.14762
 192.88460 194.99159 197.26657 199.63756 202.09454 204.58652 206.68651 208.54049
 210.17847 211.33546 211.57644 211.81642 211.76541 211.48239 211.12737 210.76936
 210.39834 210.12033 209.94031 209.81629 209.75628 210.09926 210.49724 210.89823
 211.70321 212.89319 214.15518 215.95016 217.89014 219.94513 222.05211 224.14709
 226.21908 228.31506 230.42405 232.54203 234.68301 236.86700 239.13498 241.51696
 244.14995 246.41293 248.42691 250.20390 251.63288 252.76786 253.60185 253.92983
 253.97881 253.76480 253.13678 252.09677 250.71475 248.88773 246.80872 244.65370
 242.45668 240.27267 238.10465 235.95563 233.82762 231.70660 229.74458 227.91357
 226.20855 224.69254 223.33452 222.11850 221.01249 219.98447 219.10045 218.25344
 217.50742 216.69940 215.80939 215.18537 214.64735 214.76192 215.02560 214.19029
 213.42924 211.32629 210.48856 212.57777 216.18953 220.39911 225.87778 230.52139
 234.34027 238.54128 242.78018 246.91811 250.95351 254.83838 258.47772 261.78891
 264.78156 267.49371 269.94666 272.09641 273.86249 275.29932 276.53143 277.68945
 278.79691 279.74173 280.53159 281.30493 282.14438 283.21042 284.21692 285.14850
 286.00549 286.76865 287.43533 288.28494
 366.78100 356.34735 345.79171 334.67006 323.08542 311.29177 299.17413 286.98948
 274.71384 262.62319 250.64455 239.95790 230.09226 221.20861 213.40297 206.41732
 200.26368 195.21403 191.80839 189.86274 188.91210 188.98845 189.83581 191.15616
 192.89352 195.00087 197.27623 199.64758 202.10494 204.59729 206.69765 208.55200
 210.19036 211.34771 211.58907 211.82942 211.77878 211.49613 211.14149 210.78384
 210.41320 210.13555 209.95591 209.83226 209.77262 210.11597 210.51433 210.91568
 211.72104 212.91139 214.17375 215.96910 217.90946 219.96481 222.07217 224.16752
 226.23988 228.33623 230.44559 232.56394 234.70530 236.88965 239.15801 241.54036
 244.17372 246.43707 248.45143 250.22878 251.65814 252.79349 253.62785 253.95620
 254.00556 253.79191 253.16427 252.12462 250.74298 248.91633 246.83769 244.68304
 242.48640 240.30275 238.13511 235.98646 233.85881 231.73817 229.77652 227.94588
 226.24123 224.72559 223.36794 222.15230 221.04665 220.01901 219.13536 218.28872
 217.54307 216.73543 215.84578 215.22214 214.68449 214.77870 215.00012 214.20401
 213.52119 211.39421 210.40092 212.45758 216.15015 220.37476 225.82120 230.45155
 234.29321 238.50461 242.75594 246.90752 250.95491 254.85208 258.51031 261.83749
 264.83258 267.53040 269.94669 272.03610 273.72125 275.08527 276.29376 277.47214
 278.62152 279.68750 280.64182 281.54172 282.39905 283.41678 284.40997 285.30103
 286.12518 286.86545 287.51215 288.33627
 366.78100 356.34715 345.79130 334.66945 323.08460 311.29075 299.17289 286.98804
 274.71219 262.62134 250.64249 239.95564 230.08979 221.20594 213.40009 206.41424
 200.26039 195.21053 191.80468 189.85883 188.90798 188.98413 189.83128 191.15143
 192.88858 194.99573 197.27088 199.64203 202.09917 204.59132 206.69147 208.54562
 210.18377 211.34092 211.58207 211.82222 211.77137 211.48852 211.13367 210.77581
 210.40496 210.12711 209.94726 209.82341 209.76356 210.10671 210.50486 210.90601
 211.71116 212.90131 214.16345 215.95860 217.89875 219.95390 222.06105 224.15620
 226.22835 228.32450 230.43365 232.55180 234.69295 236.87710 239.14524 241.52739
 244.16054 246.42369 248.43784 250.21499 251.64414 252.77929 253.61344 253.94159
 253.99074 253.77688 253.14903 252.10918 250.72733 248.90048 246.82163 244.66678
 242.46993 240.28608 238.11823 235.96938 233.84152 231.72067 229.75882 227.92797
 226.22312 224.70727 223.34942 222.13357 221.02772 219.99987 219.11602 218.26916
 217.52331 216.71546 215.82561 215.20176 214.66391 214.76944 215.01430 214.19492
 213.48959 211.49318 210.45493 212.30424 216.05623 220.38446 225.76439 230.40059
 234.24541 238.46307 242.72366 246.88342 250.93427 254.84694 258.54453 261.91681
 264.91571 267.56708 269.90588 271.91519 273.53976 274.87247 276.09006 277.28998
 278.51617 279.69980 280.79370 281.77402 282.68201 283.77359 284.84576 285.32349
 286.12845 286.84528 287.47147 288.26950
 366.78100 356.34650 345.79000 334.66750 323.08200 311.28749 299.16899 286.98349
 274.70699 262.61549 250.63599 239.94849 230.08199 221.19749 213.39098 206.40448
 200.24998 195.19948 191.79298 189.84648 188.89498 188.97048 189.81698 191.13648
 192.87297 194.97947 197.25397 199.62447 202.08097 204.57247 206.67197 208.52547
 210.16297 211.31946 211.55996 211.79946 211.74796 211.46446 211.10896 210.75046
 210.37896 210.10046 209.91995 209.79545 209.73495 210.07745 210.47495 210.87545
 211.67995 212.86945 214.13095 215.92545 217.86494 219.91944 222.02594 224.12044
 226.19194 228.28744 230.39594 232.51344 234.65394 236.83743 239.10493 241.48643
 244.11893 246.38143 248.39493 250.17143 251.59993 252.73443 253.56792 253.89542
 253.94392 253.72942 253.10092 252.06042 250.67792 248.85042 246.77092 244.61541
 242.41791 240.23341 238.06491 235.91541 233.78691 231.66541 229.70291 227.87141
 226.16591 224.64940 223.29090 222.07440 220.96790 219.93940 219.05490 218.20740
 217.46090 216.65240 215.76189 215.13739 214.59889 214.70805 214.95901 214.20309
 213.44539 211.55582 210.57306 212.18001 215.95323 220.41278 225.73499 230.37152
 234.20872 238.43097 242.70120 246.86348 250.90828 254.83058 258.56784 261.98474
 264.97772 267.56842 269.82047 271.75201 273.30872 274.59561 275.81406 277.04678
 278.35541 279.64081 280.87106 281.97153 282.93466 284.04565 285.11160 285.62256
 286.35806 287.01303 287.58521 288.31436
 366.78100 356.34579 345.78857 334.66536 323.07915 311.28393 299.16472 286.97851
 274.70129 262.60908 250.62887 239.94065 230.07344 221.18823 213.38102 206.39380
 200.23859 195.18738 191.78016 189.83295 188.88074 188.95552 189.80131 191.12010
 192.85588 194.96167 197.23546 199.60524 202.06103 204.55182 206.65060 208.50339
 210.14018 211.29596 211.53575 211.77454 211.72232 211.43811 211.08190 210.72268
 210.35047 210.07126 209.89005 209.76483 209.70362 210.04541 210.44219 210.84198
 211.64577 212.83455 214.09534 215.88913 217.82791 219.88170 221.98749 224.08127
 226.15206 228.24685 230.35463 232.47142 234.61121 236.79399 239.06078 241.44157
 244.07335 246.33514 248.34793 250.12372 251.55150 252.68529 253.51808 253.84486
 253.89265 253.67744 253.04822 252.00701 250.62380 248.79558 246.71537 244.55916
 242.36094 240.17573 238.00652 235.85630 233.72709 231.60488 229.64166 227.80945
 226.10324 224.58602 223.22681 222.00960 220.90239 219.87317 218.98796 218.13975
 217.39253 216.58332 215.69211 215.06689 214.52768 214.62805 214.86194 214.21355
 213.46504 211.59912 210.63982 212.07866 215.86972 220.41339 225.70921 230.34061
 234.17827 238.40923 242.69232 246.85809 250.89395 254.81865 258.58127 262.02676
 265.00983 267.55255 269.74005 271.61154 273.11749 274.37451 275.60815 276.88974
 278.24371 279.61423 280.96008 282.14133 283.13889 284.29886 285.28079 285.74512
 286.49423 287.16129 287.74402 288.48666
 354.97500 345.04800 334.58700 324.11500 313.32600 302.53700 291.65000 280.76700
 269.93100 259.19300 248.62200 238.61700 229.08700 220.35500 212.54000 205.53500
 199.46400 194.49300 191.14300 189.19000 188.08900 188.01400 188.72400 189.90600
 191.46900 193.38200 195.40300 197.55600 199.80700 202.06000 204.28800 206.47900
 208.55200 210.37800 212.02500 213.65900 214.99800 216.11800 217.17200 218.25900
 219.49400 220.64500 221.67900 222.61400 223.54500 224.98200 226.57100 228.19000
 229.79700 231.81100 233.86500 235.97200 238.24200 240.55300 242.89900 245.25300
 247.48800 249.53500 251.36600 252.84800 254.09800 255.16700 256.02700 256.25300
 256.09500 255.54300 253.93500 252.56600 251.38400 250.24500 249.05200 247.70100
 246.01600 243.99600 241.78400 239.39300 236.81300 234.22300 231.65800 229.14400
 226.74000 224.47300 222.33500 220.32500 218.44000 216.67700 214.96200 213.47200
 212.20000 211.10800 210.26000 209.63900 209.24400 209.03100 209.05800 209.33300
 209.78400 210.62600 211.33100 212.39100 213.62500 214.84668 217.72949 219.47640
 220.32566 220.86828 220.88710 220.27371 219.43733 218.84250 219.04934 220.86203
 222.60583 225.72206 229.03064 232.61777 236.12270 239.51333 242.70767 245.68587
 248.41061 250.90679 253.19353 254.91714 256.48655 257.94920 259.39966 260.69384
 261.81714 262.77997 263.71679 264.54570 265.26305 265.89772 266.47676 267.00133
 267.47312 267.89325 268.26027 268.72800
