|-------------------------------------------------------------------------|
|   File Name : in_temp.dat
|   Subject   : temperature profiles used for initial guess atmosphere
|   File Type : input of gmtr
|   Data Type : atmospherical data
|   Author/s  : WRF-Chem
|   Date      : Fri Jul 26 15:39:24 2024
|-------------------------------------------------------------------------|

 WRF-Chem temperature
#
 values of T (K)    (8f10.5)
#
 354.97500 345.04800 334.58700 324.11500 313.32600 302.53700 291.65000 280.76700
 269.93100 259.19300 248.62200 238.61700 229.08700 220.35500 212.54000 205.53500
 199.46400 194.49300 191.14300 189.19000 188.08900 188.01400 188.72400 189.90600
 191.46900 193.38200 195.40300 197.55600 199.80700 202.06000 204.28800 206.47900
 208.55200 210.37800 212.02500 213.65900 214.99800 216.11800 217.17200 218.25900
 219.49400 220.64500 221.67900 222.61400 223.54500 224.98200 226.57100 228.19000
 229.79700 231.81100 233.86500 235.97200 238.24200 240.55300 242.89900 245.25300
 247.48800 249.53500 251.36600 252.84800 254.09800 255.16700 256.02700 256.25300
 256.09500 255.54300 253.93500 252.56600 251.38400 250.24500 249.05200 247.70100
 246.01600 243.99600 241.78400 239.39300 236.81300 234.22300 231.65800 229.14400
 226.74000 224.47300 222.33500 220.32500 218.44000 216.67700 214.96200 213.47200
 212.20000 211.10800 210.26000 209.63900 209.24400 209.03100 209.05800 209.33300
 209.78400 210.62600 211.33100 212.39100 213.62500 214.84668 217.72949 219.47640
 220.32566 220.86828 220.88710 220.27371 219.43733 218.84250 219.04934 220.86203
 222.60583 225.72206 229.03064 232.61777 236.12270 239.51333 242.70767 245.68587
 248.41061 250.90679 253.19353 254.91714 256.48655 257.94920 259.39966 260.69384
 261.81714 262.77997 263.71679 264.54570 265.26305 265.89772 266.47676 267.00133
 267.47312 267.89325 268.26027 268.72800
 366.78100 356.33500 345.76700 334.63300 323.03600 311.23000 299.10000 286.90300
 274.61500 262.51200 250.52100 239.82200 229.94400 221.04800 213.23000 206.23200
 200.06600 195.00400 191.58600 189.62800 188.66500 188.72900 189.56400 190.87200
 192.59700 194.69200 196.95500 199.31400 201.75900 204.23900 206.32700 208.16900
 209.79500 210.94000 211.16900 211.39700 211.33400 211.03900 210.67200 210.30200
 209.91900 209.62900 209.43700 209.30100 209.22900 209.56000 209.94600 210.33500
 211.12800 212.30600 213.55600 215.33900 217.26700 219.31000 221.40500 223.48800
 225.54800 227.63200 229.72900 231.83500 233.96400 236.13600 238.39200 240.76200
 243.38300 245.63400 247.63600 249.40100 250.81800 251.94100 252.76300 253.07900
 253.11600 252.89000 252.25000 251.19800 249.80400 247.96500 245.87400 243.70700
 241.49800 239.30200 237.12200 234.96100 232.82100 230.68800 228.71400 226.87100
 225.15400 223.62600 222.25600 221.02800 219.91000 218.87000 217.97400 217.11500
 216.35700 215.53700 214.63500 213.99900 213.44900 212.85855 212.01316 212.61654
 214.26826 216.08686 218.14273 220.53346 223.40855 226.78828 231.49734 235.90155
 239.42278 243.28576 247.23140 251.11907 254.80144 258.23331 261.38913 264.27520
 266.89312 269.26852 271.44504 273.08845 274.58484 275.98591 277.39845 278.65879
 279.75272 280.69038 281.56708 282.34086 283.01050 283.60295 284.14348 284.63317
 285.07358 285.46577 285.80838 286.24500
 381.81900 372.39900 361.20600 349.77600 337.62200 324.85300 311.81000 298.35300
 284.86000 271.32400 258.56100 246.30400 236.08700 226.79600 218.44800 211.29000
 205.52200 200.89400 197.38100 194.84800 193.01500 192.31500 192.25000 192.43100
 192.91200 193.53700 194.13600 194.71200 195.26200 195.83100 196.39300 196.97600
 197.60400 198.14900 198.58400 199.05700 199.69500 200.37800 201.05400 201.70800
 202.31300 202.85700 203.35500 203.86200 204.56900 205.29700 206.02600 206.98700
 208.19300 209.44100 210.96900 212.57600 214.46200 216.51300 218.63000 220.85300
 223.34100 225.96200 228.73900 231.69700 234.70600 237.70600 240.69200 243.65700
 246.73700 249.69900 252.52100 255.06300 257.29000 259.23300 260.63300 261.68000
 262.46100 262.79800 262.69100 262.22400 261.06900 259.52500 257.70700 255.50700
 253.00100 250.30200 247.39800 244.45200 241.65400 239.05400 236.73300 234.59000
 232.59500 230.72500 228.83400 226.82600 224.66600 222.38700 220.10400 217.71500
 215.45900 213.06600 210.54600 208.09300 205.35400 202.08130 196.05959 200.71215
 209.01611 216.90438 223.84126 229.78593 235.00632 240.20838 245.98943 250.68668
 254.32982 257.93487 261.55666 264.96801 268.15192 271.06452 273.76717 276.25691
 278.57680 280.74479 282.77456 284.60533 286.27232 287.81705 289.31715 290.65561
 291.81734 292.81312 293.70701 294.49387 295.17482 295.77730 296.32696 296.82492
 297.27278 297.67160 298.02000 298.46400
 399.33000 389.90700 379.81300 368.66800 357.52200 345.30100 333.07400 320.22700
 307.21600 293.84800 280.37600 267.29600 254.61000 242.98700 232.15100 221.97700
 212.67200 204.28600 197.66900 192.82100 189.48600 187.45200 186.81400 187.08900
 187.78100 189.05400 190.64800 192.54200 194.63000 196.75200 198.67100 200.15800
 201.53500 202.48700 202.97500 203.34000 203.53900 203.49700 203.38500 203.24700
 203.00500 202.78600 202.60300 202.43700 202.42600 202.88800 203.42000 203.95100
 204.89500 205.99200 207.30100 208.95800 210.73800 213.10000 215.56400 218.18000
 220.96600 223.91800 226.96100 230.09200 233.29300 236.55700 239.95500 243.53700
 246.84500 249.39000 251.54200 253.47400 255.19500 256.48400 257.43100 258.05900
 258.21200 258.04000 257.58200 256.64300 255.23900 253.50700 251.40800 249.05600
 246.57600 243.99400 241.38900 238.83000 236.34400 233.98600 231.96900 230.11800
 228.42300 226.89900 225.54800 224.29700 223.10500 221.96500 220.95800 220.11300
 219.49000 218.92000 218.32500 217.88100 217.42300 216.96366 216.35568 216.80261
 217.73415 218.28582 218.64258 219.10077 220.44626 222.53987 226.38451 230.35736
 233.59734 237.39164 241.29814 245.22796 248.98002 252.51130 255.78595 258.80109
 261.54781 264.05210 266.34239 268.04198 269.58951 271.01303 272.35754 273.55718
 274.59842 275.49092 276.28989 276.99307 277.60161 278.14001 278.63122 279.07623
 279.47646 279.83287 280.14422 280.54100
 399.73800 389.78500 379.66200 368.15100 356.64100 344.35000 331.79200 318.88800
 305.72600 292.49300 279.20900 266.73800 254.69600 244.21100 234.45700 225.43300
 217.56900 210.45100 204.30000 199.30600 195.45800 192.57600 191.02700 190.38600
 190.23900 190.53400 191.16600 191.92500 192.79500 193.76600 194.73200 195.31200
 195.80000 196.05200 196.11500 196.11500 196.03900 195.72300 195.34000 194.98900
 194.75100 194.79200 195.13300 195.59800 196.50600 198.13600 199.85800 201.56600
 204.17900 206.82300 209.89300 213.28400 216.82800 220.60500 224.38700 228.20900
 232.03200 235.82500 239.56000 243.25800 246.84500 250.20100 253.70900 257.46800
 261.53000 264.22100 266.60100 268.68100 270.32900 271.74100 272.83600 273.47400
 273.89800 274.00200 273.75700 273.28800 272.37100 271.10000 269.58900 267.77900
 265.81600 263.72100 261.39300 258.91600 256.29800 253.42300 250.33100 247.11400
 243.83700 240.52900 237.24900 233.99900 230.72800 227.51500 224.25400 220.95200
 217.62700 213.65600 210.12100 206.78900 204.01000 201.99491 199.07309 198.76551
 199.40006 200.48994 201.46112 202.31912 203.45100 204.96110 207.47502 210.85391
 213.70530 217.29629 220.99574 224.72316 228.28753 231.64854 234.68024 237.40893
 239.70644 241.60899 243.46854 245.67368 247.68154 249.52395 251.24767 252.78566
 254.12057 255.26479 256.23740 257.09036 257.82852 258.48160 259.07744 259.61723
 260.10271 260.53504 260.91270 261.39400
 399.73800 389.78500 379.66200 368.15100 356.64100 344.35000 331.79200 318.88800
 305.72600 292.49300 279.20900 266.73800 254.69600 244.21100 234.45700 225.43300
 217.56900 210.45100 204.30000 199.30600 195.45800 192.57600 191.02700 190.38600
 190.23900 190.53400 191.16600 191.92500 192.79500 193.76600 194.73200 195.31200
 195.80000 196.05200 196.11500 196.11500 196.03900 195.72300 195.34000 194.98900
 194.75100 194.79200 195.13300 195.59800 196.50600 198.13600 199.85800 201.56600
 204.17900 206.82300 209.89300 213.28400 216.82800 220.60500 224.38700 228.20900
 232.03200 235.82500 239.56000 243.25800 246.84500 250.20100 253.70900 257.46800
 261.53000 264.22100 266.60100 268.68100 270.32900 271.74100 272.83600 273.47400
 273.89800 274.00200 273.75700 273.28800 272.37100 271.10000 269.58900 267.77900
 265.81600 263.72100 261.39300 258.91600 256.29800 253.42300 250.33100 247.11400
 243.83700 240.52900 237.24900 233.99900 230.72800 227.51500 224.25400 220.95200
 217.62700 213.65600 210.12100 206.78900 204.01000 201.99491 199.07309 198.76551
 199.40006 200.48994 201.46112 202.31912 203.45100 204.96110 207.47502 210.85391
 213.70530 217.29629 220.99574 224.72316 228.28753 231.64854 234.68024 237.40893
 239.70644 241.60899 243.46854 245.67368 247.68154 249.52395 251.24767 252.78566
 254.12057 255.26479 256.23740 257.09036 257.82852 258.48160 259.07744 259.61723
 260.10271 260.53504 260.91270 261.39400
 399.33000 389.90700 379.81300 368.66800 357.52200 345.30100 333.07400 320.22700
 307.21600 293.84800 280.37600 267.29600 254.61000 242.98700 232.15100 221.97700
 212.67200 204.28600 197.66900 192.82100 189.48600 187.45200 186.81400 187.08900
 187.78100 189.05400 190.64800 192.54200 194.63000 196.75200 198.67100 200.15800
 201.53500 202.48700 202.97500 203.34000 203.53900 203.49700 203.38500 203.24700
 203.00500 202.78600 202.60300 202.43700 202.42600 202.88800 203.42000 203.95100
 204.89500 205.99200 207.30100 208.95800 210.73800 213.10000 215.56400 218.18000
 220.96600 223.91800 226.96100 230.09200 233.29300 236.55700 239.95500 243.53700
 246.84500 249.39000 251.54200 253.47400 255.19500 256.48400 257.43100 258.05900
 258.21200 258.04000 257.58200 256.64300 255.23900 253.50700 251.40800 249.05600
 246.57600 243.99400 241.38900 238.83000 236.34400 233.98600 231.96900 230.11800
 228.42300 226.89900 225.54800 224.29700 223.10500 221.96500 220.95800 220.11300
 219.49000 218.92000 218.32500 217.88100 217.42300 216.96366 216.35568 216.80261
 217.73415 218.28582 218.64258 219.10077 220.44626 222.53987 226.38451 230.35736
 233.59734 237.39164 241.29814 245.22796 248.98002 252.51130 255.78595 258.80109
 261.54781 264.05210 266.34239 268.04198 269.58951 271.01303 272.35754 273.55718
 274.59842 275.49092 276.28989 276.99307 277.60161 278.14001 278.63122 279.07623
 279.47646 279.83287 280.14422 280.54100
 381.81900 372.39900 361.20600 349.77600 337.62200 324.85300 311.81000 298.35300
 284.86000 271.32400 258.56100 246.30400 236.08700 226.79600 218.44800 211.29000
 205.52200 200.89400 197.38100 194.84800 193.01500 192.31500 192.25000 192.43100
 192.91200 193.53700 194.13600 194.71200 195.26200 195.83100 196.39300 196.97600
 197.60400 198.14900 198.58400 199.05700 199.69500 200.37800 201.05400 201.70800
 202.31300 202.85700 203.35500 203.86200 204.56900 205.29700 206.02600 206.98700
 208.19300 209.44100 210.96900 212.57600 214.46200 216.51300 218.63000 220.85300
 223.34100 225.96200 228.73900 231.69700 234.70600 237.70600 240.69200 243.65700
 246.73700 249.69900 252.52100 255.06300 257.29000 259.23300 260.63300 261.68000
 262.46100 262.79800 262.69100 262.22400 261.06900 259.52500 257.70700 255.50700
 253.00100 250.30200 247.39800 244.45200 241.65400 239.05400 236.73300 234.59000
 232.59500 230.72500 228.83400 226.82600 224.66600 222.38700 220.10400 217.71500
 215.45900 213.06600 210.54600 208.09300 205.35400 202.08130 196.05959 200.71215
 209.01611 216.90438 223.84126 229.78593 235.00632 240.20838 245.98943 250.68668
 254.32982 257.93487 261.55666 264.96801 268.15192 271.06452 273.76717 276.25691
 278.57680 280.74479 282.77456 284.60533 286.27232 287.81705 289.31715 290.65561
 291.81734 292.81312 293.70701 294.49387 295.17482 295.77730 296.32696 296.82492
 297.27278 297.67160 298.02000 298.46400
 366.78100 356.33748 345.77196 334.64044 323.04593 311.24241 299.11489 286.92037
 274.63485 262.53433 250.54581 239.84929 229.97378 221.08026 213.26474 206.26922
 200.10570 195.04618 191.63066 189.67514 188.71463 188.78111 189.61859 190.92907
 192.65655 194.75403 197.01951 199.38099 201.82848 204.31096 206.40144 208.24592
 209.87440 211.02188 211.25336 211.48384 211.42333 211.13081 210.76629 210.39877
 210.01825 209.73073 209.54121 209.40770 209.33818 209.67166 210.06014 210.45162
 211.24710 212.42758 213.68006 215.46555 217.39603 219.44151 221.53899 223.62447
 225.68695 227.77343 229.87291 231.98140 234.11288 236.28736 238.54584 240.91832
 243.54180 245.79528 247.79976 249.56725 250.98673 252.11221 252.93669 253.25517
 253.29465 253.07113 252.43361 251.38410 249.99258 248.15606 246.06754 243.90302
 241.69650 239.50298 237.32547 235.16695 233.02943 230.89891 228.92739 227.08687
 225.37235 223.84683 222.47932 221.25380 220.13828 219.10076 218.20724 217.35072
 216.59520 215.77768 214.87817 214.24465 213.69713 212.92624 211.10806 210.38644
 210.65259 212.15013 214.03876 216.09959 219.17680 223.67465 229.50369 234.67000
 238.57539 242.41991 246.28392 250.22395 254.16179 257.89111 260.71054 262.50146
 265.22794 268.05377 270.39102 272.18259 274.07761 276.02054 277.58325 279.13525
 280.83484 282.41791 283.88544 285.24072 286.42282 287.47134 288.42896 289.30072
 290.08838 290.79532 291.41364 292.24588
 366.78100 356.33762 345.77223 334.64085 323.04646 311.24308 299.11570 286.92131
 274.63593 262.53555 250.54716 239.85078 229.97539 221.08201 213.26663 206.27124
 200.10786 195.04847 191.63309 189.67771 188.71732 188.78394 189.62156 190.93217
 192.65979 194.75740 197.02302 199.38464 201.83225 204.31487 206.40549 208.25010
 209.87872 211.02633 211.25795 211.48857 211.42818 211.13580 210.77141 210.40403
 210.02365 209.73626 209.54688 209.41350 209.34411 209.67773 210.06634 210.45796
 211.25358 212.43419 213.68681 215.47242 217.40304 219.44866 221.54627 223.63189
 225.69451 227.78112 229.88074 231.98935 234.12097 236.29559 238.55420 240.92682
 243.55043 245.80405 247.80867 249.57628 250.99590 252.12152 252.94613 253.26475
 253.30436 253.08098 252.44360 251.39421 250.00283 248.16645 246.07806 243.91368
 241.70729 239.51391 237.33653 235.17814 233.04076 230.91037 228.93899 227.09861
 225.38422 223.85884 222.49146 221.26607 220.15069 219.11330 218.21992 217.36354
 216.60815 215.79077 214.89138 214.25800 213.71062 212.96619 211.20973 210.44226
 210.69867 212.23997 214.14229 216.14691 219.11873 223.60350 229.45299 234.60596
 238.49617 242.32654 246.17996 250.12613 254.10126 257.82263 260.62387 262.43085
 265.16309 267.99734 270.33755 272.10373 273.96664 275.90076 277.47525 279.03491
 280.74182 282.32742 283.78787 285.14218 286.32428 287.37335 288.33041 289.20328
 289.98999 290.69769 291.31879 292.14722
 366.78100 356.33772 345.77243 334.64115 323.04686 311.24358 299.11629 286.92201
 274.63672 262.53644 250.54816 239.85187 229.97659 221.08330 213.26802 206.27273
 200.10945 195.05016 191.63488 189.67959 188.71931 188.78603 189.62374 190.93446
 192.66217 194.75989 197.02560 199.38732 201.83503 204.31775 206.40847 208.25318
 209.88190 211.02961 211.26133 211.49204 211.43176 211.13947 210.77519 210.40790
 210.02762 209.74034 209.55105 209.41777 209.34848 209.68220 210.07091 210.46263
 211.25834 212.43906 213.69178 215.47749 217.40821 219.45392 221.55164 223.63735
 225.70007 227.78678 229.88650 231.99521 234.12693 236.30165 238.56036 240.93308
 243.55679 245.81051 247.81522 249.58294 251.00265 252.12837 252.95309 253.27180
 253.31152 253.08823 252.45095 251.40166 250.01038 248.17409 246.08581 243.92152
 241.71524 239.52196 237.34467 235.18639 233.04910 230.91882 228.94753 227.10725
 225.39296 223.86768 222.50040 221.27511 220.15983 219.12254 218.22926 217.37297
 216.61769 215.80040 214.90112 214.26784 213.72055 213.00281 211.30875 210.50066
 210.76051 212.31493 214.23033 216.19957 219.09084 223.53352 229.39745 234.53448
 238.41042 242.22853 246.07458 250.02930 254.04369 257.75513 260.53540 262.35834
 265.09320 267.93564 270.28055 272.02612 273.85995 275.78482 277.37164 278.93881
 280.65277 282.24042 283.69318 285.04840 286.23010 287.27878 288.23816 289.10892
 289.89932 290.60480 291.22736 292.05624
 366.78100 356.33793 345.77287 334.64180 323.04774 311.24467 299.11760 286.92354
 274.63847 262.53840 250.55034 239.85427 229.97921 221.08614 213.27107 206.27601
 200.11294 195.05388 191.63881 189.68374 188.72368 188.79061 189.62854 190.93948
 192.66741 194.76535 197.03128 199.39321 201.84115 204.32408 206.41502 208.25995
 209.88888 211.03682 211.26875 211.49969 211.43962 211.14755 210.78349 210.41642
 210.03635 209.74929 209.56022 209.42716 209.35809 209.69202 210.08096 210.47289
 211.26883 212.44976 213.70269 215.48863 217.41956 219.46549 221.56343 223.64936
 225.71230 227.79923 229.89916 232.00810 234.14003 236.31497 238.57390 240.94683
 243.57077 245.82470 247.82963 249.59757 251.01750 252.14344 252.96837 253.28730
 253.32724 253.10417 252.46711 251.41804 250.02697 248.19091 246.10284 243.93877
 241.73271 239.53964 237.36258 235.20451 233.06744 230.93738 228.96631 227.12625
 225.41218 223.88711 222.52005 221.29498 220.17991 219.14285 218.24978 217.39372
 216.63865 215.82158 214.92252 214.28945 213.74239 213.04393 211.39502 210.57378
 210.83113 212.37607 214.30833 216.25435 219.07904 223.47131 229.34071 234.45987
 238.32210 242.12933 245.96886 249.93315 253.98747 257.68597 260.44034 262.28326
 265.01721 267.86581 270.21866 271.94699 273.75656 275.67386 277.27353 278.84845
 280.56766 282.15637 283.60394 284.95917 286.14011 287.18985 288.14883 289.02173
 289.81158 290.51581 291.14041 291.97034
 366.78100 356.33816 345.77332 334.64249 323.04865 311.24581 299.11897 286.92514
 274.64030 262.54046 250.55262 239.85679 229.98195 221.08911 213.27427 206.27944
 200.11660 195.05776 191.64292 189.68809 188.72825 188.79541 189.63357 190.94474
 192.67290 194.77106 197.03722 199.39939 201.84755 204.33071 206.42187 208.26704
 209.89620 211.04436 211.27652 211.50769 211.44785 211.15601 210.79217 210.42533
 210.04550 209.75866 209.56982 209.43698 209.36815 209.70231 210.09147 210.48363
 211.27980 212.46096 213.71412 215.50028 217.43145 219.47761 221.57577 223.66193
 225.72510 227.81226 229.91242 232.02158 234.15375 236.32891 238.58807 240.96123
 243.58540 245.83956 247.84472 249.61288 251.03305 252.15921 252.98437 253.30353
 253.34370 253.12086 252.48402 251.43518 250.04435 248.20851 246.12067 243.95683
 241.75099 239.55816 237.38132 235.22348 233.08664 230.95681 228.98597 227.14613
 225.43229 223.90746 222.54062 221.31578 220.20094 219.16411 218.27127 217.41543
 216.66059 215.84376 214.94492 214.31208 213.76524 213.08417 211.47601 210.65692
 210.90707 212.43243 214.38106 216.31059 219.06645 223.41792 229.28464 234.38467
 238.23177 242.02879 245.86305 249.83875 253.93318 257.61594 260.34158 262.20435
 264.93463 267.78775 270.14816 271.86563 273.65771 275.57056 277.18411 278.76651
 280.48779 282.07907 283.52072 284.87506 286.05719 287.10553 288.06601 288.93839
 289.72665 290.43613 291.05969 291.89008
 366.78100 356.33832 345.77364 334.64296 323.04929 311.24661 299.11993 286.92625
 274.64157 262.54189 250.55422 239.85854 229.98386 221.09118 213.27650 206.28182
 200.11915 195.06047 191.64579 189.69111 188.73143 188.79875 189.63707 190.94840
 192.67672 194.77504 197.04136 199.40368 201.85200 204.33533 206.42665 208.27197
 209.90129 211.04961 211.28193 211.51326 211.45358 211.16190 210.79822 210.43154
 210.05186 209.76518 209.57651 209.44383 209.37515 209.70947 210.09879 210.49111
 211.28744 212.46876 213.72208 215.50840 217.43972 219.48604 221.58437 223.67069
 225.73401 227.82133 229.92165 232.03097 234.16330 236.33862 238.59794 240.97126
 243.59558 245.84990 247.85522 249.62355 251.04387 252.17019 252.99551 253.31483
 253.35515 253.13248 252.49580 251.44712 250.05644 248.22076 246.13308 243.96941
 241.76373 239.57105 237.39437 235.23669 233.10001 230.97033 228.99966 227.15998
 225.44630 223.92162 222.55494 221.33026 220.21559 219.17891 218.28623 217.43055
 216.67587 215.85919 214.96052 214.32784 213.78116 213.11955 211.55716 210.74725
 210.98332 212.48758 214.45306 216.36894 219.04993 223.36694 229.22807 234.30916
 238.13937 241.92575 245.75758 249.74825 253.88249 257.54202 260.23965 262.12396
 264.84601 267.69949 270.06885 271.78055 273.56323 275.47449 277.10291 278.69263
 280.41321 282.00702 283.44354 284.79755 285.98093 287.02896 287.98987 288.86066
 289.65097 290.35901 290.98395 291.81589
 366.78100 356.33836 345.77371 334.64307 323.04943 311.24678 299.12014 286.92650
 274.64185 262.54221 250.55457 239.85892 229.98428 221.09164 213.27699 206.28235
 200.11971 195.06106 191.64642 189.69178 188.73213 188.79949 189.63785 190.94920
 192.67756 194.77592 197.04227 199.40463 201.85299 204.33634 206.42770 208.27306
 209.90241 211.05077 211.28313 211.51448 211.45484 211.16320 210.79955 210.43291
 210.05327 209.76662 209.57798 209.44534 209.37669 209.71105 210.10041 210.49276
 211.28912 212.47048 213.72383 215.51019 217.44155 219.48790 221.58626 223.67262
 225.73597 227.82333 229.92369 232.03304 234.16540 236.34076 238.60011 240.97347
 243.59783 245.85218 247.85754 249.62590 251.04625 252.17261 252.99797 253.31732
 253.35768 253.13504 252.49839 251.44975 250.05911 248.22346 246.13582 243.97218
 241.76653 239.57389 237.39725 235.23960 233.10296 230.97332 229.00267 227.16303
 225.44939 223.92474 222.55810 221.33346 220.21881 219.18217 218.28953 217.43388
 216.67924 215.86260 214.96395 214.33131 213.78467 213.14764 211.64310 210.84134
 211.06149 212.53918 214.52625 216.43344 219.03130 223.31479 229.17120 234.23039
 238.04274 241.81860 245.65291 249.66330 253.83716 257.47073 260.13977 262.04587
 264.75235 267.60065 269.97757 271.68866 273.46967 275.38501 277.02951 278.62512
 280.34500 281.93927 283.37265 284.72778 285.91052 286.95938 287.91855 288.79202
 289.58145 290.29147 290.91458 291.74829
 366.78100 356.33824 345.77347 334.64271 323.04895 311.24619 299.11942 286.92566
 274.64090 262.54113 250.55337 239.85761 229.98285 221.09008 213.27532 206.28056
 200.11780 195.05903 191.64427 189.68951 188.72974 188.79698 189.63522 190.94646
 192.67469 194.77293 197.03917 199.40140 201.84964 204.33288 206.42412 208.26935
 209.89859 211.04683 211.27906 211.51030 211.45054 211.15878 210.79501 210.42825
 210.04849 209.76173 209.57296 209.44020 209.37144 209.70567 210.09491 210.48715
 211.28339 212.46462 213.71786 215.50410 217.43533 219.48157 221.57981 223.66605
 225.72928 227.81652 229.91676 232.02599 234.15823 236.33347 238.59271 240.96594
 243.59018 245.84442 247.84966 249.61789 251.03813 252.16437 252.98960 253.30884
 253.34908 253.12632 252.48955 251.44079 250.05003 248.21426 246.12650 243.96274
 241.75698 239.56421 237.38745 235.22969 233.09293 230.96316 228.99240 227.15264
 225.43887 223.91411 222.54735 221.32259 220.20782 219.17106 218.27830 217.42253
 216.66777 215.85101 214.95225 214.31948 213.77272 213.16684 211.73566 210.93784
 211.14078 212.58716 214.59657 216.50044 219.01965 223.26102 229.11021 234.14607
 237.94220 241.71034 245.55220 249.58536 253.79701 257.40298 260.04373 261.97214
 264.65466 267.48981 269.87268 271.58682 273.37506 275.30084 276.96042 278.56125
 280.28088 281.87619 283.30807 284.66202 285.84622 286.89392 287.85461 288.72760
 289.51920 290.22601 290.85104 291.69022
 366.78100 356.33803 345.77306 334.64210 323.04813 311.24516 299.11819 286.92422
 274.63926 262.53929 250.55132 239.85535 229.98038 221.08742 213.27245 206.27748
 200.11451 195.05554 191.64058 189.68561 188.72564 188.79267 189.63070 190.94174
 192.66977 194.76780 197.03383 199.39586 201.84390 204.32693 206.41796 208.26299
 209.89202 211.04006 211.27209 211.50312 211.44315 211.15118 210.78721 210.42025
 210.04028 209.75331 209.56434 209.43137 209.36241 209.69644 210.08547 210.47750
 211.27353 212.45457 213.70760 215.49363 217.42466 219.47069 221.56873 223.65476
 225.71779 227.80482 229.90485 232.01389 234.14592 236.32095 238.57998 240.95301
 243.57705 245.83108 247.83611 249.60414 251.02417 252.15021 252.97524 253.29427
 253.33430 253.11133 252.47437 251.42540 250.03443 248.19846 246.11049 243.94653
 241.74056 239.54759 237.37062 235.21265 233.07569 230.94572 228.97475 227.13478
 225.42081 223.89585 222.52888 221.30391 220.18894 219.15197 218.25901 217.40304
 216.64807 215.83110 214.93213 214.29917 213.75220 213.18036 211.82947 211.04739
 211.21631 212.62323 214.67036 216.57352 219.01468 223.20869 229.04846 234.05431
 237.83397 241.59802 245.45311 249.51358 253.76201 257.33817 259.95154 261.90567
 264.55554 267.36978 269.75604 271.47681 273.27893 275.22034 276.89505 278.50122
 280.21887 281.81644 283.24945 284.60452 285.78690 286.83734 287.79654 288.66968
 289.45966 290.16837 290.79385 291.63116
 366.78100 356.33741 345.77182 334.64024 323.04565 311.24206 299.11447 286.91988
 274.63429 262.53371 250.54512 239.84853 229.97294 221.07935 213.26376 206.26818
 200.10459 195.04500 191.62941 189.67382 188.71323 188.77965 189.61706 190.92747
 192.65488 194.75229 197.01770 199.37912 201.82653 204.30894 206.39935 208.24376
 209.87217 211.01959 211.25100 211.48141 211.42082 211.12823 210.76364 210.39606
 210.01547 209.72788 209.53829 209.40470 209.33511 209.66853 210.05694 210.44835
 211.24376 212.42417 213.67659 215.46200 217.39241 219.43782 221.53523 223.62064
 225.68306 227.76947 229.86888 231.97729 234.10870 236.28311 238.54153 240.91394
 243.53735 245.79076 247.79517 249.56258 250.98200 252.10741 252.93182 253.25023
 253.28964 253.06605 252.42847 251.37888 249.98729 248.15070 246.06211 243.89752
 241.69094 239.49735 237.31976 235.16117 233.02358 230.89299 228.92141 227.08082
 225.36623 223.84064 222.47305 221.24746 220.13188 219.09429 218.20070 217.34411
 216.58852 215.77094 214.87135 214.23776 213.69017 213.17151 211.94614 211.14395
 211.30200 212.66772 214.73656 216.63937 219.01569 223.16125 228.97607 233.94969
 237.71768 241.48143 245.35553 249.44783 253.73016 257.27411 259.86002 261.84341
 264.45667 267.24356 269.63217 271.36548 273.18671 275.14886 276.83887 278.44775
 280.16141 281.75980 283.19614 284.55026 285.73422 286.78293 287.74164 288.61700
 289.40497 290.11624 290.74283 291.58386
 366.78100 356.33735 345.77171 334.64006 323.04541 311.24177 299.11412 286.91947
 274.63383 262.53318 250.54454 239.84789 229.97224 221.07860 213.26295 206.26730
 200.10366 195.04401 191.62836 189.67272 188.71207 188.77842 189.61578 190.92613
 192.65349 194.75084 197.01619 199.37755 201.82490 204.30725 206.39761 208.24196
 209.87031 211.01767 211.24902 211.47937 211.41873 211.12608 210.76144 210.39379
 210.01314 209.72550 209.53585 209.40220 209.33256 209.66591 210.05426 210.44562
 211.24097 212.42132 213.67368 215.45903 217.38939 219.43474 221.53209 223.61745
 225.67980 227.76615 229.86551 231.97386 234.10521 236.27957 238.53792 240.91027
 243.53363 245.78698 247.79134 249.55869 250.97804 252.10340 252.92775 253.24610
 253.28546 253.06181 252.42416 251.37452 249.98287 248.14622 246.05758 243.89293
 241.68629 239.49264 237.31499 235.15635 233.01870 230.88805 228.91641 227.07576
 225.36111 223.83547 222.46782 221.24217 220.12653 219.08888 218.19524 217.33859
 216.58294 215.76530 214.86565 214.23200 213.68436 213.18919 212.01932 211.28334
 211.39201 212.70724 214.80872 216.69698 219.00574 223.10391 228.90457 233.84114
 237.59387 241.35765 245.25552 249.38593 253.69914 257.20859 259.76828 261.78720
 264.36069 267.11481 269.50745 271.25928 273.10367 275.08829 276.79401 278.40149
 280.10922 281.70712 283.14630 284.50046 285.68491 286.73410 287.69473 288.56552
 289.35779 290.06799 290.69312 291.53552
 366.78100 356.33702 345.77104 334.63906 323.04408 311.24010 299.11212 286.91714
 274.63116 262.53017 250.54119 239.84421 229.96823 221.07425 213.25827 206.26229
 200.09831 195.03833 191.62235 189.66637 188.70539 188.77141 189.60843 190.91845
 192.64547 194.74248 197.00750 199.36852 201.81554 204.29756 206.38758 208.23160
 209.85962 211.00664 211.23766 211.46768 211.40670 211.11372 210.74874 210.38076
 209.99978 209.71180 209.52181 209.38783 209.31785 209.65087 210.03889 210.42991
 211.22493 212.40495 213.65697 215.44199 217.37201 219.41703 221.51405 223.59907
 225.66109 227.74711 229.84613 231.95414 234.08516 236.25918 238.51720 240.88922
 243.51224 245.76526 247.76928 249.53630 250.95532 252.08034 252.90436 253.22238
 253.26140 253.03742 252.39944 251.34945 249.95747 248.12049 246.03151 243.86653
 241.65955 239.46557 237.28759 235.12861 232.99063 230.85965 228.88767 227.04669
 225.33171 223.80573 222.43775 221.21177 220.09578 219.05780 218.16382 217.30684
 216.55086 215.73288 214.83290 214.19892 213.65094 213.19312 212.11143 211.38824
 211.52580 212.76114 214.85828 216.73410 218.99593 223.06334 228.82088 233.71516
 237.45840 241.22635 245.15704 249.33107 253.67348 257.15091 259.68945 261.74588
 264.27222 266.98566 269.37997 271.15216 273.02133 275.03052 276.74875 278.35291
 280.05542 281.65259 283.10049 284.45572 285.63989 286.68805 287.64828 288.52158
 289.31186 290.02359 290.65125 291.49249
 366.78100 356.33628 345.76956 334.63684 323.04112 311.23640 299.10768 286.91197
 274.62525 262.52353 250.53381 239.83609 229.95937 221.06465 213.24793 206.25121
 200.08649 195.02577 191.60905 189.65233 188.69061 188.75590 189.59218 190.90146
 192.62774 194.72402 196.98830 199.34858 201.79486 204.27614 206.36542 208.20870
 209.83598 210.98226 211.21254 211.44183 211.38011 211.08639 210.72067 210.35195
 209.97023 209.68151 209.49079 209.35607 209.28535 209.61763 210.00491 210.39519
 211.18947 212.36876 213.62004 215.40432 217.33360 219.37788 221.47416 223.55844
 225.61972 227.70500 229.80328 231.91056 234.04084 236.21412 238.47140 240.84269
 243.46497 245.71725 247.72053 249.48681 250.90509 252.02937 252.85265 253.16993
 253.20821 252.98349 252.34477 251.29405 249.90133 248.06362 245.97390 243.80818
 241.60046 239.40574 237.22702 235.06730 232.92858 230.79686 228.82414 226.98242
 225.26670 223.73998 222.37126 221.14455 220.02783 218.98911 218.09439 217.23667
 216.47995 215.66123 214.76051 214.12579 213.57707 213.17456 212.22359 211.46353
 211.65532 212.89932 214.90331 216.74905 218.98996 222.96774 228.73244 233.59074
 237.32176 241.10013 245.06868 249.28606 253.65417 257.10284 259.62213 261.71375
 264.18658 266.85223 269.24451 271.03696 272.93344 274.96823 276.69623 278.29901
 280.00058 281.59525 283.05670 284.41336 285.59708 286.64600 287.60605 288.47928
 289.27026 289.98230 290.60916 291.45352
 366.78100 356.33538 345.76775 334.63413 323.03750 311.23188 299.10225 286.90563
 274.61800 262.51538 250.52475 239.82613 229.94850 221.05288 213.23525 206.23763
 200.07200 195.01038 191.59275 189.63513 188.67250 188.73688 189.57225 190.88063
 192.60600 194.70138 196.96475 199.32413 201.76950 204.24988 206.33825 208.18063
 209.80700 210.95238 211.18175 211.41013 211.34750 211.05288 210.68625 210.31663
 209.93400 209.64438 209.45275 209.31713 209.24550 209.57688 209.96326 210.35263
 211.14601 212.32438 213.57476 215.35813 217.28651 219.32988 221.42526 223.50863
 225.56901 227.65338 229.75076 231.85713 233.98651 236.15888 238.41526 240.78563
 243.40701 245.65838 247.66076 249.42613 250.84351 251.96688 252.78926 253.10563
 253.14301 252.91738 252.27776 251.22613 249.83251 247.99388 245.90326 243.73663
 241.52801 239.33238 237.15276 234.99213 232.85251 230.71988 228.74626 226.90363
 225.18701 223.65938 222.28976 221.06214 219.94451 218.90489 218.00926 217.15064
 216.39301 215.57339 214.67176 214.03614 213.48651 213.14746 212.34641 211.57867
 211.69571 213.02588 214.99136 216.77199 218.97144 222.86865 228.65327 233.48001
 237.19623 240.98636 244.99213 249.24811 253.63640 257.05371 259.55276 261.67905
 264.10001 266.71567 269.10596 270.92035 272.84641 274.90759 276.64349 278.24561
 279.94699 281.53769 283.01630 284.37280 285.55701 286.60565 287.56412 288.43759
 289.22998 289.94342 290.57043 291.41592
 366.78100 356.33482 345.76665 334.63247 323.03529 311.22912 299.09894 286.90176
 274.61359 262.51041 250.51923 239.82006 229.94188 221.04570 213.22752 206.22935
 200.06317 195.00099 191.58282 189.62464 188.66146 188.72529 189.56011 190.86793
 192.59276 194.68758 196.95040 199.30923 201.75405 204.23387 206.32170 208.16352
 209.78934 210.93417 211.16299 211.39081 211.32764 211.03246 210.66528 210.29510
 209.91193 209.62175 209.42957 209.29340 209.22122 209.55204 209.93787 210.32669
 211.11951 212.29734 213.54716 215.32998 217.25781 219.30063 221.39545 223.47828
 225.53810 227.62192 229.71875 231.82457 233.95339 236.12522 238.38104 240.75086
 243.37168 245.62251 247.62433 249.38915 250.80598 251.92880 252.75062 253.06645
 253.10327 252.87709 252.23692 251.18474 249.79056 247.95139 245.86021 243.69303
 241.48386 239.28768 237.10750 234.94633 232.80615 230.67297 228.69880 226.85562
 225.13844 223.61026 222.24009 221.01191 219.89373 218.85356 217.95738 217.09820
 216.34003 215.51985 214.61767 213.98150 213.43132 213.13676 212.44084 211.73016
 211.72844 213.12361 215.07809 216.80608 218.95891 222.78241 228.57713 233.37199
 237.07211 240.87560 244.92014 249.21233 253.61372 256.99628 259.47629 261.63895
 264.01385 266.58051 268.96906 270.81076 272.76682 274.85309 276.59625 278.19269
 279.89374 281.46774 282.97995 284.33911 285.52142 286.57065 287.52963 288.40298
 289.19504 289.90570 290.53720 291.37875
 366.78100 356.33426 345.76553 334.63079 323.03306 311.22632 299.09558 286.89785
 274.60911 262.50538 250.51364 239.81391 229.93517 221.03843 213.21970 206.22096
 200.05423 194.99149 191.57275 189.61402 188.65028 188.71355 189.54781 190.85507
 192.57934 194.67360 196.93587 199.29413 201.73840 204.21766 206.30492 208.14619
 209.77145 210.91572 211.14398 211.37124 211.30751 211.01177 210.64404 210.27330
 209.88956 209.59883 209.40609 209.26936 209.19662 209.52689 209.91215 210.30041
 211.09268 212.26994 213.51921 215.30147 217.22873 219.27100 221.36526 223.44753
 225.50679 227.59005 229.68632 231.79158 233.91985 236.09111 238.34638 240.71564
 243.33590 245.58617 247.58743 249.35170 250.76796 251.89022 252.71149 253.02675
 253.06302 252.83628 252.19554 251.14281 249.74807 247.90834 245.81660 243.64887
 241.43913 239.24239 237.06166 234.89992 232.75919 230.62545 228.65071 226.80698
 225.08924 223.56051 222.18977 220.96103 219.84230 218.80156 217.90483 217.04509
 216.28636 215.46562 214.56288 213.92615 213.37541 213.12506 212.53362 211.87378
 211.78767 213.21072 215.15244 216.83528 218.94737 222.70694 228.50182 233.25975
 236.94536 240.76634 244.85159 249.17848 253.58585 256.93185 259.39484 261.59622
 263.92975 266.44974 268.83795 270.70877 272.69360 274.80322 276.55176 278.14084
 279.83868 281.40839 282.94061 284.30219 285.48651 286.53589 287.49643 288.36819
 289.16153 289.87354 290.50253 291.35071
 366.78100 356.33351 345.76402 334.62853 323.03004 311.22255 299.09106 286.89257
 274.60308 262.49859 250.50610 239.80561 229.92612 221.02863 213.20914 206.20965
 200.04216 194.97867 191.55918 189.59969 188.63520 188.69771 189.53122 190.83773
 192.56124 194.65475 196.91626 199.27377 201.71728 204.19579 206.28230 208.12281
 209.74732 210.89083 211.11834 211.34485 211.28036 210.98387 210.61538 210.24389
 209.85940 209.56791 209.37442 209.23693 209.16344 209.49295 209.87746 210.26497
 211.05648 212.23299 213.48150 215.26301 217.18952 219.23103 221.32454 223.40605
 225.46456 227.54707 229.64258 231.74709 233.87460 236.04511 238.29962 240.66813
 243.28764 245.53715 247.53766 249.30117 250.71668 251.83819 252.65870 252.97321
 253.00872 252.78123 252.13974 251.08625 249.69076 247.85027 245.75778 243.58929
 241.37880 239.18131 236.99982 234.83733 232.69584 230.56135 228.58586 226.74137
 225.02288 223.49339 222.12190 220.89241 219.77292 218.73143 217.83394 216.97345
 216.21396 215.39247 214.48898 213.85149 213.30000 213.10336 212.63879 212.00124
 211.86676 213.29724 215.21779 216.85579 218.93507 222.63818 228.42746 233.14366
 236.81883 240.66188 244.78925 249.14742 253.55336 256.86362 259.31061 261.54910
 263.84717 266.32324 268.71231 270.61469 272.62662 274.75653 276.50836 278.09012
 279.78464 281.36301 282.89948 284.26385 285.44806 286.49957 287.45792 288.33389
 289.12671 289.83850 290.46729 291.31839
 366.78100 356.33272 345.76244 334.62617 323.02689 311.21861 299.08633 286.88705
 274.59678 262.49150 250.49822 239.79694 229.91666 221.01839 213.19811 206.19783
 200.02955 194.96528 191.54500 189.58472 188.61944 188.68116 189.51389 190.81961
 192.54233 194.63505 196.89577 199.25250 201.69522 204.17294 206.25866 208.09838
 209.72211 210.86483 211.09155 211.31727 211.25199 210.95472 210.58544 210.21316
 209.82788 209.53560 209.34133 209.20305 209.12877 209.45749 209.84122 210.22794
 211.01866 212.19438 213.44210 215.22283 217.14855 219.18927 221.28199 223.36271
 225.42044 227.50216 229.59688 231.70060 233.82732 235.99705 238.25077 240.61849
 243.23721 245.48593 247.48566 249.24838 250.66310 251.78382 252.60354 252.91727
 252.95199 252.72371 252.08143 251.02715 249.63088 247.78960 245.69632 243.52704
 241.31577 239.11749 236.93521 234.77193 232.62965 230.49438 228.51810 226.67282
 224.95354 223.42326 222.05099 220.82071 219.70043 218.65815 217.75987 216.89860
 216.13832 215.31604 214.41176 213.77348 213.22121 213.07974 212.74553 212.12617
 211.95709 213.37941 215.27139 216.87355 218.92422 222.57553 228.35181 233.02811
 236.69759 240.56630 244.73450 249.11858 253.51463 256.78891 259.22073 261.49402
 263.76495 266.20306 268.59387 270.52933 272.56638 274.71210 276.46500 278.04001
 279.73077 281.31967 282.85861 284.22400 285.40921 286.45956 287.42001 288.29379
 289.08771 289.80197 290.42773 291.28339
 366.78100 356.33205 345.76111 334.62416 323.02421 311.21526 299.08232 286.88237
 274.59142 262.48547 250.49153 239.78958 229.90863 221.00968 213.18874 206.18779
 200.01884 194.95389 191.53295 189.57200 188.60605 188.66710 189.49916 190.80421
 192.52626 194.61831 196.87837 199.23442 201.67647 204.15352 206.23858 208.07763
 209.70068 210.84273 211.06879 211.29384 211.22789 210.92994 210.56000 210.18705
 209.80110 209.50815 209.31321 209.17426 209.09931 209.42736 209.81042 210.19647
 210.98652 212.16157 213.40863 215.18868 217.11373 219.15378 221.24584 223.32589
 225.38294 227.46399 229.55805 231.66110 233.78715 235.95620 238.20926 240.57631
 243.19436 245.44241 247.44147 249.20352 250.61757 251.73762 252.55668 252.86973
 252.90378 252.67483 252.03189 250.97694 249.57999 247.73804 245.64410 243.47415
 241.26220 239.06325 236.88031 234.71636 232.57341 230.43746 228.46052 226.61457
 224.89462 223.36367 221.99073 220.75978 219.63883 218.59588 217.69694 216.83499
 216.07404 215.25109 214.34615 213.70720 213.15425 213.06183 212.84346 212.25909
 212.05731 213.45203 215.30832 216.89055 218.91777 222.52138 228.27582 232.91751
 236.58589 240.48119 244.68733 249.09077 253.46768 256.70444 259.12180 261.42865
 263.68173 266.09009 268.48560 270.45605 272.51495 274.67105 276.42191 277.99063
 279.67627 281.27737 282.81866 284.18369 285.36871 286.41980 287.38086 288.25592
 289.04922 289.76184 290.39078 291.24594
 366.78100 356.33147 345.75994 334.62242 323.02189 311.21236 299.07883 286.87830
 274.58678 262.48025 250.48572 239.78319 229.90166 221.00214 213.18061 206.17908
 200.00955 194.94403 191.52250 189.56097 188.59444 188.65491 189.48639 190.79086
 192.51233 194.60380 196.86327 199.21875 201.66022 204.13669 206.22116 208.05963
 209.68211 210.82358 211.04905 211.27352 211.20699 210.90847 210.53794 210.16441
 209.77788 209.48435 209.28883 209.14930 209.07377 209.40124 209.78372 210.16919
 210.95866 212.13313 213.37960 215.15908 217.08355 219.12302 221.21449 223.29396
 225.35044 227.43091 229.52438 231.62685 233.75232 235.92080 238.17327 240.53974
 243.15721 245.40468 247.40316 249.16463 250.57810 251.69757 252.51604 252.82852
 252.86199 252.63246 251.98893 250.93340 249.53588 247.69335 245.59882 243.42829
 241.21577 239.01624 236.83271 234.66818 232.52465 230.38813 228.41060 226.56407
 224.84354 223.31201 221.93849 220.70696 219.58543 218.54190 217.64237 216.77985
 216.01832 215.19479 214.28926 213.64973 213.09621 213.04817 212.93466 212.40150
 212.16273 213.51390 215.33276 216.90269 218.91072 222.47356 228.20340 232.81593
 236.48642 240.40874 244.64864 249.06349 253.41077 256.60904 259.01361 261.35071
 263.59607 265.98422 268.38657 270.39240 272.47067 274.63190 276.37875 277.94171
 279.62234 281.23438 282.77585 284.14328 285.32849 286.37939 287.34149 288.21564
 289.00940 289.72144 290.35214 291.20764
 366.78100 356.33092 345.75884 334.62077 323.01969 311.20961 299.07553 286.87445
 274.58237 262.47530 250.48022 239.77714 229.89506 220.99498 213.17291 206.17083
 200.00075 194.93467 191.51259 189.55051 188.58344 188.64336 189.47428 190.77820
 192.49912 194.59005 196.84897 199.20389 201.64481 204.12073 206.20466 208.04258
 209.66450 210.80542 211.03034 211.25426 211.18719 210.88811 210.51703 210.14295
 209.75587 209.46180 209.26572 209.12564 209.04956 209.37648 209.75840 210.14333
 210.93225 212.10617 213.35209 215.13101 217.05494 219.09386 221.18478 223.26370
 225.31962 227.39954 229.49247 231.59439 233.71931 235.88723 238.13915 240.50508
 243.12200 245.36892 247.36684 249.12776 250.54068 251.65961 252.47753 252.78945
 252.82237 252.59229 251.94822 250.89214 249.49406 247.65098 245.55590 243.38482
 241.17175 238.97167 236.78759 234.62251 232.47843 230.34136 228.36328 226.51620
 224.79512 223.26304 221.88897 220.65689 219.53481 218.49073 217.59065 216.72757
 215.96550 215.14142 214.23534 213.59526 213.04118 213.03578 213.02299 212.55249
 212.26924 213.56454 215.34344 216.90480 218.90649 222.43312 228.13753 232.72388
 236.39961 240.34944 244.61940 249.03838 253.34467 256.50424 258.89694 261.25848
 263.50412 265.88071 268.29379 270.33682 272.43365 274.59561 276.33832 277.89523
 279.57013 281.19324 282.73706 284.10248 285.28830 286.34012 287.30173 288.17709
 288.97095 289.68427 290.31430 291.17032
 366.78100 356.33028 345.75757 334.61885 323.01714 311.20642 299.07171 286.86999
 274.57727 262.46956 250.47384 239.77013 229.88741 220.98670 213.16398 206.16126
 199.99055 194.92383 191.50112 189.53840 188.57069 188.62997 189.46026 190.76354
 192.48382 194.57411 196.83239 199.18668 201.62696 204.10225 206.18553 208.02281
 209.64410 210.78438 211.00867 211.23195 211.16424 210.86452 210.49280 210.11809
 209.73037 209.43566 209.23894 209.09823 209.02151 209.34779 209.72908 210.11336
 210.90165 212.07493 213.32022 215.09850 217.02178 219.06007 221.15035 223.22864
 225.28392 227.36321 229.45549 231.55678 233.68106 235.84834 238.09963 240.46491
 243.08120 245.32748 247.32477 249.08505 250.49733 251.61562 252.43290 252.74419
 252.77647 252.54576 251.90104 250.84432 249.44561 247.60189 245.50618 243.33446
 241.12075 238.92003 236.73531 234.56960 232.42488 230.28717 228.30845 226.46074
 224.73902 223.20630 221.83159 220.59887 219.47616 218.43144 217.53073 216.66701
 215.90429 215.07958 214.17286 213.53215 212.97743 213.01924 213.11803 212.69958
 212.38351 213.60757 215.33211 216.90553 218.91495 222.39819 228.07413 232.64006
 236.32649 240.30402 244.60062 249.01642 253.27220 256.39285 258.77335 261.15012
 263.40146 265.77704 268.20462 270.28586 272.40369 274.56430 276.30124 277.85352
 279.52322 281.15427 282.69827 284.06525 285.25031 286.30328 287.26443 288.13977
 288.93396 289.64734 290.27576 291.13535
 366.78100 356.32979 345.75659 334.61738 323.01518 311.20397 299.06876 286.86656
 274.57335 262.46515 250.46894 239.76473 229.88153 220.98032 213.15712 206.15391
 199.98270 194.91550 191.49229 189.52909 188.56088 188.61968 189.44947 190.75226
 192.47206 194.56185 196.81965 199.17344 201.61323 204.08803 206.17082 208.00762
 209.62841 210.76820 210.99200 211.21479 211.14659 210.84638 210.47417 210.09897
 209.71076 209.41556 209.21835 209.07714 208.99994 209.32573 209.70653 210.09032
 210.87811 212.05091 213.29570 215.07350 216.99629 219.03409 221.12388 223.20167
 225.25647 227.33526 229.42706 231.52785 233.65164 235.81844 238.06923 240.43403
 243.04982 245.29561 247.29241 249.05220 250.46400 251.58179 252.39858 252.70938
 252.74117 252.50997 251.86476 250.80755 249.40835 247.56414 245.46794 243.29573
 241.08152 238.88032 236.69511 234.52891 232.38370 230.24549 228.26629 226.41808
 224.69588 223.16267 221.78747 220.55426 219.43105 218.38585 217.48464 216.62044
 215.85723 215.03202 214.12482 213.48361 212.92841 213.01054 213.20459 212.86134
 212.48531 213.63422 215.32249 216.90314 218.92000 222.37482 228.02292 232.57043
 236.26704 240.27275 244.59225 248.99884 253.19321 256.27368 258.64081 261.02338
 263.28525 265.66907 268.11520 270.23767 272.37668 274.53452 276.26193 277.81076
 279.47906 281.11783 282.66354 284.03070 285.21613 286.26636 287.23041 288.10519
 288.89865 289.61346 290.24326 291.10065
 366.78100 356.32882 345.75463 334.61445 323.01127 311.19909 299.06290 286.85972
 274.56554 262.45635 250.45917 239.75399 229.86981 220.96762 213.14344 206.13926
 199.96708 194.89889 191.47471 189.51053 188.54134 188.59916 189.42798 190.72980
 192.44861 194.53743 196.79425 199.14706 201.58588 204.05970 206.14152 207.97733
 209.59715 210.73597 210.95878 211.18060 211.11142 210.81024 210.43705 210.06087
 209.67169 209.37550 209.17732 209.03514 208.95696 209.28177 209.66159 210.04441
 210.83123 212.00304 213.24686 215.02368 216.94549 218.98231 221.07113 223.14795
 225.20176 227.27958 229.37040 231.47021 233.59303 235.75885 238.00867 240.37248
 242.98730 245.23212 247.22793 248.98675 250.39757 251.51439 252.33020 252.64002
 252.67084 252.43865 251.79247 250.73429 249.33411 247.48892 245.39174 243.21856
 241.00338 238.80119 236.61501 234.44783 232.30164 230.16246 228.18228 226.33310
 224.60991 223.07573 221.69955 220.46536 219.34118 218.29500 217.39282 216.52763
 215.76345 214.93727 214.02908 213.38690 212.83072 212.97841 213.32736 212.98692
 212.59589 213.66788 215.28845 216.90868 218.95636 222.35423 227.96608 232.50340
 236.21619 240.25203 244.59334 248.98579 253.10905 256.14957 258.50079 260.87976
 263.15601 265.55667 268.02609 270.19156 272.35367 274.50342 276.22018 277.76532
 279.43582 281.08475 282.63052 283.99771 285.18292 286.23468 287.19739 288.07330
 288.86774 289.58160 290.21185 291.06512
 366.78100 356.32844 345.75388 334.61332 323.00976 311.19720 299.06064 286.85708
 274.56252 262.45296 250.45540 239.74984 229.86528 220.96272 213.13816 206.13360
 199.96104 194.89248 191.46792 189.50336 188.53380 188.59124 189.41968 190.72112
 192.43956 194.52800 196.78444 199.13688 201.57532 204.04876 206.13020 207.96564
 209.58507 210.72351 210.94595 211.16739 211.09783 210.79627 210.42271 210.04615
 209.65659 209.36003 209.16147 209.01891 208.94035 209.26479 209.64423 210.02667
 210.81311 211.98455 213.22799 215.00443 216.92587 218.96231 221.05075 223.12719
 225.18063 227.25807 229.34851 231.44795 233.57039 235.73583 237.98527 240.34871
 242.96315 245.20759 247.20303 248.96147 250.37191 251.48835 252.30379 252.61323
 252.64367 252.41111 251.76455 250.70599 249.30543 247.45987 245.36231 243.18875
 240.97319 238.77063 236.58407 234.41651 232.26995 230.13039 228.14983 226.30027
 224.57671 223.04215 221.66559 220.43103 219.30647 218.25991 217.35734 216.49178
 215.72722 214.90066 213.99210 213.34954 212.79298 212.97763 213.41391 213.13466
 212.70700 213.69856 215.26245 216.90106 218.95284 222.33727 227.93149 232.45744
 236.17960 240.24422 244.60306 248.97522 253.01695 256.01178 258.34427 260.71509
 263.01224 265.44006 267.93918 270.15161 272.33813 274.47861 276.18442 277.72452
 279.39587 281.05502 282.60114 283.96698 285.15359 286.20471 287.16711 288.04346
 288.83868 289.55069 290.18121 291.03989
 366.78100 356.32876 345.75451 334.61427 323.01102 311.19878 299.06253 286.85929
 274.56504 262.45580 250.45856 239.75331 229.86907 220.96682 213.14258 206.13833
 199.96609 194.89784 191.47360 189.50936 188.54011 188.59787 189.42662 190.72838
 192.44713 194.53589 196.79264 199.14540 201.58416 204.05791 206.13967 207.97542
 209.59518 210.73393 210.95669 211.17844 211.10920 210.80796 210.43471 210.05847
 209.66922 209.37298 209.17473 209.03249 208.95424 209.27900 209.65876 210.04151
 210.82827 212.00002 213.24378 215.02053 216.94229 218.97904 221.06780 223.14455
 225.19831 227.27607 229.36682 231.46658 233.58933 235.75509 238.00484 240.36860
 242.98335 245.22811 247.22387 248.98262 250.39338 251.51013 252.32589 252.63564
 252.66640 252.43415 251.78791 250.72967 249.32942 247.48418 245.38693 243.21369
 240.99844 238.79620 236.60995 234.44271 232.29647 230.15722 228.17698 226.32773
 224.60449 223.07024 221.69400 220.45975 219.33551 218.28927 217.38702 216.52178
 215.75753 214.93129 214.02304 213.38080 212.82455 213.01210 213.45522 213.33356
 212.79967 213.67494 215.23215 216.93178 219.01433 222.34160 227.88016 232.39697
 236.13895 240.23608 244.61252 248.95923 252.90956 255.85379 258.16925 260.53296
 262.86047 265.32608 267.86020 270.12405 272.33554 274.46518 276.16177 277.69427
 279.36322 281.02682 282.57401 283.94043 285.12613 286.17734 287.14069 288.01651
 288.81274 289.52505 290.15695 291.00977
 366.78100 356.32869 345.75439 334.61408 323.01078 311.19847 299.06217 286.85886
 274.56456 262.45525 250.45795 239.75264 229.86833 220.96603 213.14172 206.13742
 199.96511 194.89681 191.47250 189.50820 188.53889 188.59658 189.42528 190.72697
 192.44567 194.53436 196.79106 199.14375 201.58245 204.05614 206.13784 207.97353
 209.59322 210.73192 210.95461 211.17631 211.10700 210.80570 210.43239 210.05609
 209.66678 209.37047 209.17217 209.02986 208.95156 209.27625 209.65595 210.03864
 210.82534 211.99703 213.24073 215.01742 216.93911 218.97581 221.06450 223.14120
 225.19489 227.27259 229.36328 231.46298 233.58567 235.75137 238.00106 240.36475
 242.97945 245.22414 247.21984 248.97853 250.38923 251.50592 252.32162 252.63131
 252.66200 252.42970 251.78339 250.72509 249.32478 247.47948 245.38217 243.20887
 240.99356 238.79126 236.60495 234.43764 232.29134 230.15203 228.17173 226.32242
 224.59912 223.06481 221.68851 220.45420 219.32989 218.28359 217.38128 216.51598
 215.75167 214.92537 214.01706 213.37476 212.81845 213.02974 213.52892 213.48289
 212.90170 213.68626 215.17351 216.96298 219.10727 222.31531 227.82524 232.34003
 236.10326 240.23431 244.62515 248.94064 252.79279 255.68509 257.98798 260.34619
 262.71024 265.21976 267.79196 270.10956 272.34109 274.45758 276.14426 277.66953
 279.33490 281.00018 282.54718 283.91461 285.09915 286.15173 287.11264 287.99014
 288.78354 289.49896 290.12915 290.98325
 366.78100 356.32829 345.75359 334.61288 323.00918 311.19647 299.05977 286.85606
 274.56136 262.45165 250.45394 239.74824 229.86353 220.96083 213.13612 206.13142
 199.95871 194.89001 191.46530 189.50059 188.53089 188.58818 189.41648 190.71777
 192.43607 194.52436 196.78066 199.13295 201.57124 204.04454 206.12583 207.96113
 209.58042 210.71872 210.94101 211.16230 211.09260 210.79089 210.41719 210.04048
 209.65078 209.35407 209.15537 209.01266 208.93395 209.25825 209.63754 210.01984
 210.80613 211.97743 213.22072 214.99702 216.91831 218.95460 221.04290 223.11919
 225.17249 227.24978 229.34008 231.43937 233.56167 235.72696 237.97625 240.33955
 242.95384 245.19814 247.19343 248.95173 250.36202 251.47832 252.29361 252.60290
 252.63320 252.40049 251.75379 250.69508 249.29438 247.44867 245.35097 243.17726
 240.96155 238.75885 236.57214 234.40444 232.25773 230.11803 228.13732 226.28761
 224.56391 223.02920 221.65250 220.41779 219.29309 218.24638 217.34368 216.47797
 215.71326 214.88656 213.97785 213.33515 212.77844 213.03307 213.63464 213.57944
 213.01872 213.72603 215.12965 216.99464 219.16739 222.27551 227.77757 232.29007
 236.07471 240.23976 244.64000 248.91768 252.66772 255.50934 257.80484 260.15903
 262.56277 265.11908 267.72961 270.09790 272.34589 274.44565 276.12015 277.63904
 279.30435 280.97610 282.52316 283.88971 285.07480 286.12643 287.08923 287.96628
 288.76111 289.47485 290.10254 290.96014
 366.78100 356.32827 345.75354 334.61280 323.00907 311.19634 299.05961 286.85588
 274.56114 262.45141 250.45368 239.74795 229.86322 220.96048 213.13575 206.13102
 199.95829 194.88956 191.46482 189.50009 188.53036 188.58763 189.41590 190.71716
 192.43543 194.52370 196.77997 199.13224 201.57050 204.04377 206.12504 207.96031
 209.57958 210.71784 210.94011 211.16138 211.09165 210.78992 210.41618 210.03945
 209.64972 209.35299 209.15426 209.01153 208.93279 209.25706 209.63633 210.01860
 210.80487 211.97613 213.21940 214.99567 216.91694 218.95321 221.04147 223.11774
 225.17101 227.24828 229.33855 231.43781 233.56008 235.72535 237.97462 240.33789
 242.95215 245.19642 247.19169 248.94996 250.36023 251.47649 252.29176 252.60103
 252.63130 252.39857 251.75183 250.69310 249.29237 247.44664 245.34891 243.17517
 240.95944 238.75671 236.56998 234.40225 232.25551 230.11578 228.13505 226.28532
 224.56159 223.02685 221.65012 220.41539 219.29066 218.24393 217.34119 216.47546
 215.71073 214.88400 213.97527 213.33253 212.77580 213.05734 213.72252 213.66238
 213.13770 213.79060 215.12834 217.01198 219.17377 222.23735 227.73584 232.24652
 236.05359 240.25099 244.65584 248.88966 252.53561 255.32970 257.62265 259.97211
 262.41711 265.02127 267.66888 270.08386 272.34549 274.42657 276.08728 277.60297
 279.27176 280.95197 282.49991 283.86639 285.05215 286.10269 287.06580 287.94266
 288.73611 289.45114 290.08261 290.93179
 366.78100 356.32866 345.75431 334.61397 323.01062 311.19828 299.06193 286.85859
 274.56425 262.45490 250.45756 239.75221 229.86787 220.96552 213.14118 206.13684
 199.96449 194.89615 191.47180 189.50746 188.53812 188.59577 189.42443 190.72608
 192.44474 194.53339 196.79005 199.14271 201.58136 204.05502 206.13667 207.97233
 209.59198 210.73064 210.95330 211.17495 211.10561 210.80426 210.43092 210.05457
 209.66523 209.36889 209.17054 209.02820 208.94985 209.27451 209.65416 210.03682
 210.82348 211.99513 213.23879 215.01544 216.93710 218.97375 221.06241 223.13907
 225.19272 227.27038 229.36103 231.46069 233.58335 235.74900 237.99866 240.36231
 242.97697 245.22162 247.21728 248.97594 250.38659 251.50325 252.31890 252.62856
 252.65921 252.42687 251.78053 250.72218 249.32184 247.47649 245.37915 243.20580
 240.99046 238.78812 236.60177 234.43443 232.28808 230.14874 228.16839 226.31905
 224.59571 223.06136 221.68502 220.45067 219.32633 218.27998 217.37764 216.51230
 215.74795 214.92161 214.01326 213.37092 212.81458 213.10371 213.78688 213.75166
 213.24487 213.86493 215.16281 217.01660 219.15457 222.21016 227.69295 232.20575
 236.03876 240.26733 244.67082 248.85478 252.39583 255.14450 257.43744 259.78250
 262.27078 264.92413 267.60767 270.06509 272.33865 274.40155 276.04803 277.56311
 279.23746 280.92929 282.47809 283.84396 285.02863 286.08011 287.04260 287.91922
 288.71512 289.42685 290.05713 290.90762
 366.78100 356.32927 345.75555 334.61582 323.01310 311.20137 299.06565 286.86292
 274.56919 262.46047 250.46374 239.75902 229.87529 220.97356 213.14984 206.14611
 199.97439 194.90666 191.48294 189.51921 188.55048 188.60876 189.43803 190.74031
 192.45958 194.54885 196.80613 199.15940 201.59868 204.07295 206.15523 207.99150
 209.61177 210.75105 210.97432 211.19660 211.12787 210.82715 210.45442 210.07869
 209.68997 209.39424 209.19652 209.05479 208.97706 209.30234 209.68261 210.06589
 210.85316 212.02544 213.26971 215.04698 216.96926 219.00653 221.09581 223.17308
 225.22735 227.30563 229.39690 231.49718 233.62045 235.78673 238.03700 240.40127
 243.01655 245.26182 247.25810 249.01737 250.42864 251.54592 252.36219 252.67247
 252.70374 252.47202 251.82629 250.76856 249.36884 247.52411 245.42739 243.25466
 241.03994 238.83821 236.65248 234.48576 232.34003 230.20131 228.22158 226.37285
 224.65013 223.11640 221.74068 220.50695 219.38323 218.33750 217.43577 216.57105
 215.80732 214.98160 214.07387 213.43214 212.87642 213.16289 213.83971 213.84114
 213.34427 213.94237 215.21919 217.02005 219.13667 222.19362 227.64586 232.16634
 236.02896 240.28642 244.68187 248.80981 252.24596 254.95064 257.24536 259.58966
 262.12445 264.82788 267.54562 270.04306 272.32782 274.37463 276.01099 277.52731
 279.20856 280.90344 282.45181 283.81738 285.00348 286.05341 287.01730 287.89331
 288.68771 289.40118 290.02963 290.87534
 366.78100 356.33004 345.75709 334.61813 323.01617 311.20522 299.07026 286.86830
 274.57535 262.46739 250.47143 239.76748 229.88452 220.98356 213.16061 206.15765
 199.98669 194.91974 191.49678 189.53382 188.56587 188.62491 189.45495 190.75800
 192.47804 194.56808 196.82613 199.18017 201.62021 204.09526 206.17830 208.01534
 209.63639 210.77643 211.00048 211.22352 211.15556 210.85561 210.48365 210.10869
 209.72074 209.42578 209.22882 209.08787 209.01091 209.33695 209.71800 210.10204
 210.89008 212.06313 213.30817 215.08621 217.00926 219.04730 221.13734 223.21539
 225.27043 227.34947 229.44152 231.54256 233.66660 235.83365 238.08469 240.44973
 243.06578 245.31182 247.30886 249.06891 250.48095 251.59899 252.41604 252.72708
 252.75912 252.52817 251.88321 250.82625 249.42730 247.58334 245.48738 243.31543
 241.10147 238.90051 236.71556 234.54960 232.40464 230.26669 228.28773 226.43977
 224.71782 223.18486 221.80990 220.57695 219.45399 218.40903 217.50808 216.64412
 215.88117 215.05621 214.14925 213.50830 212.95334 213.23112 213.88742 213.92023
 213.44481 214.02359 215.28780 217.03136 219.12750 222.18243 227.59514 232.12897
 236.02138 240.30566 244.68510 248.75046 252.08344 254.74623 257.04684 259.39661
 261.98065 264.73306 267.48309 270.01620 272.30954 274.34317 275.97159 277.49200
 279.17606 280.87973 282.42877 283.79532 284.98007 286.03183 286.99475 287.87448
 288.67123 289.38901 290.01846 290.86307
 366.78100 356.33095 345.75891 334.62086 323.01982 311.20977 299.07573 286.87468
 274.58264 262.47559 250.48055 239.77750 229.89546 220.99541 213.17337 206.17132
 200.00128 194.93523 191.51319 189.55114 188.58410 188.64405 189.47501 190.77896
 192.49992 194.59087 196.84982 199.20478 201.64573 204.12169 206.20564 208.04360
 209.66555 210.80651 211.03146 211.25542 211.18837 210.88933 210.51828 210.14424
 209.75719 209.46315 209.26710 209.12706 209.05101 209.37797 209.75992 210.14488
 210.93383 212.10778 213.35374 215.13269 217.05665 219.09560 221.18656 223.26551
 225.32147 227.40142 229.49438 231.59633 233.72129 235.88924 238.14120 240.50715
 243.12411 245.37106 247.36902 249.12997 250.54293 251.66188 252.47984 252.79179
 252.82475 252.59470 251.95065 250.89461 249.49656 247.65352 245.55847 243.38743
 241.17438 238.97434 236.79029 234.62525 232.48120 230.34416 228.36611 226.51907
 224.79802 223.26598 221.89193 220.65989 219.53784 218.49380 217.59375 216.73071
 215.96866 215.14461 214.23857 213.59852 213.04448 213.30763 213.92934 213.98285
 213.55441 214.11125 215.36072 217.05247 219.12968 222.17316 227.54308 232.09486
 236.01585 240.32129 244.67725 248.67383 251.90778 254.53358 256.84607 259.20938
 261.84381 264.64252 267.42075 269.98187 272.28204 274.30518 275.92892 277.45755
 279.14191 280.85608 282.40598 283.77194 284.95663 286.00836 286.97128 287.85043
 288.64899 289.36731 289.99564 290.84058
 366.78100 356.33205 345.76111 334.62416 323.02422 311.21527 299.08233 286.88238
 274.59144 262.48549 250.49155 239.78960 229.90866 221.00971 213.18877 206.18782
 200.01888 194.95393 191.53299 189.57204 188.60610 188.66715 189.49921 190.80426
 192.52632 194.61837 196.87843 199.23448 201.67654 204.15359 206.23865 208.07770
 209.70076 210.84281 211.06887 211.29392 211.22798 210.93003 210.56009 210.18714
 209.80120 209.50825 209.31331 209.17436 209.09942 209.42747 209.81053 210.19658
 210.98664 212.16169 213.40875 215.18880 217.11386 219.15391 221.24597 223.32602
 225.38308 227.46413 229.55819 231.66124 233.78730 235.95635 238.20941 240.57646
 243.19452 245.44257 247.44163 249.20368 250.61774 251.73779 252.55685 252.86990
 252.90396 252.67501 252.03207 250.97712 249.58018 247.73823 245.64429 243.47434
 241.26240 239.06345 236.88051 234.71656 232.57362 230.43767 228.46073 226.61478
 224.89484 223.36389 221.99095 220.76000 219.63906 218.59611 217.69717 216.83522
 216.07428 215.25133 214.34639 213.70744 213.15450 213.39452 213.96158 214.03177
 213.67633 214.20445 215.43723 217.08665 219.13638 222.16599 227.49339 232.06541
 236.01103 240.33215 244.65538 248.57672 251.71674 254.31149 256.64288 259.03122
 261.71683 264.55869 267.36087 269.94296 272.24869 274.26395 275.88602 277.42374
 279.10889 280.82559 282.37445 283.74063 284.92618 285.97726 286.94131 287.81973
 288.61734 289.33337 289.96097 290.80707
 366.78100 356.33332 345.76365 334.62797 323.02929 311.22161 299.08994 286.89126
 274.60158 262.49691 250.50423 239.80355 229.92388 221.02620 213.20652 206.20684
 200.03917 194.97549 191.55581 189.59614 188.63146 188.69378 189.52711 190.83343
 192.55675 194.65007 196.91140 199.26872 201.71204 204.19037 206.27669 208.11701
 209.74133 210.88466 211.11198 211.33830 211.27363 210.97695 210.60827 210.23660
 209.85192 209.56024 209.36656 209.22889 209.15521 209.48453 209.86886 210.25618
 211.04750 212.22382 213.47215 215.25347 217.17979 219.22112 221.31444 223.39576
 225.45409 227.53641 229.63173 231.73605 233.86338 236.03370 238.28802 240.65635
 243.27567 245.52499 247.52532 249.28864 250.70396 251.82528 252.64561 252.95993
 252.99525 252.76758 252.12590 251.07222 249.67654 247.83587 245.74319 243.57451
 241.36384 239.16616 236.98448 234.82181 232.68013 230.54545 228.56977 226.72510
 225.00642 223.47674 222.10507 220.87539 219.75571 218.71404 217.81636 216.95568
 216.19600 215.37433 214.47065 213.83297 213.28130 213.49062 213.98515 214.06865
 213.80949 214.30351 215.51480 217.13210 219.15251 222.15929 227.44693 232.03909
 236.00723 240.33731 244.61902 248.45702 251.50922 254.07939 256.43802 258.86313
 261.60202 264.48340 267.30484 269.90247 272.21286 274.22275 275.84653 277.39124
 279.07605 280.78625 282.33542 283.70206 284.88760 285.93802 286.90228 287.77856
 288.57736 289.29263 289.92325 290.76279
 366.78100 356.33495 345.76689 334.63284 323.03579 311.22973 299.09968 286.90262
 274.61457 262.51152 250.52046 239.82141 229.94336 221.04730 213.22925 206.23120
 200.06514 195.00309 191.58503 189.62698 188.66393 188.72787 189.56282 190.87077
 192.59571 194.69066 196.95360 199.31255 201.75750 204.23744 206.32539 208.16734
 209.79328 210.93823 211.16718 211.39512 211.33207 211.03701 210.66996 210.29991
 209.91685 209.62680 209.43475 209.29869 209.22664 209.55759 209.94353 210.33248
 211.12542 212.30337 213.55332 215.33626 217.26421 219.30716 221.40210 223.48505
 225.54500 227.62894 229.72589 231.83183 233.96078 236.13273 238.38867 240.75862
 243.37957 245.63051 247.63246 249.39740 250.81435 251.93730 252.75924 253.07519
 253.11214 252.88608 252.24603 251.19398 249.79992 247.96087 245.86981 243.70276
 241.49371 239.29765 237.11760 234.95655 232.81649 230.68344 228.70939 226.86633
 225.14928 223.62122 222.25117 221.02312 219.90506 218.86501 217.96896 217.10990
 216.35185 215.53180 214.62974 213.99369 213.44363 213.60513 213.98666 214.11198
 213.94449 214.40277 215.60316 217.18571 219.16402 222.15248 227.40349 232.01813
 236.00685 240.33936 244.56921 248.31580 251.28444 253.83598 256.22937 258.70401
 261.49911 264.41806 267.25375 269.86261 272.17673 274.18527 275.81277 277.36285
 279.04169 280.73877 282.28647 283.65393 284.83771 285.88928 286.85263 287.73022
 288.52725 289.24429 289.87112 290.71301
 366.78100 356.33666 345.77032 334.63798 323.04265 311.23831 299.10997 286.91463
 274.62829 262.52695 250.53761 239.84027 229.96394 221.06960 213.25326 206.25692
 200.09258 195.03224 191.61590 189.65956 188.69823 188.76389 189.60055 190.91021
 192.63687 194.73353 196.99819 199.35885 201.80552 204.28718 206.37684 208.22050
 209.84816 210.99482 211.22548 211.45514 211.39381 211.10047 210.73513 210.36679
 209.98545 209.69711 209.50677 209.37243 209.30210 209.63476 210.02242 210.41308
 211.20774 212.38740 213.63906 215.42373 217.35339 219.39805 221.49471 223.57937
 225.64103 227.72669 229.82535 231.93302 234.06368 236.23734 238.49500 240.86666
 243.48932 245.74198 247.74564 249.51231 250.93097 252.05563 252.87929 253.19695
 253.23561 253.01127 252.37293 251.32260 249.93026 248.09292 246.00358 243.83824
 241.63090 239.43656 237.25822 235.09889 232.96055 230.82921 228.85687 227.01553
 225.30019 223.77385 222.40551 221.17918 220.06284 219.02450 218.13016 217.27282
 216.51648 215.69814 214.79781 214.16347 213.61513 213.72498 213.98448 214.14198
 214.09912 214.50417 215.68408 217.23796 219.18343 222.14886 227.37038 232.00137
 236.00708 240.33499 244.50279 248.15111 251.04306 253.58292 256.01920 258.55478
 261.40811 264.36221 267.20767 269.82230 272.14185 274.15079 275.78610 277.33911
 279.00696 280.68332 282.23059 283.59705 284.78244 285.83252 286.79620 287.67441
 288.47174 289.18927 289.81641 290.65790
 366.78100 356.33896 345.77492 334.64488 323.05184 311.24979 299.12375 286.93071
 274.64667 262.54763 250.56059 239.86555 229.99151 221.09946 213.28542 206.29138
 200.12934 195.07130 191.65726 189.70322 188.74418 188.81213 189.65109 190.96305
 192.69201 194.79097 197.05793 199.42089 201.86985 204.35380 206.44576 208.29172
 209.92168 211.07064 211.30360 211.53556 211.47652 211.18548 210.82243 210.45639
 210.07735 209.79131 209.60327 209.47123 209.40319 209.73815 210.12810 210.52106
 211.31802 212.49998 213.75394 215.54090 217.47286 219.51982 221.61877 223.70573
 225.76969 227.85765 229.95861 232.06857 234.20153 236.37749 238.63745 241.01140
 243.63636 245.89132 247.89728 249.66624 251.08720 252.21416 253.04012 253.36007
 253.40103 253.17899 252.54295 251.49491 250.10487 248.26983 246.18279 244.01974
 241.81470 239.62266 237.44662 235.28958 233.15354 231.02450 229.05446 227.21541
 225.50237 223.97833 222.61229 221.38825 220.27421 219.23817 218.34613 217.49109
 216.73704 215.92100 215.02296 214.39092 213.84488 213.87427 213.94373 214.19911
 214.24681 214.60719 215.77412 217.29904 219.20001 222.13408 227.32706 231.98361
 236.01025 240.32806 244.42705 247.97261 250.79495 253.32877 255.81252 258.41629
 261.32779 264.31354 267.16455 269.78091 272.10443 274.11816 275.76227 277.31628
 278.96909 280.62302 282.16721 283.53400 284.71823 285.76889 286.73169 287.60889
 288.40161 289.11548 289.74255 290.58057
 366.78100 356.34122 345.77944 334.65167 323.06089 311.26111 299.13733 286.94655
 274.66477 262.56800 250.58322 239.89044 230.01866 221.12888 213.31711 206.32533
 200.16555 195.10977 191.69799 189.74621 188.78944 188.85966 189.70088 191.01510
 192.74632 194.84755 197.11677 199.48199 201.93321 204.41943 206.51365 208.36188
 209.99410 211.14532 211.38054 211.61476 211.55799 211.26921 210.90843 210.54465
 210.16787 209.88409 209.69832 209.56854 209.50276 209.83998 210.23220 210.62743
 211.42665 212.61087 213.86709 215.65631 217.59053 219.63976 221.74098 223.83020
 225.89642 227.98664 230.08987 232.20209 234.33731 236.51553 238.77775 241.15397
 243.78120 246.03842 248.04664 249.81786 251.24108 252.37031 253.19853 253.52075
 253.56397 253.34419 252.71041 251.66464 250.27686 248.44408 246.35930 244.19852
 241.99575 239.80597 237.63219 235.47741 233.34363 231.21685 229.24908 227.41230
 225.70152 224.17974 222.81596 221.59419 220.48241 219.44863 218.55885 217.70607
 216.95429 216.14052 215.24474 214.61496 214.07118 214.02258 213.90775 214.22067
 214.45253 214.71194 215.83841 217.32613 219.20743 222.12918 227.30722 231.98384
 236.02065 240.32108 244.34143 247.77818 250.53566 253.06741 255.60332 258.28287
 261.25433 264.26895 267.12210 269.73859 272.06934 274.09277 275.75006 277.30295
 278.93274 280.55508 282.09610 283.46246 284.64627 285.69629 286.65701 287.53513
 288.32718 289.04126 289.66342 290.50479
 366.78100 356.34250 345.78200 334.65551 323.06601 311.26751 299.14501 286.95551
 274.67502 262.57952 250.59602 239.90452 230.03402 221.14552 213.33503 206.34453
 200.18603 195.13153 191.72103 189.77054 188.81504 188.88654 189.72904 191.04454
 192.77705 194.87955 197.15005 199.51655 201.96905 204.45655 206.55206 208.40156
 210.03506 211.18756 211.42406 211.65957 211.60407 211.31657 210.95707 210.59457
 210.21908 209.93658 209.75208 209.62358 209.55908 209.89758 210.29109 210.68759
 211.48809 212.67359 213.93109 215.72160 217.65710 219.70760 221.81010 223.90060
 225.96811 228.05961 230.16411 232.27761 234.41411 236.59361 238.85712 241.23462
 243.86312 246.12162 248.13112 249.90363 251.32813 252.45863 253.28813 253.61163
 253.65614 253.43764 252.80514 251.76064 250.37414 248.54264 246.45915 244.29965
 242.09815 239.90965 237.73715 235.58366 233.45116 231.32566 229.35916 227.52366
 225.81417 224.29367 222.93117 221.71067 220.60017 219.56768 218.67918 217.82768
 217.07718 216.26468 215.37018 214.74169 214.19919 214.12222 213.94040 214.18878
 214.59415 214.83908 215.91942 217.44548 219.23235 222.13652 227.27936 231.97209
 236.02316 240.30045 244.23518 247.56133 250.26363 252.80296 255.39714 258.15945
 261.19125 264.23233 267.08524 269.69955 272.03842 274.07651 275.74774 277.29422
 278.89435 280.48535 282.02341 283.38907 284.57162 285.62164 286.58499 287.45950
 288.25244 288.96332 289.59052 290.42365
 366.78100 356.34396 345.78492 334.65988 323.07184 311.27480 299.15376 286.96572
 274.68668 262.59265 250.61061 239.92057 230.05153 221.16449 213.35545 206.36641
 200.20937 195.15633 191.74729 189.79825 188.84421 188.91717 189.76113 191.07809
 192.81205 194.91602 197.18798 199.55594 202.00990 204.49886 206.59582 208.44678
 210.08174 211.23570 211.47366 211.71062 211.65658 211.37054 211.01250 210.65146
 210.27742 209.99639 209.81335 209.68631 209.62327 209.96323 210.35819 210.75615
 211.55811 212.74507 214.00403 215.79599 217.73295 219.78491 221.88887 223.98083
 226.04979 228.14276 230.24872 232.36368 234.50164 236.68260 238.94756 241.32652
 243.95648 246.21644 248.22740 250.00136 251.42732 252.55928 253.39024 253.71520
 253.76116 253.54413 252.91309 251.87005 250.48501 248.65497 246.57293 244.41489
 242.21485 240.02781 237.85677 235.70473 233.57369 231.44965 229.48461 227.65057
 225.94253 224.42350 223.06246 221.84342 220.73438 219.70334 218.81630 217.96626
 217.21722 216.40618 215.51314 214.88610 214.34506 214.22957 213.95671 214.19466
 214.70210 214.94980 215.97884 217.55286 219.27090 222.14590 227.24921 231.96246
 236.02797 240.27940 244.12553 247.34331 249.99945 252.55072 255.20471 258.05066
 261.13925 264.20300 267.05228 269.66165 272.00705 274.06281 275.75153 277.29471
 278.86313 280.41211 281.94479 283.31064 284.49316 285.54453 286.50504 287.38071
 288.17474 288.88541 289.51346 290.34555
 366.78100 356.34547 345.78794 334.66442 323.07789 311.28236 299.16283 286.97631
 274.69878 262.60625 250.62572 239.93720 230.06967 221.18414 213.37661 206.38908
 200.23356 195.18203 191.77450 189.82697 188.87445 188.94892 189.79439 191.11286
 192.84834 194.95381 197.22728 199.59675 202.05222 204.54270 206.64117 208.49364
 210.13011 211.28559 211.52506 211.76353 211.71100 211.42648 211.06995 210.71042
 210.33789 210.05836 209.87684 209.75131 209.68978 210.03125 210.42773 210.82720
 211.63067 212.81914 214.07962 215.87309 217.81156 219.86503 221.97050 224.06398
 226.13445 228.22892 230.33639 232.45287 234.59234 236.77481 239.04128 241.42176
 244.05323 246.31470 248.32717 250.10264 251.53012 252.66359 253.49606 253.82253
 253.87001 253.65448 253.02495 251.98342 250.59990 248.77137 246.69084 244.53431
 242.33578 240.15026 237.98073 235.83020 233.70067 231.57815 229.61462 227.78209
 226.07556 224.55804 223.19851 221.98098 220.87345 219.84392 218.95840 218.10987
 217.36234 216.55281 215.66129 215.03576 214.49623 214.33806 213.96434 214.21892
 214.80479 215.05434 216.01540 217.62262 219.32486 222.16969 227.22942 231.96617
 236.04062 240.26112 244.01530 247.12450 249.73930 252.30370 255.01759 257.94818
 261.09213 264.17529 267.01834 269.62012 271.97153 274.04611 275.75461 277.29968
 278.83408 280.34296 281.86877 283.23331 284.41705 285.46646 286.42715 287.30341
 288.09637 288.80936 289.43646 290.26755
 366.78100 356.34669 345.79037 334.66806 323.08274 311.28843 299.17012 286.98480
 274.70849 262.61717 250.63786 239.95054 230.08423 221.19992 213.39360 206.40729
 200.25297 195.20266 191.79635 189.85003 188.89872 188.97440 189.82109 191.14077
 192.87746 194.98415 197.25883 199.62952 202.08620 204.57789 206.67758 208.53126
 210.16895 211.32563 211.56632 211.80600 211.75469 211.47138 211.11606 210.75775
 210.38643 210.10812 209.92781 209.80349 209.74318 210.08586 210.48355 210.88423
 211.68892 212.87861 214.14029 215.93498 217.87466 219.92935 222.03604 224.13072
 226.20241 228.29809 230.40678 232.52446 234.66515 236.84884 239.11652 241.49821
 244.13089 246.39358 248.40727 250.18395 251.61264 252.74732 253.58101 253.90869
 253.95738 253.74307 253.11475 252.07444 250.69212 248.86481 246.78550 244.63018
 242.43287 240.24855 238.08024 235.93092 233.80261 231.68130 229.71898 227.88767
 226.18235 224.66604 223.30773 222.09141 220.98510 219.95678 219.07247 218.22516
 217.47884 216.67053 215.78021 215.15590 214.61758 214.43007 213.98703 214.23700
 214.90646 215.15411 216.04781 217.67154 219.38034 222.20708 227.22314 231.98065
 236.05568 240.23830 243.89708 246.89862 249.47794 252.05960 254.83345 257.84976
 261.04700 264.14667 266.98172 269.57642 271.93500 274.02982 275.76215 277.31186
 278.81293 280.27866 281.79553 283.16098 284.34445 285.39401 286.35516 287.23154
 288.02283 288.73477 289.36456 290.19370
 366.78100 356.34762 345.79223 334.67085 323.08646 311.29308 299.17569 286.99131
 274.71592 262.62554 250.64716 239.96077 230.09539 221.21200 213.40662 206.42123
 200.26785 195.21846 191.81308 189.86770 188.91731 188.99393 189.84154 191.16216
 192.89977 195.00739 197.28300 199.65462 202.11224 204.60485 206.70547 208.56008
 210.19870 211.35631 211.59793 211.83854 211.78816 211.50578 211.15139 210.79401
 210.42362 210.14624 209.96685 209.84347 209.78408 210.12770 210.52632 210.92793
 211.73355 212.92416 214.18678 215.98239 217.92301 219.97862 222.08624 224.18186
 226.25447 228.35109 230.46070 232.57932 234.72093 236.90555 239.17416 241.55678
 244.19040 246.45401 248.46863 250.24624 251.67586 252.81147 253.64609 253.97470
 254.02432 253.81094 253.18355 252.14417 250.76278 248.93640 246.85801 244.70363
 242.50724 240.32386 238.15648 236.00809 233.88071 231.76032 229.79894 227.96855
 226.26417 224.74878 223.39140 222.17602 221.07063 220.04325 219.15986 218.31348
 217.56809 216.76071 215.87132 215.24794 214.71056 214.50615 214.02322 214.25249
 215.00630 215.24242 216.08742 217.72098 219.42307 222.24648 227.22482 231.99802
 236.06706 240.20663 243.77003 246.67014 249.22191 251.82307 254.65556 257.75623
 261.00375 264.11630 266.94299 269.53079 271.89880 274.01608 275.77441 277.33398
 278.80911 280.22775 281.72803 283.09198 284.27621 285.32504 286.28668 287.16156
 287.95480 288.66476 289.29608 290.12405
 366.78100 356.34839 345.79378 334.67316 323.08955 311.29694 299.18033 286.99671
 274.72210 262.63249 250.65488 239.96927 230.10465 221.22204 213.41743 206.43282
 200.28020 195.23159 191.82698 189.88237 188.93276 189.01014 189.85853 191.17992
 192.91831 195.02670 197.30308 199.67547 202.13386 204.62725 206.72863 208.58402
 210.22341 211.38180 211.62419 211.86557 211.81596 211.53435 211.18074 210.82412
 210.45451 210.17790 209.99929 209.87668 209.81806 210.16245 210.56184 210.96423
 211.77061 212.96200 214.22539 216.02178 217.96317 220.01955 222.12794 224.22433
 226.29772 228.39511 230.50549 232.62488 234.76727 236.95266 239.22204 241.60543
 244.23982 246.50421 248.51960 250.29798 251.72837 252.86476 253.70015 254.02953
 254.07992 253.86731 253.24070 252.20209 250.82147 248.99586 246.91825 244.76464
 242.56902 240.38641 238.21980 236.07219 233.94558 231.82596 229.86535 228.03574
 226.33213 224.81751 223.46090 222.24629 221.14168 220.11507 219.23245 218.38684
 217.64223 216.83562 215.94701 215.32439 214.78778 214.57227 214.06310 214.27551
 215.09970 215.32191 216.13188 217.77040 219.44710 222.28241 227.22995 232.01587
 236.07391 240.16878 243.64116 246.44669 248.97566 251.59660 254.48494 257.66672
 260.96085 264.08325 266.90219 269.48477 271.86279 274.00180 275.78473 277.35703
 278.81000 280.18860 281.67020 283.03253 284.21628 285.26547 286.22803 287.10193
 287.89563 288.60721 289.23770 290.06329
 366.78100 356.34902 345.79503 334.67505 323.09206 311.30008 299.18409 287.00111
 274.72712 262.63814 250.66115 239.97617 230.11218 221.23020 213.42621 206.44223
 200.29024 195.24226 191.83827 189.89429 188.94530 189.02332 189.87234 191.19435
 192.93337 195.04238 197.31940 199.69241 202.15143 204.64544 206.74746 208.60347
 210.24349 211.40250 211.64552 211.88753 211.83855 211.55756 211.20458 210.84859
 210.47961 210.20363 210.02564 209.90366 209.84567 210.19069 210.59070 210.99372
 211.80073 212.99275 214.25676 216.05378 217.99579 220.05281 222.16182 224.25884
 226.33285 228.43087 230.54188 232.66190 234.80491 236.99093 239.26095 241.64496
 244.27998 246.54499 248.56101 250.34002 251.77104 252.90805 253.74407 254.07408
 254.12510 253.91311 253.28713 252.24914 250.86916 249.04417 246.96719 244.81420
 242.61922 240.43724 238.27125 236.12427 233.99828 231.87930 229.91931 228.09033
 226.38734 224.87336 223.51737 222.30339 221.19940 220.17342 219.29143 218.44645
 217.70246 216.89648 216.00849 215.38651 214.85052 214.62891 214.10527 214.31245
 215.17830 215.40436 216.17513 217.80464 219.46199 222.31767 227.24434 232.03787
 236.07953 240.12935 243.51256 246.22708 248.73680 251.37755 254.32030 257.57846
 260.91644 264.04623 266.85730 269.43823 271.82697 273.98871 275.79568 277.37976
 278.81531 280.16879 281.62210 282.98346 284.16562 285.21567 286.17743 287.05472
 287.84625 288.55844 289.18478 290.01901
 366.78100 356.34944 345.79588 334.67632 323.09376 311.30220 299.18664 287.00409
 274.73053 262.64197 250.66541 239.98085 230.11729 221.23573 213.43217 206.44861
 200.29705 195.24949 191.84593 189.90238 188.95382 189.03226 189.88170 191.20414
 192.94358 195.05302 197.33046 199.70390 202.16334 204.65778 206.76022 208.61667
 210.25711 211.41655 211.65999 211.90243 211.85387 211.57331 211.22075 210.86519
 210.49663 210.22107 210.04351 209.92196 209.86440 210.20984 210.61028 211.01372
 211.82116 213.01360 214.27804 216.07548 218.01792 220.07536 222.18480 224.28224
 226.35669 228.45513 230.56657 232.68701 234.83045 237.01689 239.28733 241.67177
 244.30721 246.57265 248.58909 250.36853 251.79998 252.93742 253.77386 254.10430
 254.15574 253.94418 253.31862 252.28106 250.90150 249.07694 247.00038 244.84782
 242.65327 240.47171 238.30615 236.15959 234.03403 231.91547 229.95591 228.12735
 226.42479 224.91123 223.55567 222.34211 221.23856 220.21300 219.33144 218.48688
 217.74332 216.93776 216.05020 215.42864 214.89308 214.67285 214.15253 214.36154
 215.24155 215.48909 216.22032 217.83113 219.47566 222.36171 227.26048 232.05669
 236.08150 240.08243 243.37598 246.00313 248.49890 251.16341 254.16145 257.49268
 260.86932 264.00357 266.80832 269.38986 271.79294 273.97775 275.81097 277.40839
 278.83493 280.17508 281.58511 282.94250 284.12717 285.17654 286.13855 287.01382
 287.80667 288.51996 289.14713 289.97394
 366.78100 356.34964 345.79629 334.67693 323.09457 311.30322 299.18786 287.00550
 274.73215 262.64379 250.66743 239.98308 230.11972 221.23836 213.43501 206.45165
 200.30029 195.25294 191.84958 189.90622 188.95787 189.03651 189.88615 191.20880
 192.94844 195.05808 197.33573 199.70937 202.16901 204.66366 206.76630 208.62294
 210.26359 211.42323 211.66687 211.90952 211.86116 211.58080 211.22845 210.87309
 210.50473 210.22938 210.05202 209.93066 209.87331 210.21895 210.61959 211.02324
 211.83088 213.02352 214.28817 216.08581 218.02845 220.08609 222.19574 224.29338
 226.36802 228.46667 230.57831 232.69895 234.84260 237.02924 239.29988 241.68453
 244.32017 246.58581 248.60246 250.38210 251.81374 252.95139 253.78803 254.11867
 254.17032 253.95896 253.33360 252.29625 250.91689 249.09253 247.01618 244.86382
 242.66946 240.48811 238.32275 236.17639 234.05104 231.93268 229.97332 228.14497
 226.44261 224.92925 223.57390 222.36054 221.25718 220.23183 219.35047 218.50611
 217.76276 216.95740 216.07004 215.44869 214.91333 214.70328 214.20703 214.41655
 215.29443 215.58076 216.27011 217.85011 219.49574 222.40984 227.28242 232.07352
 236.07713 240.02130 243.22310 245.77039 248.26205 250.95715 254.01190 257.41077
 260.81894 263.95566 266.75516 269.34061 271.76074 273.97009 275.82968 277.44305
 278.86142 280.19043 281.56503 282.91830 284.10303 285.15378 286.11581 286.99063
 287.78174 288.49643 289.12073 289.95355
 366.78100 356.34970 345.79639 334.67709 323.09479 311.30348 299.18818 287.00588
 274.73257 262.64427 250.66797 239.98367 230.12036 221.23906 213.43576 206.45245
 200.30115 195.25385 191.85054 189.90724 188.95894 189.03763 189.88733 191.21003
 192.94972 195.05942 197.33712 199.71082 202.17051 204.66521 206.76791 208.62460
 210.26530 211.42500 211.66869 211.91139 211.86309 211.58278 211.23048 210.87518
 210.50687 210.23157 210.05427 209.93296 209.87566 210.22136 210.62206 211.02575
 211.83345 213.02615 214.29084 216.08854 218.03124 220.08893 222.19863 224.29633
 226.37102 228.46972 230.58142 232.70211 234.84581 237.03251 239.30321 241.68790
 244.32360 246.58930 248.60599 250.38569 251.81739 252.95508 253.79178 254.12248
 254.17417 253.96287 253.33757 252.30026 250.92096 249.09666 247.02036 244.86805
 242.67375 240.49245 238.32714 236.18084 234.05554 231.93723 229.97793 228.14963
 226.44732 224.93402 223.57872 222.36541 221.26211 220.23681 219.35550 218.51120
 217.76790 216.96260 216.07529 215.45399 214.91869 214.72392 214.26375 214.47627
 215.34247 215.66774 216.33652 217.87279 219.52017 222.45763 227.31152 232.08922
 236.06537 239.94185 243.05104 245.52827 248.02560 250.75844 253.87227 257.33273
 260.76620 263.90216 266.69907 269.29379 271.73358 273.96750 275.85168 277.47928
 278.88971 280.20282 281.56119 282.91544 284.10159 285.15189 286.11478 286.99030
 287.78214 288.49426 289.12479 289.94748
 366.78100 356.34949 345.79599 334.67648 323.09397 311.30247 299.18696 287.00445
 274.73095 262.64244 250.66593 239.98143 230.11792 221.23641 213.43291 206.44940
 200.29790 195.25039 191.84688 189.90338 188.95487 189.03336 189.88286 191.20535
 192.94484 195.05434 197.33183 199.70532 202.16482 204.65931 206.76180 208.61830
 210.25879 211.41828 211.66178 211.90427 211.85576 211.57526 211.22275 210.86724
 210.49874 210.22323 210.04573 209.92422 209.86671 210.21221 210.61270 211.01619
 211.82369 213.01618 214.28067 216.07817 218.02066 220.07815 222.18765 224.28514
 226.35963 228.45813 230.56962 232.69011 234.83361 237.02010 239.29059 241.67509
 244.31058 246.57607 248.59257 250.37206 251.80356 252.94105 253.77754 254.10804
 254.15953 253.94802 253.32252 252.28501 250.90550 249.08100 247.00449 244.85198
 242.65748 240.47597 238.31046 236.16396 234.03845 231.91994 229.96044 228.13193
 226.42942 224.91592 223.56041 222.34690 221.24340 220.21789 219.33639 218.49188
 217.74837 216.94287 216.05536 215.43385 214.89835 214.72963 214.33102 214.52937
 215.39848 215.75720 216.40125 217.90303 219.55904 222.50310 227.34190 232.10095
 236.04395 239.84233 242.85979 245.27826 247.79179 250.56982 253.74258 257.25909
 260.71213 263.84579 266.64264 269.24939 271.70938 273.96695 275.87744 277.51852
 278.92340 280.22113 281.57056 282.92383 284.11047 285.16266 286.12766 287.00507
 287.80573 288.52133 289.15475 289.97552
 366.78100 356.34935 345.79569 334.67604 323.09339 311.30174 299.18608 287.00343
 274.72978 262.64113 250.66447 239.97982 230.11617 221.23452 213.43086 206.44721
 200.29556 195.24791 191.84425 189.90060 188.95195 189.03030 189.87964 191.20199
 192.94134 195.05069 197.32803 199.70138 202.16073 204.65508 206.75742 208.61377
 210.25412 211.41347 211.65681 211.89916 211.85051 211.56986 211.21720 210.86155
 210.49290 210.21724 210.03959 209.91794 209.86029 210.20563 210.60598 211.00933
 211.81668 213.00902 214.27337 216.07072 218.01307 220.07041 222.17976 224.27711
 226.35146 228.44980 230.56115 232.68150 234.82485 237.01119 239.28154 241.66589
 244.30124 246.56658 248.58293 250.36228 251.79363 252.93097 253.76732 254.09767
 254.14902 253.93736 253.31171 252.27406 250.89440 249.06975 246.99310 244.84045
 242.64579 240.46414 238.29849 236.15184 234.02618 231.90753 229.94788 228.11923
 226.41657 224.90292 223.54727 222.33362 221.22996 220.20431 219.32266 218.47801
 217.73435 216.92870 216.04105 215.41940 214.88374 214.73589 214.38655 214.59795
 215.44717 215.84306 216.49168 217.93903 219.58786 222.53880 227.36855 232.10805
 236.01434 239.72815 242.65823 245.02884 247.56721 250.39529 253.62579 257.19147
 260.65793 263.78705 266.58386 269.20309 271.68402 273.96756 275.90463 277.56332
 278.96832 280.25726 281.58362 282.93524 284.12302 285.17688 286.14032 287.02087
 287.81927 288.53848 289.16776 289.99603
 366.78100 356.34901 345.79501 334.67502 323.09203 311.30004 299.18404 287.00105
 274.72706 262.63806 250.66107 239.97608 230.11209 221.23009 213.42610 206.44211
 200.29011 195.24212 191.83813 189.89414 188.94514 189.02315 189.87216 191.19416
 192.93317 195.04218 197.31919 199.69219 202.15120 204.64521 206.74721 208.60322
 210.24323 211.40224 211.64524 211.88725 211.83826 211.55726 211.20427 210.84828
 210.47929 210.20329 210.02530 209.90331 209.84532 210.19032 210.59033 210.99334
 211.80034 212.99235 214.25636 216.05337 217.99537 220.05238 222.16139 224.25839
 226.33240 228.43041 230.54142 232.66142 234.80443 236.99044 239.26044 241.64445
 244.27946 246.54447 248.56047 250.33948 251.77049 252.90749 253.74350 254.07351
 254.12452 253.91252 253.28653 252.24854 250.86854 249.04355 246.96656 244.81357
 242.61857 240.43658 238.27059 236.12359 233.99760 231.87861 229.91862 228.08962
 226.38663 224.87264 223.51664 222.30265 221.19866 220.17267 219.29067 218.44568
 217.70169 216.89569 216.00770 215.38571 214.84972 214.73035 214.44833 214.65378
 215.51947 215.92630 216.55655 217.98550 219.64174 222.57391 227.39362 232.11131
 235.97766 239.60306 242.44656 244.77744 247.34677 250.22945 253.51755 257.12582
 260.59970 263.72113 266.51944 269.15375 271.65704 273.96994 275.93802 277.62024
 279.02869 280.31021 281.60248 282.95132 284.13974 285.19186 286.15652 287.03485
 287.83310 288.54929 289.18121 290.00195
 366.78100 356.34830 345.79359 334.67289 323.08918 311.29648 299.17977 286.99607
 274.72137 262.63166 250.65396 239.96825 230.10355 221.22084 213.41614 206.43143
 200.27873 195.23003 191.82532 189.88062 188.93091 189.00821 189.85650 191.17780
 192.91610 195.02439 197.30069 199.67298 202.13128 204.62457 206.72587 208.58116
 210.22046 211.37876 211.62105 211.86235 211.81264 211.53094 211.17723 210.82053
 210.45083 210.17412 209.99542 209.87271 209.81401 210.15830 210.55760 210.95990
 211.76619 212.95749 214.22078 216.01708 217.95837 220.01467 222.12296 224.21926
 226.29256 228.38985 230.50015 232.61944 234.76174 236.94703 239.21633 241.59963
 244.23392 246.49822 248.51351 250.29181 251.72210 252.85840 253.69370 254.02299
 254.07329 253.86058 253.23388 252.19517 250.81447 248.98876 246.91106 244.75736
 242.56165 240.37895 238.21224 236.06454 233.93783 231.81813 229.85743 228.02772
 226.32402 224.80931 223.45261 222.23790 221.13320 220.10649 219.22379 218.37809
 217.63338 216.82668 215.93797 215.31527 214.77856 214.70444 214.52928 214.69386
 215.55553 216.05005 216.69295 218.03334 219.66684 222.60205 227.41135 232.10583
 235.92802 239.46111 242.22002 244.52043 247.12943 250.07231 253.41832 257.06351
 260.54004 263.65225 266.45306 269.10455 271.63351 273.97583 275.97562 277.68243
 279.09564 280.36945 281.63028 282.97482 284.16284 285.21652 286.18137 287.05862
 287.85757 288.57562 289.20224 290.02707
 366.78100 356.34783 345.79265 334.67148 323.08731 311.29413 299.17696 286.99279
 274.71761 262.62744 250.64926 239.96309 230.09792 221.21474 213.40957 206.42440
 200.27122 195.22205 191.81688 189.87170 188.92153 188.99836 189.84618 191.16701
 192.90483 195.01266 197.28849 199.66031 202.11814 204.61097 206.71179 208.56662
 210.20545 211.36327 211.60510 211.84593 211.79575 211.51358 211.15940 210.80223
 210.43206 210.15488 209.97571 209.85254 209.79336 210.13719 210.53602 210.93784
 211.74367 212.93450 214.19732 215.99315 217.93397 219.98980 222.09763 224.19345
 226.26628 228.36311 230.47293 232.59176 234.73359 236.91841 239.18724 241.57007
 244.20389 246.46772 248.48254 250.26037 251.69020 252.82602 253.66085 253.98968
 254.03950 253.82633 253.19916 252.15998 250.77881 248.95264 246.87446 244.72029
 242.52411 240.34094 238.17377 236.02559 233.89842 231.77825 229.81707 227.98690
 226.28273 224.76755 223.41038 222.19521 221.09003 220.06286 219.17969 218.33351
 217.58834 216.78116 215.89199 215.26882 214.73164 214.68878 214.58752 214.77097
 215.55588 216.12831 216.82358 218.14964 219.71729 222.60164 227.42891 232.09959
 235.87267 239.31326 241.99129 244.27139 246.92580 249.93167 253.33226 257.00842
 260.48376 263.58612 266.39041 269.05997 271.61407 273.98468 276.01230 277.73993
 279.15787 280.42325 281.66229 283.00549 284.19354 285.24820 286.21164 287.08984
 287.88724 288.60449 289.23328 290.05646
 366.78100 356.34760 345.79219 334.67079 323.08638 311.29298 299.17557 286.99117
 274.71576 262.62536 250.64695 239.96055 230.09514 221.21174 213.40633 206.42093
 200.26752 195.21812 191.81271 189.86731 188.91690 188.99350 189.84109 191.16169
 192.89928 195.00688 197.28247 199.65407 202.11166 204.60426 206.70485 208.55945
 210.19804 211.35564 211.59723 211.83783 211.78742 211.50502 211.15061 210.79321
 210.42280 210.14540 209.96599 209.84259 209.78318 210.12678 210.52538 210.92697
 211.73257 212.92316 214.18576 215.98135 217.92195 219.97754 222.08514 224.18073
 226.25333 228.34992 230.45952 232.57811 234.71971 236.90430 239.17290 241.55549
 244.18909 246.45268 248.46728 250.24487 251.67447 252.81006 253.64466 253.97325
 254.02285 253.80944 253.18204 252.14263 250.76123 248.93482 246.85642 244.70201
 242.50561 240.32220 238.15480 236.00639 233.87899 231.75858 229.79718 227.96677
 226.26237 224.74697 223.38956 222.17416 221.06875 220.04135 219.15794 218.31154
 217.56613 216.75873 215.86932 215.24592 214.70851 214.68311 214.62311 214.88094
 215.55026 216.18336 216.94980 218.26991 219.77174 222.60054 227.44749 232.09242
 235.81496 239.16376 241.76595 244.03400 246.73825 249.80696 253.25784 256.95804
 260.42740 263.51852 266.32642 269.01425 271.59247 273.98724 276.04175 277.78967
 279.21301 280.47281 281.69611 283.03735 284.22620 285.28125 286.24466 287.12216
 287.91959 288.63657 289.26526 290.08636
 366.78100 356.34722 345.79143 334.66965 323.08487 311.29109 299.17330 286.98852
 274.71274 262.62196 250.64317 239.95639 230.09061 221.20683 213.40104 206.41526
 200.26148 195.21170 191.80591 189.86013 188.90935 188.98557 189.83278 191.15300
 192.89022 194.99744 197.27265 199.64387 202.10109 204.59331 206.69352 208.54774
 210.18596 211.34318 211.58439 211.82461 211.77383 211.49105 211.13626 210.77848
 210.40770 210.12992 209.95013 209.82635 209.76657 210.10979 210.50800 210.90922
 211.71444 212.90466 214.16687 215.96209 217.90231 219.95753 222.06474 224.15996
 226.23218 228.32840 230.43761 232.55583 234.69705 236.88126 239.14948 241.53170
 244.16492 246.42813 248.44235 250.21957 251.64879 252.78400 253.61822 253.94644
 253.99566 253.78187 253.15409 252.11431 250.73253 248.90574 246.82696 244.67218
 242.47540 240.29161 238.12383 235.97505 233.84727 231.72648 229.76470 227.93392
 226.22914 224.71335 223.35557 222.13979 221.03401 220.00622 219.12244 218.27566
 217.52988 216.72209 215.83231 215.20853 214.67075 214.66795 214.66136 214.99580
 215.54927 216.23303 217.07796 218.37421 219.81776 222.60855 227.46588 232.08502
 235.75587 239.01469 241.54720 243.81047 246.56531 249.69560 253.19257 256.91159
 260.37097 263.44958 266.26160 268.96613 271.56662 273.98520 276.06390 277.83066
 279.25925 280.51880 281.73175 283.07178 284.26080 285.31625 286.27838 287.15652
 287.95297 288.67007 289.29852 290.11490
 366.78100 356.34668 345.79037 334.66805 323.08274 311.28842 299.17011 286.98479
 274.70848 262.61716 250.63785 239.95053 230.08422 221.19990 213.39359 206.40727
 200.25296 195.20264 191.79633 189.85001 188.89870 188.97438 189.82107 191.14075
 192.87743 194.98412 197.25880 199.62949 202.08617 204.57786 206.67754 208.53123
 210.16891 211.32560 211.56628 211.80597 211.75465 211.47134 211.11602 210.75771
 210.38639 210.10808 209.92776 209.80345 209.74313 210.08581 210.48350 210.88418
 211.68887 212.87855 214.14024 215.93492 217.87461 219.92929 222.03598 224.13066
 226.20235 228.29803 230.40672 232.52440 234.66509 236.84877 239.11646 241.49814
 244.13083 246.39351 248.40720 250.18388 251.61256 252.74725 253.58093 253.90862
 253.95730 253.74299 253.11467 252.07436 250.69204 248.86473 246.78541 244.63010
 242.43278 240.24847 238.08015 235.93084 233.80252 231.68121 229.71889 227.88758
 226.18226 224.66594 223.30763 222.09131 220.98500 219.95668 219.07237 218.22505
 217.47874 216.67042 215.78011 215.15579 214.61748 214.64354 214.70512 215.09319
 215.57858 216.30325 217.19882 218.44955 219.83638 222.61345 227.47830 232.07089
 235.68810 238.85284 241.31885 243.58633 246.39990 249.59421 253.13596 256.87299
 260.32510 263.39597 266.21268 268.93256 271.55206 273.99384 276.09637 277.87964
 279.30893 280.55518 281.75729 283.10254 284.29233 285.34888 286.31186 287.18915
 287.98492 288.70285 289.33249 290.14719
 366.78100 356.34609 345.78917 334.66626 323.08034 311.28543 299.16651 286.98060
 274.70368 262.61177 250.63186 239.94394 230.07703 221.19211 213.38520 206.39828
 200.24337 195.19245 191.78554 189.83863 188.88671 188.96180 189.80788 191.12697
 192.86305 194.96914 197.24322 199.61331 202.06940 204.56048 206.65957 208.51265
 210.14974 211.30582 211.54591 211.78499 211.73308 211.44917 211.09325 210.73434
 210.36242 210.08351 209.90259 209.77768 209.71676 210.05885 210.45594 210.85602
 211.66011 212.84919 214.11028 215.90436 217.84345 219.89753 222.00362 224.09771
 226.16879 228.26388 230.37196 232.48905 234.62913 236.81222 239.07930 241.46039
 244.09248 246.35456 248.36765 250.14373 251.57182 252.70590 253.53899 253.86607
 253.91416 253.69925 253.07033 252.02942 250.64650 248.81859 246.73867 244.58276
 242.38484 240.19993 238.03102 235.88110 233.75219 231.63027 229.66736 227.83544
 226.12953 224.61261 223.25370 222.03679 220.92987 219.90096 219.01604 218.16813
 217.42121 216.61230 215.72139 215.09647 214.55756 214.61469 214.74963 215.17726
 215.62610 216.38332 217.31906 218.51930 219.85371 222.62143 227.48758 232.05095
 235.61160 238.68040 241.08487 243.36101 246.23914 249.49852 253.08420 256.83572
 260.28101 263.34827 266.17142 268.90591 271.54422 274.00824 276.13971 277.94873
 279.38968 280.63315 281.77786 283.12967 284.31735 285.37091 286.33258 287.20682
 288.00043 288.71683 289.34857 290.16785
 366.78100 356.34580 345.78861 334.66541 323.07922 311.28402 299.16483 286.97863
 274.70143 262.60924 250.62904 239.94085 230.07365 221.18846 213.38126 206.39407
 200.23887 195.18767 191.78048 189.83328 188.88109 188.95589 189.80170 191.12050
 192.85630 194.96211 197.23591 199.60572 202.06152 204.55233 206.65113 208.50393
 210.14074 211.29654 211.53635 211.77515 211.72296 211.43876 211.08256 210.72337
 210.35117 210.07198 209.89078 209.76559 209.70439 210.04620 210.44300 210.84280
 211.64661 212.83541 214.09622 215.89002 217.82883 219.88263 221.98843 224.08224
 226.15304 228.24785 230.35565 232.47246 234.61226 236.79506 239.06187 241.44267
 244.07448 246.33628 248.34909 250.12489 251.55270 252.68650 253.51930 253.84611
 253.89391 253.67872 253.04952 252.00833 250.62513 248.79693 246.71674 244.56054
 242.36235 240.17715 238.00796 235.85776 233.72856 231.60637 229.64317 227.81098
 226.10478 224.58759 223.22839 222.01120 220.90400 219.87480 218.98961 218.14141
 217.39422 216.58502 215.69383 215.06863 214.52943 214.60004 214.76688 215.28261
 215.68968 216.45695 217.44124 218.58926 219.88867 222.64340 227.50012 232.02667
 235.52084 238.49951 240.85576 243.15076 246.08656 249.40710 253.03156 256.78583
 260.21716 263.27628 266.10764 268.86014 271.51855 274.00409 276.16238 277.99603
 279.45282 280.70621 281.81171 283.16364 284.35110 285.40225 286.36435 287.23825
 288.03442 288.74963 289.38040 290.20322
 366.78100 356.34603 345.78906 334.66609 323.08012 311.28515 299.16619 286.98022
 274.70325 262.61128 250.63131 239.94334 230.07637 221.19140 213.38443 206.39746
 200.24249 195.19153 191.78456 189.83759 188.88562 188.96065 189.80668 191.12571
 192.86174 194.96777 197.24180 199.61184 202.06787 204.55890 206.65793 208.51096
 210.14799 211.30402 211.54405 211.78308 211.73111 211.44714 211.09118 210.73221
 210.36024 210.08127 209.90030 209.77533 209.71436 210.05639 210.45342 210.85345
 211.65748 212.84652 214.10755 215.90158 217.84061 219.89464 222.00067 224.09470
 226.16573 228.26076 230.36879 232.48583 234.62586 236.80889 239.07592 241.45695
 244.08898 246.35101 248.36404 250.14007 251.56810 252.70213 253.53517 253.86220
 253.91023 253.69526 253.06629 252.02532 250.64235 248.81438 246.73441 244.57844
 242.38047 240.19551 238.02654 235.87657 233.74760 231.62563 229.66266 227.83069
 226.12472 224.60775 223.24878 222.03182 220.92485 219.89588 219.01091 218.16294
 217.41597 216.60700 215.71603 215.09106 214.55209 214.61116 214.75072 215.39113
 215.78183 216.53453 217.55693 218.65089 219.91542 222.65219 227.49930 231.98856
 235.41713 238.31032 240.62761 242.94745 245.94366 249.32101 252.97818 256.73450
 260.15094 263.20020 266.03705 268.80823 271.48718 273.99292 276.17563 278.02390
 279.48862 280.74380 281.84872 283.19833 284.38431 285.43570 286.39767 287.27182
 288.06723 288.78464 289.41711 290.23148
 366.78100 356.34629 345.78958 334.66687 323.08116 311.28645 299.16774 286.98203
 274.70532 262.61361 250.63390 239.94619 230.07948 221.19477 213.38806 206.40135
 200.24664 195.19593 191.78922 189.84251 188.89080 188.96609 189.81238 191.13167
 192.86796 194.97425 197.24854 199.61883 202.07513 204.56642 206.66571 208.51900
 210.15629 211.31258 211.55287 211.79216 211.74045 211.45674 211.10103 210.74232
 210.37061 210.09190 209.91119 209.78648 209.72577 210.06806 210.46535 210.86564
 211.66993 212.85922 214.12051 215.91480 217.85409 219.90838 222.01467 224.10896
 226.18025 228.27554 230.38383 232.50112 234.64141 236.82470 239.09199 241.47328
 244.10557 246.36786 248.38115 250.15744 251.58573 252.72002 253.55331 253.88060
 253.92889 253.71418 253.08547 252.04476 250.66205 248.83434 246.75463 244.59892
 242.40121 240.21650 238.04779 235.89809 233.76938 231.64767 229.68496 227.85325
 226.14754 224.63083 223.27212 222.05541 220.94870 219.91999 219.03528 218.18757
 217.44086 216.63215 215.74144 215.11673 214.57802 214.62454 214.73448 215.47905
 215.88368 216.61430 217.67067 218.71658 219.94084 222.65346 227.49048 231.94328
 235.31085 238.12773 240.41626 242.76488 245.82028 249.24940 252.93248 256.68979
 260.09360 263.13593 265.97913 268.76666 271.46490 273.98550 276.18973 278.04752
 279.52240 280.76788 281.88705 283.22244 284.40662 285.45874 286.42044 287.29483
 288.09030 288.80835 289.44437 290.26099
 366.78100 356.34628 345.78956 334.66684 323.08113 311.28641 299.16769 286.98197
 274.70525 262.61353 250.63381 239.94610 230.07938 221.19466 213.38794 206.40122
 200.24650 195.19579 191.78907 189.84235 188.89063 188.96591 189.81219 191.13147
 192.86776 194.97404 197.24832 199.61860 202.07488 204.56616 206.66544 208.51873
 210.15601 211.31229 211.55257 211.79185 211.74013 211.45641 211.10070 210.74198
 210.37026 210.09154 209.91082 209.78610 209.72539 210.06767 210.46495 210.86523
 211.66951 212.85879 214.12007 215.91436 217.85364 219.90792 222.01420 224.10848
 226.17976 228.27504 230.38333 232.50061 234.64089 236.82417 239.09145 241.47273
 244.10502 246.36730 248.38058 250.15686 251.58514 252.71942 253.55270 253.87999
 253.92827 253.71355 253.08483 252.04411 250.66139 248.83367 246.75396 244.59824
 242.40052 240.21580 238.04708 235.89736 233.76864 231.64693 229.68421 227.85249
 226.14677 224.63005 223.27133 222.05462 220.94790 219.91918 219.03446 218.18674
 217.44002 216.63130 215.74059 215.11587 214.57715 214.62305 214.73151 215.56265
 216.00470 216.71756 217.77831 218.78751 219.98497 222.67311 227.48697 231.88922
 235.19003 237.94519 240.21912 242.61127 245.71208 249.18781 252.89140 256.63608
 260.02249 263.05984 265.91589 268.72379 271.43918 273.97647 276.19971 278.07440
 279.55365 280.79974 281.88510 283.23624 284.41977 285.47214 286.43265 287.30664
 288.10120 288.81769 289.45145 290.27020
 366.78100 356.34645 345.78990 334.66735 323.08180 311.28725 299.16870 286.98315
 274.70660 262.61505 250.63550 239.94795 230.08140 221.19685 213.39030 206.40375
 200.24920 195.19865 191.79210 189.84555 188.89400 188.96945 189.81590 191.13535
 192.87180 194.97825 197.25270 199.62315 202.07960 204.57105 206.67050 208.52395
 210.16140 211.31785 211.55830 211.79775 211.74620 211.46265 211.10710 210.74855
 210.37700 210.09845 209.91790 209.79335 209.73280 210.07525 210.47270 210.87315
 211.67760 212.86705 214.12850 215.92295 217.86240 219.91685 222.02331 224.11776
 226.18921 228.28466 230.39311 232.51056 234.65101 236.83446 239.10191 241.48336
 244.11581 246.37826 248.39171 250.16816 251.59661 252.73106 253.56451 253.89196
 253.94041 253.72586 253.09731 252.05676 250.67421 248.84666 246.76711 244.61156
 242.41401 240.22946 238.06091 235.91136 233.78281 231.66126 229.69871 227.86716
 226.16161 224.64506 223.28651 222.06996 220.96341 219.93486 219.05031 218.20276
 217.45621 216.64766 215.75711 215.13256 214.59401 214.62988 214.71465 215.64778
 216.15341 216.84947 217.88452 218.85590 220.02130 222.68634 227.47684 231.82088
 235.05298 237.75119 240.01707 242.46115 245.60620 249.12614 252.84720 256.57233
 259.93912 262.97272 265.84601 268.67609 271.40710 273.95047 276.18359 278.07205
 279.55685 280.80988 281.89407 283.23886 284.42722 285.48190 286.44415 287.31808
 288.11285 288.83160 289.45963 290.27393
 366.78100 356.34679 345.79057 334.66836 323.08315 311.28893 299.17072 286.98550
 274.70929 262.61808 250.63886 239.95165 230.08544 221.20122 213.39501 206.40880
 200.25458 195.20437 191.79816 189.85194 188.90073 188.97651 189.82330 191.14309
 192.87987 194.98666 197.26145 199.63223 202.08902 204.58081 206.68059 208.53438
 210.17216 211.32895 211.56974 211.80952 211.75831 211.47510 211.11988 210.76167
 210.39046 210.11224 209.93203 209.80782 209.74760 210.09039 210.48817 210.88896
 211.69375 212.88353 214.14532 215.94011 217.87989 219.93468 222.04147 224.13625
 226.20804 228.30382 230.41261 232.53040 234.67118 236.85497 239.12276 241.50454
 244.13733 246.40012 248.41390 250.19069 251.61948 252.75426 253.58805 253.91583
 253.96462 253.75041 253.12219 252.08198 250.69977 248.87255 246.79334 244.63813
 242.44091 240.25670 238.08848 235.93927 233.81106 231.68984 229.72763 227.89642
 226.19120 224.67499 223.31678 222.10056 220.99435 219.96613 219.08192 218.23471
 217.48849 216.68028 215.79007 215.16585 214.62764 214.64633 214.69049 215.70964
 216.30588 216.99481 217.98732 218.91754 220.04826 222.69057 227.45555 231.74486
 234.91594 237.55618 239.81648 242.31354 245.51291 249.07451 252.80910 256.51910
 259.86829 262.89844 265.78275 268.63177 271.37625 273.92508 276.16385 278.05893
 279.54123 280.79694 281.90237 283.23453 284.42554 285.48105 286.44254 287.31781
 288.11395 288.83188 289.45819 290.27191
 366.78100 356.34714 345.79128 334.66942 323.08456 311.29070 299.17283 286.98797
 274.71211 262.62125 250.64239 239.95553 230.08967 221.20581 213.39995 206.41409
 200.26022 195.21036 191.80450 189.85864 188.90778 188.98392 189.83106 191.15120
 192.88834 194.99548 197.27061 199.64175 202.09889 204.59103 206.69117 208.54531
 210.18345 211.34059 211.58173 211.82187 211.77101 211.48814 211.13328 210.77542
 210.40456 210.12670 209.94684 209.82298 209.76312 210.10626 210.50440 210.90553
 211.71067 212.90081 214.16295 215.95809 217.89823 219.95337 222.06051 224.15565
 226.22779 228.32392 230.43306 232.55120 234.69234 236.87648 239.14462 241.52676
 244.15990 246.42304 248.43718 250.21431 251.64345 252.77859 253.61273 253.94087
 253.99001 253.77615 253.14829 252.10843 250.72657 248.89971 246.82084 244.66598
 242.46912 240.28526 238.11740 235.96854 233.84068 231.71982 229.75796 227.92710
 226.22223 224.70637 223.34851 222.13265 221.02679 219.99893 219.11507 218.26821
 217.52235 216.71449 215.82462 215.20076 214.66290 214.66313 214.66367 215.76411
 216.45393 217.13664 218.08551 218.98956 220.06488 222.67326 227.42838 231.66663
 234.78236 237.37027 239.63348 242.18735 245.44186 249.04048 252.78249 256.47461
 259.80627 262.83264 265.72675 268.59241 271.34808 273.89951 276.14383 278.04544
 279.52011 280.77554 281.89291 283.22690 284.41608 285.47043 286.43250 287.30823
 288.10303 288.82108 289.44977 290.26285
 366.78100 356.34759 345.79217 334.67076 323.08634 311.29293 299.17551 286.99110
 274.71568 262.62527 250.64686 239.96044 230.09503 221.21161 213.40620 206.42078
 200.26737 195.21795 191.81254 189.86712 188.91671 188.99330 189.84088 191.16147
 192.89905 195.00664 197.28222 199.65381 202.11139 204.60398 206.70457 208.55915
 210.19774 211.35532 211.59691 211.83749 211.78708 211.50466 211.15025 210.79283
 210.42242 210.14501 209.96559 209.84218 209.78276 210.12635 210.52493 210.92652
 211.73210 212.92269 214.18528 215.98086 217.92145 219.97703 222.08462 224.18020
 226.25279 228.34937 230.45896 232.57754 234.71913 236.90372 239.17230 241.55489
 244.18847 246.45206 248.46664 250.24423 251.67381 252.80940 253.64399 253.97257
 254.02216 253.80874 253.18133 252.14191 250.76050 248.93408 246.85567 244.70125
 242.50484 240.32143 238.15401 236.00560 233.87818 231.75777 229.79635 227.96594
 226.26152 224.74611 223.38870 222.17328 221.06787 220.04045 219.15704 218.31062
 217.56521 216.75779 215.86838 215.24496 214.70755 214.68399 214.62836 215.81927
 216.62097 217.30299 218.18065 218.97890 220.07042 222.69057 227.40703 231.58360
 234.64267 237.17862 239.44925 242.06505 245.37604 249.00926 252.75479 256.42502
 259.73776 262.76187 265.66742 268.55118 271.31754 273.87070 276.12119 278.03027
 279.49670 280.75247 281.87912 283.21307 284.40207 285.45673 286.41953 287.29364
 288.09045 288.80701 289.43546 290.25003
 366.78100 356.34804 345.79308 334.67212 323.08816 311.29520 299.17824 286.99428
 274.71932 262.62936 250.65140 239.96544 230.10048 221.21752 213.41256 206.42760
 200.27464 195.22568 191.82072 189.87576 188.92580 189.00284 189.85088 191.17192
 192.90996 195.01800 197.29404 199.66608 202.12412 204.61716 206.71820 208.57324
 210.21228 211.37032 211.61236 211.85340 211.80344 211.52148 211.16752 210.81056
 210.44060 210.16364 209.98468 209.86172 209.80276 210.14680 210.54584 210.94788
 211.75392 212.94496 214.20800 216.00404 217.94508 220.00112 222.10915 224.20519
 226.27823 228.37527 230.48531 232.60435 234.74639 236.93143 239.20047 241.58351
 244.21755 246.48159 248.49663 250.27467 251.70471 252.84075 253.67579 254.00483
 254.05487 253.84191 253.21495 252.17599 250.79503 248.96907 246.89111 244.73715
 242.54119 240.35823 238.19127 236.04331 233.91635 231.79639 229.83543 228.00547
 226.30151 224.78655 223.42959 222.21463 221.10967 220.08271 219.19975 218.35379
 217.60883 216.80187 215.91291 215.28995 214.75299 214.70586 214.59450 215.85358
 216.80457 217.49605 218.32607 219.00986 220.05130 222.68791 227.36945 231.47871
 234.47797 236.96281 239.24969 241.93839 245.31139 248.97913 252.72623 256.37180
 259.66592 262.69141 265.61011 268.51205 271.28738 273.84073 276.09900 278.01373
 279.47336 280.72784 281.86304 283.19806 284.38666 285.43958 286.40308 287.27725
 288.07391 288.79175 289.41870 290.23450
 366.78100 356.34848 345.79396 334.67344 323.08992 311.29740 299.18088 286.99736
 274.72284 262.63332 250.65580 239.97028 230.10576 221.22324 213.41872 206.43420
 200.28168 195.23316 191.82864 189.88412 188.93460 189.01208 189.86056 191.18204
 192.92052 195.02900 197.30548 199.67796 202.13644 204.62992 206.73140 208.58688
 210.22636 211.38484 211.62732 211.86880 211.81928 211.53776 211.18424 210.82772
 210.45820 210.18169 210.00317 209.88065 209.82213 210.16661 210.56609 210.96857
 211.77505 212.96653 214.23001 216.02649 217.96797 220.02445 222.13293 224.22941
 226.30289 228.40037 230.51085 232.63033 234.77281 236.95829 239.22777 241.61125
 244.24573 246.51021 248.52569 250.30417 251.73465 252.87113 253.70661 254.03609
 254.08657 253.87405 253.24753 252.20901 250.82849 249.00297 246.92545 244.77193
 242.57641 240.39389 238.22737 236.07985 233.95333 231.83381 229.87329 228.04377
 226.34025 224.82573 223.46921 222.25469 221.15017 220.12365 219.24113 218.39561
 217.65109 216.84457 215.95605 215.33353 214.79701 214.72762 214.56363 215.86847
 216.97862 217.69055 218.46651 219.08257 220.04811 222.66054 227.31987 231.36305
 234.30339 236.74431 239.05864 241.82724 245.26331 248.96280 252.70628 256.32458
 259.60205 262.62854 265.55908 268.47629 271.25772 273.80856 276.07251 277.98926
 279.44037 280.69403 281.84320 283.17917 284.36761 285.42056 286.38196 287.25757
 288.05310 288.76913 289.39914 290.21231
 366.78100 356.34895 345.79490 334.67485 323.09181 311.29976 299.18371 287.00066
 274.72661 262.63756 250.66051 239.97546 230.11142 221.22937 213.42532 206.44127
 200.28922 195.24117 191.83712 189.89307 188.94403 189.02198 189.87093 191.19288
 192.93183 195.04078 197.31773 199.69069 202.14964 204.64359 206.74554 208.60149
 210.24144 211.40039 211.64334 211.88530 211.83625 211.55520 211.20215 210.84610
 210.47705 210.20100 210.02296 209.90091 209.84286 210.18781 210.58776 210.99071
 211.79766 212.98961 214.25357 216.05052 217.99247 220.04942 222.15837 224.25532
 226.32927 228.42722 230.53818 232.65813 234.80108 236.98703 239.25698 241.64093
 244.27588 246.54084 248.55679 250.33574 251.76669 252.90364 253.73959 254.06954
 254.12049 253.90845 253.28240 252.24435 250.86430 249.03925 246.96220 244.80915
 242.61411 240.43206 238.26601 236.11896 233.99291 231.87386 229.91381 228.08476
 226.38172 224.86767 223.51162 222.29757 221.19352 220.16747 219.28542 218.44037
 217.69633 216.89028 216.00223 215.38018 214.84413 214.75050 214.52930 215.87955
 217.14476 217.88402 218.59331 219.16183 220.06310 222.62355 227.26384 231.24240
 234.12772 236.53365 238.88423 241.73656 245.23383 248.95975 252.69482 256.28253
 259.54236 262.56802 265.50827 268.43848 271.22284 273.76929 276.03619 277.94687
 279.38925 280.64401 281.81787 283.15652 284.34290 285.39758 286.35898 287.23416
 288.03012 288.74606 289.37494 290.18939
 366.78100 356.34942 345.79584 334.67626 323.09367 311.30209 299.18651 287.00393
 274.73035 262.64177 250.66518 239.98060 230.11702 221.23544 213.43186 206.44828
 200.29669 195.24911 191.84553 189.90195 188.95337 189.03179 189.88120 191.20362
 192.94304 195.05246 197.32988 199.70330 202.16271 204.65713 206.75955 208.61597
 210.25639 211.41581 211.65923 211.90164 211.85306 211.57248 211.21990 210.86432
 210.49574 210.22015 210.04257 209.92099 209.86341 210.20883 210.60925 211.01266
 211.82008 213.01250 214.27692 216.07434 218.01676 220.07417 222.18359 224.28101
 226.35543 228.45385 230.56527 232.68568 234.82910 237.01552 239.28594 241.67036
 244.30578 246.57120 248.58761 250.36703 251.79845 252.93587 253.77229 254.10271
 254.15412 253.94254 253.31696 252.27938 250.89980 249.07522 246.99863 244.84605
 242.65147 240.46989 238.30431 236.15773 234.03214 231.91356 229.95398 228.12540
 226.42282 224.90924 223.55365 222.34007 221.23649 220.21091 219.32933 218.48475
 217.74117 216.93558 216.04800 215.42642 214.89084 214.77197 214.49113 215.88805
 217.30901 218.07431 218.71867 219.23488 220.08514 222.58488 227.20203 231.11652
 233.95114 236.33080 238.72574 241.66325 245.21892 248.96645 252.68753 256.24081
 259.47998 262.50351 265.45416 268.39636 271.18143 273.72284 275.98987 277.88763
 279.32321 280.58456 281.78995 283.13000 284.31830 285.37039 286.33182 287.20746
 288.00278 288.71817 289.34698 290.16483
 366.78100 356.34989 345.79678 334.67766 323.09555 311.30444 299.18933 287.00722
 274.73410 262.64599 250.66988 239.98577 230.12266 221.24154 213.43843 206.45532
 200.30421 195.25710 191.85398 189.91087 188.96276 189.04165 189.89154 191.21443
 192.95431 195.06420 197.34209 199.71598 202.17587 204.67075 206.77364 208.63053
 210.27142 211.43131 211.67519 211.91808 211.86997 211.58986 211.23775 210.88263
 210.51452 210.23941 210.06230 209.94119 209.88407 210.22996 210.63085 211.03474
 211.84263 213.03551 214.30040 216.09829 218.04118 220.09907 222.20895 224.30684
 226.38173 228.48062 230.59251 232.71340 234.85728 237.04417 239.31506 241.69995
 244.33584 246.60172 248.61861 250.39850 251.83039 252.96828 253.80516 254.13605
 254.18794 253.97683 253.35172 252.31460 250.93549 249.11138 247.03527 244.88316
 242.68904 240.50793 238.34282 236.19671 234.07160 231.95348 229.99437 228.16626
 226.46415 224.95104 223.59592 222.38281 221.27970 220.25459 219.37348 218.52936
 217.78625 216.98114 216.09403 215.47292 214.93781 214.79207 214.44772 215.89999
 217.46895 218.25581 218.84633 219.30568 220.10782 222.54718 227.13448 230.98651
 233.77380 236.13530 238.58005 241.60320 245.21428 248.97798 252.68066 256.19583
 259.41284 262.43423 265.39661 268.35120 271.13580 273.67163 275.93567 277.81732
 279.24890 280.52151 281.75858 283.10211 284.28690 285.33960 286.30099 287.17484
 287.96997 288.68741 289.31445 290.12769
 366.78100 356.35037 345.79774 334.67911 323.09748 311.30685 299.19222 287.01059
 274.73796 262.65033 250.67470 239.99107 230.12844 221.24781 213.44518 206.46255
 200.31192 195.26529 191.86266 189.92003 188.97240 189.05177 189.90214 191.22551
 192.96588 195.07625 197.35462 199.72899 202.18936 204.68473 206.78810 208.64547
 210.28684 211.44721 211.69158 211.93495 211.88732 211.60769 211.25606 210.90143
 210.53380 210.25917 210.08254 209.96191 209.90528 210.25165 210.65302 211.05739
 211.86576 213.05913 214.32450 216.12287 218.06624 220.12461 222.23498 224.33335
 226.40872 228.50809 230.62046 232.74183 234.88620 237.07357 239.34494 241.73031
 244.36668 246.63305 248.65043 250.43080 251.86317 253.00154 253.83891 254.17028
 254.22265 254.01202 253.38739 252.35076 250.97213 249.14850 247.07287 244.92124
 242.72761 240.54698 238.38235 236.23672 234.11209 231.99446 230.03583 228.20820
 226.50657 224.99394 223.63931 222.42668 221.32405 220.29942 219.41879 218.57516
 217.83253 217.02790 216.14127 215.52064 214.98601 214.81210 214.40126 215.91959
 217.61818 218.43106 218.97292 219.37996 220.13480 222.51408 227.06287 230.85269
 233.59575 235.94490 238.44308 241.55225 245.21628 248.99197 252.67171 256.14719
 259.34192 262.36200 265.33881 268.30396 271.08667 273.61594 275.87274 277.73578
 279.16699 280.45486 281.72379 283.06796 284.25296 285.30435 286.26416 287.13739
 287.93161 288.64926 289.27405 290.09003
 366.78100 356.35079 345.79857 334.68036 323.09915 311.30894 299.19472 287.01351
 274.74130 262.65409 250.67887 239.99566 230.13345 221.25324 213.45102 206.46881
 200.31860 195.27239 191.87017 189.92796 188.98075 189.06054 189.91132 191.23511
 192.97590 195.08669 197.36547 199.74026 202.20105 204.69683 206.80062 208.65841
 210.30020 211.46098 211.70577 211.94956 211.90235 211.62313 211.27192 210.91771
 210.55050 210.27628 210.10007 209.97986 209.92365 210.27043 210.67222 211.07701
 211.88580 213.07958 214.34537 216.14416 218.08795 220.14673 222.25752 224.35631
 226.43209 228.53188 230.64467 232.76646 234.91124 237.09903 239.37082 241.75661
 244.39339 246.66018 248.67797 250.45876 251.89154 253.03033 253.86812 254.19991
 254.25269 254.04248 253.41827 252.38206 251.00384 249.18063 247.10542 244.95420
 242.76099 240.58078 238.41657 236.27135 234.14714 232.02993 230.07172 228.24450
 226.54329 225.03108 223.67687 222.46465 221.36244 220.33823 219.45802 218.61480
 217.87259 217.06838 216.18217 215.56195 215.02774 214.82867 214.35837 215.94243
 217.75555 218.60327 219.10173 219.46039 220.16695 222.48479 226.98706 230.71585
 233.41707 235.75847 238.31343 241.50894 245.22270 249.00551 252.65984 256.09531
 259.26929 262.29190 265.28351 268.25644 271.03448 273.55597 275.79971 277.64218
 279.07666 280.38672 281.68259 283.02768 284.21271 285.26294 286.22211 287.09579
 287.88892 288.60516 289.23151 290.04605
 366.78100 356.35109 345.79917 334.68126 323.10034 311.31043 299.19652 287.01560
 274.74369 262.65677 250.68186 239.99894 230.13703 221.25712 213.45520 206.47329
 200.32337 195.27746 191.87555 189.93363 188.98672 189.06680 189.91789 191.24197
 192.98306 195.09415 197.37323 199.74832 202.20940 204.70549 206.80958 208.66766
 210.30975 211.47083 211.71592 211.96001 211.91309 211.63418 211.28326 210.92935
 210.56243 210.28852 210.11261 209.99269 209.93678 210.28386 210.68595 211.09104
 211.90012 213.09421 214.36029 216.15938 218.10347 220.16255 222.27364 224.37272
 226.44881 228.54889 230.66198 232.78407 234.92915 237.11724 239.38932 241.77541
 244.41250 246.67958 248.69767 250.47875 251.91184 253.05092 253.88901 254.22110
 254.27418 254.06427 253.44035 252.40444 251.02653 249.20361 247.12870 244.97778
 242.78487 240.60496 238.44104 236.29613 234.17221 232.05530 230.09738 228.27047
 226.56956 225.05764 223.70373 222.49181 221.38990 220.36599 219.48607 218.64316
 217.90124 217.09733 216.21141 215.59150 215.05759 214.83873 214.32164 215.95215
 217.89090 218.77948 219.23218 219.54520 220.20180 222.45876 226.91032 230.57779
 233.23834 235.57666 238.19147 241.47256 245.23271 249.01859 252.64561 256.04245
 259.19861 262.22534 265.23071 268.20688 270.97726 273.48828 275.71246 277.53229
 278.97522 280.31210 281.63602 282.98190 284.16510 285.21512 286.17343 287.04663
 287.84067 288.55667 289.18182 289.99619
 366.78100 356.35115 345.79929 334.68144 323.10058 311.31073 299.19688 287.01602
 274.74417 262.65731 250.68246 239.99961 230.13775 221.25790 213.45604 206.47419
 200.32434 195.27848 191.87663 189.93477 188.98792 189.06807 189.91921 191.24336
 192.98450 195.09565 197.37480 199.74994 202.21109 204.70723 206.81138 208.66953
 210.31167 211.47282 211.71796 211.96211 211.91526 211.63640 211.28555 210.93169
 210.56484 210.29099 210.11513 209.99528 209.93942 210.28657 210.68872 211.09386
 211.90301 213.09715 214.36330 216.16245 218.10659 220.16574 222.27688 224.37603
 226.45218 228.55232 230.66547 232.78761 234.93276 237.12091 239.39305 241.77920
 244.41634 246.68349 248.70164 250.48278 251.91593 253.05507 253.89322 254.22537
 254.27851 254.06866 253.44480 252.40895 251.03109 249.20824 247.13339 244.98253
 242.78968 240.60982 238.44597 236.30112 234.17726 232.06041 230.10255 228.27570
 226.57485 225.06299 223.70914 222.49728 221.39543 220.37158 219.49172 218.64887
 217.90701 217.10316 216.21731 215.59745 215.06360 214.83475 214.29405 215.94321
 218.02013 218.95848 219.35901 219.62860 220.25223 222.44139 226.83034 230.43610
 233.05884 235.39973 238.07961 241.44553 245.24814 249.03307 252.63126 255.99246
 259.13297 262.16373 265.18002 268.15396 270.91364 273.41037 275.60904 277.40759
 278.86414 280.23151 281.58081 282.92654 284.10852 285.15839 286.11551 286.98828
 287.78195 288.49750 289.12537 289.93741
 366.78100 356.35090 345.79881 334.68071 323.09961 311.30952 299.19542 287.01433
 274.74223 262.65513 250.68004 239.99694 230.13484 221.25475 213.45265 206.47056
 200.32046 195.27436 191.87227 189.93017 188.98307 189.06298 189.91388 191.23778
 192.97869 195.08959 197.36850 199.74340 202.20430 204.70021 206.80411 208.66201
 210.30392 211.46482 211.70973 211.95363 211.90653 211.62744 211.27634 210.92224
 210.55515 210.28105 210.10495 209.98486 209.92876 210.27567 210.67757 211.08247
 211.89138 213.08528 214.35118 216.15009 218.09399 220.15289 222.26380 224.36270
 226.43861 228.53851 230.65141 232.77332 234.91822 237.10612 239.37803 241.76393
 244.40084 246.66774 248.68564 250.46655 251.89945 253.03835 253.87626 254.20816
 254.26106 254.05097 253.42687 252.39078 251.01268 249.18958 247.11449 244.96339
 242.77029 240.59020 238.42610 236.28101 234.15691 232.03981 230.08172 228.25462
 226.55352 225.04143 223.68733 222.47523 221.37314 220.34904 219.46895 218.62585
 217.88375 217.07966 216.19356 215.57346 215.03937 214.81393 214.28134 215.93098
 218.13542 219.12811 219.49873 219.71033 220.28601 222.41235 226.74565 230.29181
 232.88124 235.23273 237.98103 241.43111 245.27203 249.05113 252.61964 255.94768
 259.07455 262.10892 265.13202 268.09714 270.84290 273.32159 275.48944 277.26859
 278.74509 280.14340 281.51312 282.85828 284.03943 285.08731 286.04556 286.91809
 287.71286 288.43088 289.05930 289.86621
 366.78100 356.35043 345.79785 334.67928 323.09770 311.30713 299.19255 287.01098
 274.73841 262.65083 250.67526 239.99168 230.12911 221.24854 213.44596 206.46339
 200.31281 195.26624 191.86366 189.92109 188.97352 189.05294 189.90337 191.22679
 192.96722 195.07764 197.35607 199.73050 202.19092 204.68635 206.78977 208.64720
 210.28862 211.44905 211.69348 211.93690 211.88933 211.60975 211.25818 210.90361
 210.53603 210.26146 210.08488 209.96431 209.90773 210.25416 210.65559 211.06001
 211.86844 213.06186 214.32729 216.12571 218.06914 220.12757 222.23799 224.33642
 226.41184 228.51127 230.62369 232.74512 234.88955 237.07697 239.34840 241.73382
 244.37025 246.63668 248.65410 250.43453 251.86695 253.00538 253.84280 254.17423
 254.22666 254.01608 253.39151 252.35493 250.97636 249.15278 247.07721 244.92564
 242.73206 240.55149 238.38691 236.24134 234.11676 231.99919 230.04062 228.21304
 226.51147 224.99889 223.64432 222.43175 221.32917 220.30460 219.42402 218.58045
 217.83787 217.03330 216.14673 215.52615 214.99158 214.78368 214.29250 215.91641
 218.23491 219.27936 219.63013 219.78064 220.30914 222.37572 226.65327 230.14449
 232.70708 235.07864 237.90186 241.43465 245.30928 249.07877 252.61674 255.91277
 259.02484 262.05896 265.08536 268.03583 270.76410 273.22089 275.35770 277.12506
 278.62582 280.05246 281.43616 282.77597 283.95563 285.00381 285.96191 286.83340
 287.63129 288.34875 288.97952 289.79059
 366.78100 356.35020 345.79739 334.67859 323.09678 311.30598 299.19117 287.00937
 274.73656 262.64876 250.67295 239.98915 230.12634 221.24554 213.44274 206.45993
 200.30913 195.26232 191.85952 189.91671 188.96891 189.04810 189.89830 191.22149
 192.96169 195.07188 197.35008 199.72427 202.18447 204.67967 206.78286 208.64006
 210.28125 211.44145 211.68564 211.92884 211.88103 211.60123 211.24942 210.89462
 210.52681 210.25201 210.07521 209.95440 209.89760 210.24379 210.64499 211.04918
 211.85738 213.05057 214.31577 216.11396 218.05716 220.11535 222.22555 224.32375
 226.39894 228.49814 230.61033 232.73153 234.87572 237.06292 239.33411 241.71931
 244.35550 246.62170 248.63889 250.41909 251.85128 252.98948 253.82668 254.15787
 254.21007 253.99926 253.37446 252.33765 250.95885 249.13504 247.05924 244.90743
 242.71363 240.53282 238.36802 236.22222 234.09741 231.97961 230.02080 228.19300
 226.49119 224.97839 223.62358 222.41078 221.30797 220.28317 219.40236 218.55856
 217.81575 217.01095 216.12415 215.50334 214.96854 214.77269 214.31000 215.89032
 218.30829 219.41759 219.76012 219.84863 220.30298 222.32028 226.56352 230.00862
 232.55463 234.95467 237.85101 241.46257 245.36617 249.11958 252.62328 255.88666
 258.98242 262.01666 265.04211 267.97131 270.67758 273.10837 275.21213 276.96799
 278.49185 279.94617 281.34381 282.68170 283.86111 284.90784 285.86508 286.73944
 287.53864 288.25861 288.89014 289.70309
 366.78100 356.34965 345.79630 334.67695 323.09460 311.30325 299.18790 287.00555
 274.73220 262.64385 250.66750 239.98315 230.11980 221.23845 213.43510 206.45175
 200.30040 195.25305 191.84970 189.90635 188.95800 189.03665 189.88630 191.20895
 192.94860 195.05825 197.33590 199.70955 202.16920 204.66385 206.76650 208.62315
 210.26380 211.42345 211.66710 211.90975 211.86140 211.58105 211.22870 210.87335
 210.50500 210.22965 210.05230 209.93095 209.87360 210.21925 210.61990 211.02355
 211.83120 213.02385 214.28850 216.08615 218.02880 220.08645 222.19610 224.29375
 226.36840 228.46705 230.57870 232.69935 234.84300 237.02965 239.30030 241.68495
 244.32060 246.58625 248.60290 250.38255 251.81420 252.95185 253.78850 254.11915
 254.17080 253.95945 253.33410 252.29675 250.91740 249.09305 247.01670 244.86435
 242.67000 240.48865 238.32330 236.17695 234.05160 231.93325 229.97390 228.14555
 226.44320 224.92985 223.57450 222.36115 221.25780 220.23245 219.35110 218.50675
 217.76340 216.95805 216.07070 215.44935 214.91400 214.74394 214.34215 215.87614
 218.35291 219.51889 219.85342 219.90205 220.32060 222.28522 226.48157 229.88554
 232.41542 234.84720 237.82007 241.50600 245.43314 249.17065 252.64194 255.87576
 258.95490 261.98306 265.00317 267.90500 270.58337 272.98172 275.04828 276.79904
 278.35324 279.83426 281.23282 282.56165 283.74020 284.78638 285.74329 286.62030
 287.41772 288.14328 288.77451 289.59308
 366.78100 356.34754 345.79208 334.67062 323.08616 311.29270 299.17524 286.99078
 274.71532 262.62486 250.64640 239.95994 230.09448 221.21102 213.40556 206.42010
 200.26664 195.21718 191.81172 189.86626 188.91580 188.99234 189.83988 191.16042
 192.89796 195.00550 197.28104 199.65258 202.11012 204.60266 206.70320 208.55774
 210.19628 211.35382 211.59536 211.83590 211.78544 211.50298 211.14852 210.79106
 210.42060 210.14313 209.96367 209.84021 209.78075 210.12429 210.52283 210.92437
 211.72991 212.92045 214.18299 215.97853 217.91907 219.97461 222.08215 224.17769
 226.25023 228.34677 230.45631 232.57485 234.71639 236.90093 239.16947 241.55201
 244.18555 246.44909 248.46363 250.24117 251.67071 252.80625 253.64079 253.96933
 254.01887 253.80541 253.17795 252.13849 250.75703 248.93057 246.85211 244.69765
 242.50119 240.31773 238.15027 236.00181 233.87435 231.75389 229.79243 227.96197
 226.25751 224.74205 223.38459 222.16913 221.06367 220.03621 219.15275 218.30629
 217.56083 216.75337 215.86391 215.24045 214.70299 214.62363 214.43613 215.92241
 218.36420 219.56287 219.88101 219.91391 220.29153 222.21930 226.39207 229.76501
 232.30321 234.78647 237.83864 241.59749 245.54497 249.26114 252.69267 255.88875
 258.94058 261.95892 264.96631 267.83453 270.48260 272.85214 274.89661 276.65216
 278.22318 279.70129 281.10611 282.43320 283.60794 284.65396 285.61230 286.48819
 287.28998 288.01321 288.64725 289.46460
 366.78100 356.34554 345.78809 334.66463 323.07818 311.28272 299.16327 286.97681
 274.69936 262.60690 250.62645 239.93799 230.07054 221.18508 213.37763 206.39017
 200.23472 195.18326 191.77581 189.82835 188.87590 188.95044 189.79599 191.11453
 192.85008 194.95562 197.22917 199.59871 202.05426 204.54480 206.64335 208.49589
 210.13244 211.28798 211.52753 211.76607 211.71362 211.42916 211.07271 210.71325
 210.34080 210.06134 209.87989 209.75443 209.69298 210.03452 210.43107 210.83061
 211.63416 212.82270 214.08325 215.87679 217.81534 219.86888 221.97443 224.06797
 226.13852 228.23306 230.34061 232.45715 234.59670 236.77924 239.04579 241.42633
 244.05788 246.31942 248.33197 250.10751 251.53506 252.66860 253.50115 253.82769
 253.87524 253.65978 253.03033 251.98887 250.60542 248.77696 246.69651 244.54005
 242.34160 240.15614 237.98669 235.83623 233.70678 231.58432 229.62087 227.78841
 226.08195 224.56450 223.20504 221.98759 220.88013 219.85068 218.96522 218.11677
 217.36931 216.55986 215.66840 215.04295 214.50349 214.49628 214.47923 216.02895
 218.41859 219.61754 219.87852 219.78909 220.13072 222.08598 226.28607 229.65680
 232.20287 234.74435 237.88731 241.73183 245.71529 249.41603 252.81343 255.97659
 259.00110 261.99106 264.95969 267.76636 270.34671 272.62323 274.56912 276.30945
 277.95105 279.49963 280.91501 282.22269 283.38770 284.43143 285.38675 286.26169
 287.06299 287.78430 288.41733 289.23990
 366.78100 356.34636 345.78973 334.66709 323.08146 311.28682 299.16819 286.98255
 274.70592 262.61428 250.63465 239.94701 230.08038 221.19574 213.38911 206.40247
 200.24783 195.19720 191.79056 189.84393 188.89229 188.96766 189.81402 191.13339
 192.86975 194.97612 197.25048 199.62085 202.07721 204.56857 206.66794 208.52130
 210.15867 211.31503 211.55540 211.79476 211.74313 211.45949 211.10386 210.74522
 210.37359 210.09495 209.91432 209.78968 209.72904 210.07141 210.46877 210.86914
 211.67350 212.86287 214.12423 215.91860 217.85796 219.91233 222.01869 224.11306
 226.18442 228.27978 230.38815 232.50551 234.64588 236.82924 239.09661 241.47797
 244.11034 246.37270 248.38607 250.16243 251.59080 252.72516 253.55853 253.88589
 253.93425 253.71962 253.09098 252.05035 250.66771 248.84008 246.76044 244.60481
 242.40717 240.22254 238.05390 235.90427 233.77563 231.65399 229.69136 227.85972
 226.15409 224.63745 223.27882 222.06218 220.95555 219.92691 219.04228 218.19464
 217.44801 216.63937 215.74874 215.12410 214.58546 214.52678 214.38814 216.14491
 218.60240 219.74924 219.89813 219.60580 219.89813 221.90874 226.12866 229.47319
 232.02490 234.64886 237.91878 241.85449 245.87433 249.59595 252.99162 256.14520
 259.14450 262.10617 265.04398 267.79810 270.33292 272.57312 274.48596 276.15826
 277.74072 279.21262 280.52139 281.70654 282.79648 283.82288 284.77414 285.64615
 286.44742 287.17337 287.81195 288.64505
 366.78100 356.34859 345.79418 334.67377 323.09036 311.29795 299.18154 286.99813
 274.72372 262.63431 250.65690 239.97149 230.10708 221.22467 213.42026 206.43585
 200.28344 195.23503 191.83062 189.88621 188.93680 189.01439 189.86298 191.18457
 192.92316 195.03175 197.30834 199.68093 202.13952 204.63311 206.73470 208.59028
 210.22987 211.38846 211.63105 211.87264 211.82323 211.54182 211.18841 210.83200
 210.46259 210.18618 210.00777 209.88536 209.82695 210.17154 210.57113 210.97372
 211.78031 212.97190 214.23549 216.03208 217.97367 220.03026 222.13885 224.23544
 226.30903 228.40662 230.51721 232.63680 234.77939 236.96498 239.23457 241.61816
 244.25275 246.51734 248.53293 250.31152 251.74211 252.87870 253.71429 254.04388
 254.09447 253.88206 253.25565 252.21724 250.83683 249.01142 246.93401 244.78060
 242.58519 240.40278 238.23637 236.08896 233.96255 231.84314 229.88273 228.05332
 226.34991 224.83550 223.47909 222.26467 221.16026 220.13385 219.25144 218.40603
 217.66162 216.85521 215.96680 215.34439 214.80798 214.64268 214.25217 216.15193
 218.88451 220.01849 220.01837 219.48354 219.68423 221.71654 225.91513 229.19226
 231.73328 234.43079 237.83836 241.88348 245.99272 249.71332 253.07779 256.22198
 259.22025 262.19754 265.12558 267.84894 270.36633 272.62509 274.54544 276.26031
 277.84344 279.09821 280.27481 281.32123 282.24673 283.20120 284.14224 285.01318
 285.81573 286.55304 287.20288 288.05042
 366.78100 356.34943 345.79585 334.67628 323.09371 311.30214 299.18656 287.00399
 274.73042 262.64184 250.66527 239.98070 230.11713 221.23555 213.43198 206.44841
 200.29683 195.24926 191.84569 189.90211 188.95354 189.03197 189.88140 191.20382
 192.94325 195.05268 197.33010 199.70353 202.16296 204.65739 206.75981 208.61624
 210.25667 211.41609 211.65952 211.90195 211.85338 211.57280 211.22023 210.86466
 210.49608 210.22051 210.04294 209.92136 209.86379 210.20922 210.60965 211.01307
 211.82050 213.01293 214.27735 216.07478 218.01721 220.07464 222.18406 224.28149
 226.35592 228.45434 230.56577 232.68620 234.82963 237.01605 239.28648 241.67091
 244.30633 246.57176 248.58819 250.36761 251.79904 252.93647 253.77290 254.10332
 254.15475 253.94318 253.31760 252.28003 250.90046 249.07589 246.99931 244.84674
 242.65217 240.47059 238.30502 236.15845 234.03288 231.91430 229.95473 228.12616
 226.42358 224.91001 223.55444 222.34086 221.23729 220.21172 219.33015 218.48557
 217.74200 216.93643 216.04885 215.42728 214.89171 214.69141 214.21820 216.06413
 219.02608 220.30167 220.26437 219.49052 219.57193 221.58461 225.72243 228.93016
 231.45198 234.19846 237.72548 241.91956 246.08746 249.76030 253.07689 256.20425
 259.21869 262.21970 265.13162 267.82605 270.32559 272.57578 274.52658 276.28473
 277.85413 278.98804 280.11322 281.10934 281.97296 282.92651 283.87103 284.74594
 285.55536 286.29755 286.95547 287.80612
 366.78100 356.34836 345.79371 334.67307 323.08943 311.29678 299.18014 286.99649
 274.72185 262.63221 250.65456 239.96892 230.10428 221.22163 213.41699 206.43235
 200.27970 195.23106 191.82641 189.88177 188.93213 189.00948 189.85784 191.17920
 192.91755 195.02591 197.30227 199.67462 202.13298 204.62633 206.72769 208.58305
 210.22240 211.38076 211.62312 211.86447 211.81483 211.53319 211.17954 210.82290
 210.45325 210.17661 209.99797 209.87532 209.81668 210.16104 210.56039 210.96275
 211.76911 212.96046 214.22382 216.02018 217.96153 220.01789 222.12624 224.22260
 226.29596 228.39331 230.50367 232.62303 234.76538 236.95074 239.22010 241.60345
 244.23781 246.50216 248.51752 250.29588 251.72623 252.86259 253.69795 254.02730
 254.07766 253.86502 253.23837 252.19973 250.81908 248.99344 246.91580 244.76215
 242.56651 240.38387 238.21722 236.06958 233.94294 231.82329 229.86265 228.03300
 226.32936 224.81472 223.45807 222.24343 221.13879 220.11214 219.22950 218.38386
 217.63921 216.83257 215.94392 215.32128 214.78464 214.64172 214.30408 216.02243
 218.97615 220.42032 220.49667 219.57417 219.54472 221.51955 225.57867 228.73587
 231.24706 234.03978 237.67088 241.98544 246.21097 249.81885 253.07788 256.18945
 259.20425 262.21960 265.11685 267.77771 270.24973 272.47592 274.41705 276.21777
 277.70380 278.81326 279.92261 280.88370 281.77957 282.77533 283.72635 284.60135
 285.41122 286.15320 286.81018 287.66049
 366.78100 356.34651 345.79003 334.66754 323.08206 311.28757 299.16909 286.98360
 274.70712 262.61563 250.63615 239.94866 230.08218 221.19769 213.39120 206.40472
 200.25023 195.19975 191.79326 189.84678 188.89529 188.97081 189.81732 191.13684
 192.87335 194.97987 197.25438 199.62490 202.08141 204.57292 206.67244 208.52595
 210.16347 211.31998 211.56050 211.80001 211.74853 211.46504 211.10956 210.75107
 210.37959 210.10110 209.92061 209.79613 209.73564 210.07816 210.47567 210.87619
 211.68070 212.87022 214.13173 215.92625 217.86576 219.92028 222.02679 224.12131
 226.19282 228.28833 230.39685 232.51436 234.65488 236.83839 239.10591 241.48742
 244.11994 246.38245 248.39597 250.17248 251.60100 252.73551 253.56902 253.89654
 253.94505 253.73057 253.10208 252.06160 250.67911 248.85163 246.77214 244.61666
 242.41917 240.23469 238.06620 235.91672 233.78823 231.66674 229.70426 227.87277
 226.16729 224.65080 223.29232 222.07583 220.96935 219.94086 219.05638 218.20889
 217.46241 216.65392 215.76343 215.13895 214.60046 214.54863 214.42615 216.06105
 218.89757 220.41833 220.61717 219.61546 219.50252 221.46378 225.45010 228.56435
 231.08002 233.93437 237.66191 242.08452 246.35274 249.92078 253.13478 256.22528
 259.23755 262.25726 265.13205 267.75482 270.19370 272.40689 274.34616 276.14273
 277.56512 278.64532 279.71567 280.66638 281.58685 282.58078 283.53104 284.40311
 285.21054 285.95117 286.60553 287.45633
 366.78100 356.34456 345.78611 334.66167 323.07423 311.27779 299.15734 286.96990
 274.69146 262.59802 250.61657 239.92713 230.05869 221.17225 213.36380 206.37536
 200.21892 195.16648 191.75803 189.80959 188.85615 188.92971 189.77426 191.09182
 192.82638 194.93093 197.20349 199.57205 202.02661 204.51616 206.61372 208.46528
 210.10084 211.25539 211.49395 211.73151 211.67807 211.39262 211.03518 210.67474
 210.30130 210.02085 209.83841 209.71197 209.64953 209.99008 210.38564 210.78420
 211.58675 212.77431 214.03387 215.82643 217.76398 219.81654 221.92110 224.01366
 226.08321 228.17677 230.28333 232.39889 234.53744 236.71900 238.98456 241.36412
 243.99467 246.25523 248.26679 250.04135 251.46790 252.60046 253.43202 253.75757
 253.80413 253.58769 252.95725 251.91480 250.53036 248.70092 246.61948 244.46203
 242.26259 240.07615 237.90571 235.75426 233.62382 231.50038 229.53594 227.70249
 225.99505 224.47661 223.11617 221.89772 220.78928 219.75884 218.87240 218.02295
 217.27451 216.46407 215.57162 214.94518 214.40474 214.44939 214.55486 216.10020
 218.83070 220.43526 220.71576 219.63182 219.42737 221.38382 225.31253 228.39062
 230.91289 233.83736 237.65936 242.15356 246.43858 249.99426 253.18532 256.27573
 259.28571 262.30865 265.16776 267.75558 270.16986 272.37082 274.33240 276.09851
 277.47229 278.51611 279.55978 280.49835 281.41827 282.40820 283.35306 284.22363
 285.02493 285.75803 286.41434 287.26144
 366.78100 356.34325 345.78350 334.65775 323.06900 311.27125 299.14951 286.96076
 274.68101 262.58626 250.60351 239.91276 230.04301 221.15526 213.34551 206.35576
 200.19801 195.14427 191.73452 189.78477 188.83002 188.90227 189.74552 191.06177
 192.79502 194.89827 197.16952 199.53678 201.99003 204.47828 206.57453 208.42478
 210.05903 211.21228 211.44953 211.68578 211.63103 211.34428 210.98554 210.62379
 210.24904 209.96729 209.78354 209.65579 209.59204 209.93129 210.32554 210.72279
 211.52404 212.71030 213.96855 215.75980 217.69605 219.74730 221.85055 223.94180
 226.01005 228.10230 230.20755 232.32181 234.45906 236.63931 238.90356 241.28181
 243.91106 246.17031 248.18056 249.95381 251.37906 252.51031 253.34057 253.66482
 253.71007 253.49232 252.86057 251.81682 250.43107 248.60032 246.51757 244.35882
 242.15807 239.97033 237.79858 235.64583 233.51408 231.38933 229.42358 227.58883
 225.88008 224.36033 222.99858 221.77884 220.66909 219.63734 218.74959 217.89884
 217.14909 216.33734 215.44359 214.81584 214.27409 214.38545 214.64851 216.13542
 218.74776 220.45923 220.83928 219.69154 219.36145 221.30783 225.17546 228.20955
 230.74539 233.74071 237.64746 242.20805 246.48244 250.01453 253.19585 256.28595
 259.30618 262.34067 265.19638 267.76736 270.16599 272.37180 274.34894 276.08890
 277.43726 278.47809 279.52884 280.46198 281.31549 282.22693 283.15948 284.02808
 284.83524 285.57343 286.21158 287.04300
 366.78100 356.34304 345.78308 334.65712 323.06816 311.27020 299.14824 286.95928
 274.67932 262.58436 250.60141 239.91045 230.04049 221.15253 213.34257 206.35261
 200.19465 195.14069 191.73073 189.78077 188.82581 188.89785 189.74089 191.05693
 192.78997 194.89301 197.16405 199.53109 201.98413 204.47218 206.56822 208.41826
 210.05230 211.20534 211.44238 211.67842 211.62346 211.33650 210.97754 210.61558
 210.24062 209.95866 209.77470 209.64674 209.58278 209.92182 210.31586 210.71290
 211.51394 212.69999 213.95803 215.74907 217.68511 219.73615 221.83919 223.93023
 225.99827 228.09031 230.19535 232.30939 234.44643 236.62647 238.89051 241.26855
 243.89759 246.15663 248.16667 249.93971 251.36476 252.49580 253.32584 253.64988
 253.69492 253.47696 252.84500 251.80104 250.41508 248.58412 246.50116 244.34220
 242.14124 239.95328 237.78132 235.62836 233.49640 231.37144 229.40548 227.57053
 225.86157 224.34161 222.97965 221.75969 220.64973 219.61777 218.72981 217.87885
 217.12889 216.31693 215.42297 214.79501 214.25305 214.38409 214.69371 216.19270
 218.68004 220.43803 220.89288 219.72749 219.30623 221.23064 225.05563 228.06900
 230.60503 233.66316 237.67085 242.28616 246.53697 250.04199 253.20930 256.30405
 259.33450 262.37485 265.21967 267.77167 270.15186 272.34396 274.31506 276.03806
 277.37823 278.44278 279.53009 280.48608 281.33002 282.10956 282.97150 283.83942
 284.67856 285.41739 286.04123 286.88489
 366.78100 356.34180 345.78060 334.65339 323.06319 311.26399 299.14079 286.95059
 274.66939 262.57318 250.58898 239.89678 230.02558 221.13638 213.32517 206.33397
 200.17477 195.11957 191.70837 189.75716 188.80096 188.87176 189.71356 191.02836
 192.76016 194.86195 197.13175 199.49755 201.94935 204.43615 206.53094 208.37974
 210.01254 211.16434 211.40014 211.63494 211.57873 211.29053 210.93033 210.56713
 210.19093 209.90772 209.72252 209.59332 209.52812 209.86592 210.25871 210.65451
 211.45431 212.63911 213.89591 215.68571 217.62050 219.67030 221.77210 223.86190
 225.92870 228.01949 230.12329 232.23609 234.37189 236.55069 238.81349 241.19028
 243.81808 246.07588 248.08468 249.85648 251.28027 252.41007 253.23887 253.56167
 253.60547 253.38626 252.75306 251.70786 250.32066 248.48846 246.40426 244.24405
 242.04185 239.85265 237.67945 235.52525 233.39204 231.26584 229.29864 227.46244
 225.75224 224.23104 222.86783 221.64663 220.53543 219.50223 218.61303 217.76082
 217.00962 216.19642 215.30122 214.67202 214.12881 214.32867 214.80087 216.25964
 218.54018 220.40866 220.96828 219.76045 219.23293 221.17139 224.93396 227.89313
 230.45859 233.59853 237.72038 242.36386 246.56793 250.05908 253.23042 256.32996
 259.38565 262.44669 265.29086 267.81857 270.15732 272.32663 274.26428 275.94067
 277.28049 278.35901 279.44852 280.38397 281.14288 282.11203 283.06693 283.94388
 284.72803 285.42282 286.03687 286.87000
 366.78100 356.34293 345.78286 334.65679 323.06772 311.26965 299.14758 286.95851
 274.67844 262.58337 250.60030 239.90923 230.03916 221.15109 213.34102 206.35095
 200.19288 195.13881 191.72874 189.77867 188.82360 188.89553 189.73846 191.05439
 192.78732 194.89025 197.16119 199.52812 201.98105 204.46898 206.56491 208.41484
 210.04877 211.20170 211.43863 211.67456 211.61949 211.33242 210.97335 210.61128
 210.23621 209.95414 209.77007 209.64200 209.57793 209.91686 210.31079 210.70772
 211.50865 212.69458 213.95251 215.74344 217.67937 219.73030 221.83323 223.92416
 225.99209 228.08402 230.18895 232.30288 234.43981 236.61974 238.88367 241.26160
 243.89053 246.14946 248.15939 249.93232 251.35725 252.48818 253.31811 253.64204
 253.68697 253.46890 252.83683 251.79276 250.40669 248.57563 246.49256 244.33349
 242.13242 239.94435 237.77228 235.61921 233.48714 231.36207 229.39600 227.56093
 225.85186 224.33179 222.96972 221.74965 220.63958 219.60751 218.71944 217.86837
 217.11830 216.30623 215.41216 214.78409 214.24202 214.40262 214.78201 216.35475
 218.59103 220.33141 220.94780 219.80672 219.21402 221.08386 224.81059 227.76411
 230.30151 233.49310 237.75807 242.42735 246.57181 249.99886 253.18359 256.33276
 259.40182 262.47684 265.32397 267.86285 270.21753 272.37372 274.31702 276.03113
 277.43423 278.50336 279.50735 280.46408 281.22049 282.03992 282.98300 283.84067
 284.58591 285.28290 285.91840 286.78436
 366.78100 356.34537 345.78773 334.66410 323.07747 311.28183 299.16220 286.97557
 274.69793 262.60530 250.62467 239.93604 230.06840 221.18277 213.37514 206.38750
 200.23187 195.18024 191.77260 189.82497 188.87234 188.94670 189.79207 191.11044
 192.84580 194.95117 197.22454 199.59391 202.04927 204.53964 206.63801 208.49037
 210.12674 211.28211 211.52147 211.75984 211.70721 211.42257 211.06594 210.70631
 210.33367 210.05404 209.87241 209.74678 209.68514 210.02651 210.42288 210.82224
 211.62561 212.81398 214.07434 215.86771 217.80608 219.85944 221.96481 224.05818
 226.12854 228.22291 230.33028 232.44665 234.58601 236.76838 239.03475 241.41511
 244.04648 246.30785 248.32021 250.09558 251.52295 252.65631 253.48868 253.81505
 253.86241 253.64678 253.01715 251.97552 250.59188 248.76325 246.68262 244.52598
 242.32735 240.14172 237.97208 235.82145 233.69182 231.56918 229.60555 227.77292
 226.06628 224.54865 223.18902 221.97139 220.86375 219.83412 218.94849 218.09985
 217.35222 216.54259 215.65095 215.02532 214.48569 214.56163 214.74104 216.25456
 218.81421 220.65392 221.01572 219.53259 218.89900 220.95491 224.62924 227.46587
 230.07317 233.42368 237.81409 242.50046 246.61935 250.10059 253.26300 256.37088
 259.48138 262.57370 265.38129 267.86362 270.13373 272.30447 274.21710 275.94537
 277.40521 278.58325 279.69000 280.63861 281.40405 282.28491 283.21915 283.89651
 284.55875 285.25754 285.90695 286.80814
 366.78100 356.34397 345.78495 334.65992 323.07189 311.27486 299.15384 286.96581
 274.68678 262.59276 250.61073 239.92070 230.05167 221.16465 213.35562 206.36659
 200.20957 195.15654 191.74751 189.79848 188.84446 188.91743 189.76140 191.07838
 192.81235 194.91632 197.18829 199.55627 202.01024 204.49921 206.59618 208.44716
 210.08213 211.23610 211.47408 211.71105 211.65702 211.37099 211.01297 210.65194
 210.27791 209.99689 209.81386 209.68683 209.62380 209.96378 210.35875 210.75672
 211.55870 212.74567 214.00464 215.79661 217.73359 219.78556 221.88953 223.98151
 226.05048 228.14345 230.24942 232.36440 234.50237 236.68334 238.94832 241.32729
 243.95726 246.21723 248.22821 250.00218 251.42815 252.56013 253.39110 253.71607
 253.76204 253.54502 252.91399 251.87096 250.48594 248.65591 246.57388 244.41585
 242.21583 240.02880 237.85777 235.70574 233.57472 231.45069 229.48566 227.65164
 225.94361 224.42458 223.06355 221.84453 220.73550 219.70447 218.81745 217.96742
 217.21839 216.40736 215.51434 214.88731 214.34628 214.53244 214.98695 216.11412
 218.53148 220.54851 221.27602 219.71465 218.57863 220.58316 224.35571 227.38628
 229.85626 233.33018 237.83061 242.52039 246.56972 249.93494 253.34853 256.67340
 259.71713 262.73761 265.50507 267.92194 270.05090 272.04031 273.98917 275.72919
 277.01846 278.22791 279.35416 280.38608 281.42114 282.29297 283.20444 284.12964
 285.03537 285.84189 286.54648 287.44437
 366.78100 356.33694 345.77088 334.63882 323.04376 311.23970 299.11164 286.91658
 274.63052 262.52946 250.54040 239.84334 229.96728 221.07322 213.25716 206.26110
 200.09704 195.03698 191.62092 189.66486 188.70379 188.76973 189.60667 190.91661
 192.64355 194.74049 197.00543 199.36637 201.81331 204.29525 206.38519 208.22913
 209.85707 211.00401 211.23495 211.46489 211.40383 211.11077 210.74571 210.37765
 209.99659 209.70853 209.51847 209.38441 209.31435 209.64729 210.03523 210.42617
 211.22111 212.40105 213.65299 215.43793 217.36787 219.41281 221.50975 223.59469
 225.65663 227.74257 229.84151 231.94945 234.08038 236.25432 238.51226 240.88420
 243.50714 245.76008 247.76402 249.53096 250.94990 252.07484 252.89878 253.21672
 253.25566 253.03160 252.39354 251.34348 249.95142 248.11436 246.02530 243.86024
 241.65318 239.45912 237.28106 235.12200 232.98394 230.85288 228.88082 227.03976
 225.32470 223.79864 222.43058 221.20452 220.08846 219.05040 218.15634 217.29928
 216.54322 215.72516 214.82510 214.19104 213.64297 214.22676 215.54222 216.15565
 217.82762 220.16368 221.31174 220.37682 219.65921 221.00720 224.29295 227.28764
 229.85054 233.44008 237.91060 242.48845 246.32909 249.79083 253.17392 256.68939
 259.81924 262.80151 265.45834 267.91733 269.79074 272.18549 274.12979 275.66177
 276.92419 278.07104 279.17856 280.31464 281.42297 282.40359 283.29825 284.10876
 284.83771 285.48685 286.05392 286.77658
 366.78100 356.33660 345.77021 334.63781 323.04242 311.23802 299.10963 286.91423
 274.62784 262.52644 250.53705 239.83965 229.96325 221.06886 213.25246 206.25607
 200.09167 195.03128 191.61488 189.65849 188.69709 188.76269 189.59930 190.90890
 192.63551 194.73211 196.99672 199.35732 201.80393 204.28553 206.37514 208.21874
 209.84634 210.99295 211.22355 211.45316 211.39176 211.09837 210.73297 210.36458
 209.98318 209.69479 209.50439 209.36999 209.29960 209.63220 210.01981 210.41041
 211.20502 212.38462 213.63623 215.42083 217.35043 219.39504 221.49164 223.57625
 225.63785 227.72346 229.82206 231.92967 234.06027 236.23388 238.49148 240.86308
 243.48569 245.73829 247.74190 249.50850 250.92711 252.05171 252.87532 253.19292
 253.23152 253.00713 252.36873 251.31834 249.92594 248.08855 245.99915 243.83376
 241.62636 239.43197 237.25357 235.09417 232.95578 230.82438 228.85199 227.01059
 225.29520 223.76880 222.40041 221.17401 220.05762 219.01922 218.12482 217.26743
 216.51103 215.69264 214.79224 214.15785 213.60945 214.23642 215.65416 216.34254
 217.45934 219.81523 221.35139 220.65245 219.99820 221.22095 224.57855 227.36002
 229.88504 233.44818 237.94406 242.47592 246.32225 249.63196 253.26547 256.77875
 259.82059 262.69400 265.31732 267.62100 270.14801 272.29068 274.09732 275.53876
 276.90012 278.11981 279.17886 280.10876 280.91351 281.62552 282.27512 282.86359
 283.39288 283.86420 284.27594 284.80066
 366.78100 356.34166 345.78032 334.65298 323.06264 311.26330 299.13996 286.94962
 274.66828 262.57194 250.58761 239.89527 230.02393 221.13459 213.32325 206.33191
 200.17257 195.11723 191.70589 189.75455 188.79821 188.86887 189.71053 191.02519
 192.75685 194.85851 197.12817 199.49383 201.94549 204.43215 206.52682 208.37548
 210.00814 211.15980 211.39546 211.63012 211.57378 211.28544 210.92510 210.56176
 210.18542 209.90208 209.71674 209.58740 209.52206 209.85972 210.25238 210.64804
 211.44770 212.63237 213.88903 215.67869 217.61335 219.66301 221.76467 223.85433
 225.92099 228.01165 230.11531 232.22797 234.36363 236.54229 238.80495 241.18161
 243.80927 246.06693 248.07559 249.84725 251.27091 252.40058 253.22924 253.55190
 253.59556 253.37622 252.74288 251.69754 250.31020 248.47786 246.39352 244.23318
 242.03084 239.84150 237.66816 235.51382 233.38048 231.25414 229.28680 227.45046
 225.74013 224.21879 222.85545 221.63411 220.52277 219.48943 218.60009 217.74775
 216.99641 216.18307 215.28773 214.65839 214.11505 214.50459 215.48912 216.52147
 217.64912 219.53345 220.79828 220.28758 219.91356 221.32683 224.72711 227.53415
 230.01286 233.53709 238.04379 242.57674 246.37791 249.69324 253.36900 256.82162
 259.71710 262.58377 265.09775 267.75919 270.18204 272.23822 274.04279 275.47424
 276.88748 278.35254 279.81964 281.10785 282.22272 283.20905 284.10895 284.92419
 285.65741 286.31036 286.88074 287.60764
 366.78100 356.34166 345.78031 334.65297 323.06263 311.26328 299.13994 286.94960
 274.66825 262.57191 250.58757 239.89522 230.02388 221.13454 213.32319 206.33185
 200.17251 195.11716 191.70582 189.75448 188.79813 188.86879 189.71045 191.02510
 192.75676 194.85842 197.12807 199.49373 201.94539 204.43204 206.52670 208.37536
 210.00801 211.15967 211.39533 211.62998 211.57364 211.28530 210.92495 210.56161
 210.18527 209.90192 209.71658 209.58724 209.52189 209.85955 210.25221 210.64786
 211.44752 212.63218 213.88883 215.67849 217.61315 219.66280 221.76446 223.85412
 225.92078 228.01143 230.11509 232.22775 234.36340 236.54206 238.80472 241.18137
 243.80903 246.06669 248.07534 249.84700 251.27066 252.40031 253.22897 253.55163
 253.59528 253.37594 252.74260 251.69725 250.30991 248.47757 246.39322 244.23288
 242.03054 239.84119 237.66785 235.51351 233.38016 231.25382 229.28648 227.45013
 225.73979 224.21845 222.85510 221.63376 220.52242 219.48907 218.59973 217.74739
 216.99604 216.18270 215.28736 214.65801 214.11467 214.54800 215.57846 216.43465
 217.73645 219.70039 220.71431 219.97136 219.61444 221.19754 224.64015 227.48608
 229.95711 233.53426 238.10202 242.60066 246.35262 249.72920 253.41737 256.85010
 259.70438 262.58508 265.21030 267.81168 270.19312 272.23239 274.00961 275.49414
 276.92212 278.29260 279.80347 281.13589 282.28900 283.30920 284.23999 285.08319
 285.84158 286.51694 287.10690 287.85873
 366.78100 356.33860 345.77419 334.64379 323.05038 311.24798 299.12157 286.92817
 274.64377 262.54436 250.55696 239.86155 229.98715 221.09475 213.28034 206.28594
 200.12353 195.06513 191.65072 189.69632 188.73692 188.80451 189.64311 190.95470
 192.68330 194.78189 197.04849 199.41109 201.85968 204.34328 206.43487 208.28047
 209.91007 211.05866 211.29126 211.52285 211.46345 211.17204 210.80864 210.44224
 210.06283 209.77643 209.58802 209.45562 209.38721 209.72181 210.11141 210.50400
 211.30060 212.48219 213.73579 215.52239 217.45398 219.50058 221.59917 223.68577
 225.74936 227.83696 229.93756 232.04715 234.17975 236.35534 238.61494 240.98853
 243.61313 245.86773 247.87332 249.64192 251.06251 252.18911 253.01470 253.33430
 253.37490 253.15249 252.51609 251.46768 250.07728 248.24188 246.15447 243.99107
 241.78566 239.59326 237.41685 235.25945 233.12305 230.99364 229.02324 227.18383
 225.47043 223.94602 222.57962 221.35522 220.24081 219.20441 218.31200 217.45660
 216.70220 215.88579 214.98739 214.35498 213.80858 214.44232 215.83388 216.35339
 217.48769 219.77618 221.03967 220.14090 219.48325 221.02589 224.52225 227.31625
 229.84834 233.53317 238.12291 242.54199 246.27061 249.73898 253.47292 256.81226
 259.71442 262.59866 265.23260 267.99542 270.31033 272.30884 273.95737 275.34036
 276.76013 278.16287 279.62170 280.90265 282.01123 282.99203 283.88684 284.69751
 285.42661 286.07587 286.64304 287.36584
 366.78100 356.33822 345.77344 334.64266 323.04887 311.24609 299.11931 286.92553
 274.64075 262.54097 250.55318 239.85740 229.98262 221.08984 213.27506 206.28028
 200.11749 195.05871 191.64393 189.68915 188.72937 188.79659 189.63481 190.94602
 192.67424 194.77246 197.03868 199.40090 201.84912 204.33233 206.42355 208.26877
 209.89799 211.04621 211.27843 211.50965 211.44986 211.15808 210.79430 210.42752
 210.04774 209.76096 209.57217 209.43939 209.37061 209.70483 210.09405 210.48627
 211.28248 212.46370 213.71692 215.50314 217.43436 219.48058 221.57880 223.66501
 225.72823 227.81545 229.91567 232.02489 234.15711 236.33232 238.59154 240.96476
 243.58898 245.84320 247.84842 249.61664 251.03685 252.16307 252.98829 253.30751
 253.34773 253.12495 252.48816 251.43938 250.04860 248.21282 246.12504 243.96126
 241.75547 239.56269 237.38591 235.22813 233.09135 230.96157 228.99079 227.15100
 225.43722 223.91244 222.54566 221.32088 220.20610 219.16931 218.27653 217.42075
 216.66597 215.84919 214.95041 214.31763 213.77084 214.45914 215.96373 216.41187
 217.18645 219.55179 221.22330 220.42566 219.47908 220.94310 224.44287 227.17548
 229.77190 233.56447 238.16656 242.53224 246.24536 249.79037 253.55273 256.81210
 259.84338 262.74814 265.48444 268.11902 270.40533 272.36948 273.79623 275.23181
 276.58914 278.02237 279.26260 280.35162 281.29407 282.12790 282.88861 283.57779
 284.19763 284.74960 285.23178 285.84628
 366.78100 356.33953 345.77607 334.64660 323.05414 311.25267 299.12721 286.93474
 274.65128 262.55281 250.56635 239.87188 229.99842 221.10695 213.29349 206.30002
 200.13856 195.08109 191.66763 189.71416 188.75570 188.82423 189.66377 190.97630
 192.70584 194.80537 197.07291 199.43644 201.88597 204.37051 206.46304 208.30958
 209.94011 211.08965 211.32318 211.55572 211.49725 211.20679 210.84432 210.47886
 210.10039 209.81493 209.62746 209.49600 209.42853 209.76407 210.15460 210.54814
 211.34567 212.52821 213.78274 215.57028 217.50281 219.55034 221.64988 223.73741
 225.80195 227.89048 229.99202 232.10255 234.23609 236.41262 238.67316 241.04769
 243.67323 245.92876 247.93530 249.70483 251.12637 252.25390 253.08044 253.40097
 253.44251 253.22104 252.58558 251.53811 250.14865 248.31418 246.22772 244.06525
 241.86078 239.66932 237.49385 235.33739 233.20192 231.07346 229.10399 227.26553
 225.55306 224.02960 222.66413 221.44067 220.32720 219.29174 218.40027 217.54581
 216.79234 215.97688 215.07941 214.44795 213.90248 214.55605 216.01149 216.50854
 217.03056 219.22115 221.12405 220.50351 219.50536 220.95198 224.40614 227.11140
 229.72861 233.60335 238.23444 242.57162 246.28577 249.88882 253.59010 256.87411
 259.97064 262.89615 265.73303 268.29544 270.47443 272.34573 273.64899 275.06772
 276.68234 278.51361 280.09824 281.48969 282.69385 283.75922 284.73123 285.61179
 286.40375 287.10901 287.72510 288.51025
 366.78100 356.33901 345.77502 334.64503 323.05205 311.25006 299.12407 286.93108
 274.64709 262.54810 250.56112 239.86613 229.99214 221.10015 213.28616 206.29217
 200.13019 195.07220 191.65821 189.70422 188.74523 188.81324 189.65225 190.96427
 192.69328 194.79229 197.05930 199.42231 201.87132 204.35534 206.44735 208.29336
 209.92337 211.07238 211.30539 211.53741 211.47842 211.18743 210.82444 210.45845
 210.07946 209.79348 209.60549 209.47350 209.40551 209.74052 210.13053 210.52354
 211.32056 212.50257 213.75658 215.54359 217.47560 219.52261 221.62163 223.70864
 225.77265 227.86066 229.96167 232.07168 234.20470 236.38071 238.64072 241.01473
 243.63974 245.89475 247.90076 249.66978 251.09079 252.21780 253.04381 253.36382
 253.40483 253.18285 252.54686 251.49887 250.10888 248.27389 246.18690 244.02392
 241.81893 239.62694 237.45095 235.29396 233.15797 231.02898 229.05900 227.22001
 225.50702 223.98303 222.61704 221.39305 220.27907 219.24308 218.35109 217.49610
 216.74211 215.92612 215.02814 214.39615 213.85016 214.57326 216.12764 216.50534
 216.96356 219.07370 221.06898 220.46384 219.42969 220.86687 224.29808 227.00078
 229.67010 233.64378 238.28944 242.57736 246.29819 249.96159 253.61295 256.93280
 260.05203 262.98178 265.83145 268.36319 270.49554 272.29068 273.60672 275.02081
 276.89020 278.79285 280.43924 281.88489 283.13599 284.24289 285.25278 286.16766
 286.99051 287.72324 288.36334 289.17908
 366.78100 356.33802 345.77305 334.64207 323.04809 311.24512 299.11814 286.92416
 274.63919 262.53921 250.55123 239.85526 229.98028 221.08730 213.27233 206.27735
 200.11437 195.05540 191.64042 189.68545 188.72547 188.79249 189.63052 190.94154
 192.66956 194.76759 197.03361 199.39563 201.84366 204.32668 206.41770 208.26273
 209.89175 211.03977 211.27180 211.50282 211.44284 211.15087 210.78689 210.41991
 210.03994 209.75296 209.56398 209.43101 209.36203 209.69605 210.08508 210.47710
 211.27312 212.45415 213.70717 215.49319 217.42422 219.47024 221.56827 223.65429
 225.71731 227.80434 229.90436 232.01338 234.14541 236.32043 238.57945 240.95248
 243.57650 245.83052 247.83555 249.60357 251.02359 252.14962 252.97464 253.29366
 253.33369 253.11071 252.47373 251.42476 250.03378 248.19780 246.10983 243.94585
 241.73987 239.54690 237.36992 235.21194 233.07497 230.94499 228.97401 227.13404
 225.42006 223.89509 222.52811 221.30313 220.18816 219.15118 218.25820 217.40223
 216.64725 215.83027 214.93130 214.29832 213.75134 214.56410 216.26210 216.48773
 216.77625 218.93170 221.13667 220.53648 219.56233 220.81348 224.22055 226.88982
 229.59300 233.68047 238.34877 242.59190 246.31808 250.02000 253.63753 256.99506
 260.12866 263.06732 265.88525 268.39752 270.54788 272.28018 273.52133 274.87933
 276.26660 277.45569 278.48468 279.38818 280.17010 280.86191 281.49307 282.06485
 282.57910 283.03705 283.43710 283.94693
 366.78100 356.33836 345.77372 334.64307 323.04943 311.24679 299.12015 286.92651
 274.64186 262.54222 250.55458 239.85894 229.98429 221.09165 213.27701 206.28237
 200.11973 195.06108 191.64644 189.69180 188.73216 188.79952 189.63787 190.94923
 192.67759 194.77595 197.04231 199.40466 201.85302 204.33638 206.42774 208.27309
 209.90245 211.05081 211.28317 211.51453 211.45488 211.16324 210.79960 210.43296
 210.05332 209.76667 209.57803 209.44539 209.37675 209.71111 210.10046 210.49282
 211.28918 212.47054 213.72390 215.51025 217.44161 219.48797 221.58633 223.67268
 225.73604 227.82340 229.92376 232.03312 234.16547 236.34083 238.60019 240.97355
 243.59791 245.85226 247.85762 249.62598 251.04634 252.17270 252.99805 253.31741
 253.35777 253.13513 252.49848 251.44984 250.05920 248.22356 246.13592 243.97227
 241.76663 239.57399 237.39735 235.23971 233.10306 230.97342 229.00278 227.16314
 225.44950 223.92485 222.55821 221.33357 220.21893 219.18228 218.28964 217.43400
 216.67936 215.86272 214.96407 214.33143 213.78479 214.61057 216.34995 216.53619
 216.50044 218.62247 220.96933 220.49394 219.72166 220.91702 224.17439 226.81979
 229.54021 233.72633 238.41988 242.61551 246.41324 250.14101 253.75067 257.13031
 260.26044 263.18005 265.94083 268.45340 270.56006 272.18011 273.46490 274.39035
 275.11932 275.74414 276.28482 276.75958 277.17044 277.53397 277.86560 278.16605
 278.43628 278.67691 278.88712 279.15500
 366.78100 356.34052 345.77804 334.64956 323.05808 311.25760 299.13313 286.94165
 274.65917 262.56169 250.57621 239.88273 230.01025 221.11977 213.30729 206.31481
 200.15433 195.09785 191.68538 189.73290 188.77542 188.84494 189.68546 190.99898
 192.72950 194.83002 197.09854 199.46306 201.91358 204.39910 206.49263 208.34015
 209.97167 211.12219 211.35671 211.59023 211.53275 211.24327 210.88179 210.51731
 210.13983 209.85535 209.66888 209.53840 209.47192 209.80844 210.19996 210.59448
 211.39300 212.57652 213.83204 215.62056 217.55408 219.60260 221.70313 223.79165
 225.85717 227.94669 230.04921 232.16073 234.29525 236.47277 238.73429 241.10981
 243.73633 245.99285 248.00038 249.77090 251.19342 252.32194 253.14946 253.47098
 253.51350 253.29302 252.65854 251.61206 250.22358 248.39010 246.30463 244.14315
 241.93967 239.74919 237.57471 235.41923 233.28475 231.15727 229.18879 227.35131
 225.63983 224.11735 222.75288 221.53040 220.41792 219.38344 218.49296 217.63948
 216.88700 216.07252 215.17604 214.54556 214.00108 214.73505 216.35234 216.67297
 216.34898 218.20033 220.62013 220.30994 219.70349 220.97021 224.20462 226.83418
 229.57114 233.82722 238.54988 242.73889 246.55855 250.28606 253.89542 257.29382
 260.44180 263.37314 266.14093 268.68845 270.82245 272.52478 273.41562 274.48856
 275.39627 276.17432 276.84756 277.43875 277.95038 278.40305 278.81601 279.19012
 279.52661 279.82626 280.08801 280.42160
 366.78100 356.34357 345.78414 334.65871 323.07028 311.27285 299.15142 286.96299
 274.68356 262.58913 250.60670 239.91627 230.04684 221.15941 213.34998 206.36055
 200.20312 195.14969 191.74026 189.79083 188.83640 188.90897 189.75254 191.06911
 192.80268 194.90625 197.17782 199.54539 201.99896 204.48753 206.58410 208.43467
 210.06924 211.22280 211.46037 211.69694 211.64251 211.35608 210.99765 210.63622
 210.26179 209.98036 209.79693 209.66950 209.60607 209.94564 210.34021 210.73778
 211.53935 212.72592 213.98449 215.77606 217.71263 219.76420 221.86777 223.95934
 226.02791 228.12048 230.22605 232.34062 234.47819 236.65876 238.92333 241.30190
 243.93147 246.19104 248.20161 249.97518 251.40075 252.53232 253.36289 253.68746
 253.73303 253.51560 252.88417 251.84074 250.45531 248.62488 246.54245 244.38402
 242.18359 239.99616 237.82473 235.67230 233.54087 231.41644 229.45101 227.61658
 225.90815 224.38872 223.02729 221.80786 220.69843 219.66700 218.77957 217.92914
 217.17971 216.36827 215.47484 214.84741 214.30598 214.89453 216.27394 216.81207
 216.52399 217.90909 219.97629 219.94490 219.45619 221.11313 224.18472 227.03233
 229.82985 233.92914 238.57410 242.80719 246.65108 250.35915 253.96442 257.34677
 260.48608 263.40787 266.16107 268.70859 270.91647 272.75076 274.19449 275.13510
 277.22360 279.20819 280.92551 282.43344 283.73843 284.89301 285.94641 286.90070
 287.75897 288.52325 289.19095 290.04181
 366.78100 356.34477 345.78653 334.66230 323.07506 311.27883 299.15859 286.97136
 274.69312 262.59989 250.61865 239.92942 230.06118 221.17495 213.36671 206.37848
 200.22224 195.17001 191.76177 189.81354 188.86030 188.93407 189.77883 191.09660
 192.83136 194.93613 197.20889 199.57766 202.03242 204.52219 206.61995 208.47172
 210.10748 211.26225 211.50101 211.73878 211.68554 211.40031 211.04307 210.68284
 210.30960 210.02937 209.84713 209.72090 209.65866 209.99943 210.39519 210.79396
 211.59672 212.78449 214.04425 215.83702 217.77478 219.82755 221.93231 224.02508
 226.09484 228.18861 230.29537 232.41114 234.54990 236.73167 238.99743 241.37720
 244.00796 246.26873 248.28049 250.05526 251.48202 252.61479 253.44655 253.77232
 253.81908 253.60285 252.97261 251.93038 250.54615 248.71691 246.63568 244.47844
 242.27921 240.09297 237.92274 235.77150 233.64127 231.51803 229.55380 227.72056
 226.01333 224.49509 223.13486 221.91662 220.80839 219.77815 218.89192 218.04268
 217.29445 216.48421 215.59198 214.96574 214.42551 214.97017 216.25545 216.86485
 216.60760 217.72253 219.49513 219.57556 219.50949 221.19820 224.02892 227.04561
 229.79912 233.94722 238.64021 242.86487 246.69870 250.42264 254.02701 257.40765
 260.52405 263.39978 266.11182 268.61862 270.78845 272.63889 274.32870 275.74338
 276.90811 278.52640 280.22708 281.72040 283.01273 284.15613 285.19928 286.14432
 286.99429 287.75119 288.41238 289.25500
 366.78100 356.34317 345.78333 334.65750 323.06866 311.27083 299.14899 286.96016
 274.68032 262.58549 250.60265 239.91182 230.04198 221.15415 213.34431 206.35448
 200.19664 195.14281 191.73297 189.78314 188.82830 188.90047 189.74363 191.05980
 192.79296 194.89613 197.16729 199.53446 201.98763 204.47579 206.57196 208.42212
 210.05629 211.20945 211.44662 211.68278 211.62795 211.34111 210.98228 210.62044
 210.24561 209.96377 209.77994 209.65210 209.58827 209.92743 210.32160 210.71876
 211.51993 212.70609 213.96426 215.75542 217.69159 219.74275 221.84592 223.93709
 226.00525 228.09742 230.20258 232.31675 234.45391 236.63408 238.89824 241.27641
 243.90557 246.16474 248.17490 249.94807 251.37323 252.50440 253.33456 253.65873
 253.70389 253.48606 252.85422 251.81039 250.42455 248.59372 246.51088 244.35205
 242.15121 239.96338 237.79154 235.63871 233.50688 231.38204 229.41621 227.58137
 225.87254 224.35270 222.99087 221.77103 220.66120 219.62936 218.74153 217.89069
 217.14086 216.32902 215.43519 214.80735 214.26552 214.91121 216.37993 216.82904
 216.58180 217.51382 219.15668 219.40726 219.47818 221.14328 224.01997 227.02455
 229.91522 234.05891 238.71408 242.93234 246.75990 250.49875 254.11893 257.50085
 260.60349 263.47678 266.18878 268.62762 270.72769 272.54913 274.24207 275.81793
 277.06464 278.38611 279.92358 281.31183 282.51987 283.58865 284.56378 285.44717
 286.24170 286.94922 287.56729 288.35498
 366.78100 356.34108 345.77915 334.65123 323.06031 311.26039 299.13646 286.94554
 274.66362 262.56669 250.58177 239.88885 230.01692 221.12700 213.31508 206.32316
 200.16323 195.10731 191.69539 189.74346 188.78654 188.85662 189.69769 191.01177
 192.74285 194.84393 197.11300 199.47808 201.92916 204.41523 206.50931 208.35739
 209.98946 211.14054 211.37562 211.60970 211.55277 211.26385 210.90293 210.53900
 210.16208 209.87816 209.69223 209.56231 209.49639 209.83347 210.22554 210.62062
 211.41970 212.60377 213.85985 215.64893 217.58300 219.63208 221.73316 223.82224
 225.88831 227.97839 230.08147 232.19354 234.32862 236.50670 238.76878 241.14485
 243.77193 246.02901 248.03708 249.80816 251.23124 252.36031 253.18839 253.51047
 253.55355 253.33362 252.69970 251.65378 250.26585 248.43293 246.34801 244.18708
 241.98416 239.79424 237.62032 235.46539 233.33147 231.20455 229.23662 227.39970
 225.68878 224.16685 222.80293 221.58101 220.46909 219.43516 218.54524 217.69232
 216.94039 216.12647 215.23055 214.60062 214.05670 214.82793 216.53976 216.77315
 216.51564 217.48747 219.09903 219.26666 219.34000 221.04852 223.99242 226.99121
 229.94177 234.11778 238.76358 242.96860 246.80763 250.56421 254.20630 257.58484
 260.67090 263.53604 266.20139 268.61569 270.73108 272.55307 274.09271 275.87512
 277.02158 278.26688 279.83319 281.24036 282.46664 283.55164 284.54150 285.43826
 286.24478 286.96301 287.59042 288.39001
 366.78100 356.34238 345.78177 334.65515 323.06553 311.26692 299.14430 286.95468
 274.67407 262.57845 250.59483 239.90322 230.03260 221.14398 213.33337 206.34275
 200.18413 195.12952 191.71890 189.76828 188.81267 188.88405 189.72643 191.04182
 192.77420 194.87658 197.14697 199.51335 201.96573 204.45312 206.54850 208.39788
 210.03127 211.18365 211.42003 211.65542 211.59980 211.31218 210.95257 210.58995
 210.21433 209.93172 209.74710 209.61848 209.55387 209.89225 210.28563 210.68202
 211.48240 212.66778 213.92517 215.71555 217.65093 219.70132 221.80370 223.89408
 225.96147 228.05285 230.15723 232.27062 234.40700 236.58638 238.84977 241.22715
 243.85553 246.11392 248.12330 249.89568 251.32007 252.45045 253.27983 253.60322
 253.64760 253.42898 252.79637 251.75175 250.36513 248.53352 246.44990 244.29028
 242.08867 239.90005 237.72743 235.57382 233.44120 231.31558 229.34897 227.51335
 225.80373 224.28312 222.92050 221.69988 220.58927 219.55665 218.66803 217.81642
 217.06580 216.25318 215.35857 214.72995 214.18733 214.90942 216.51958 216.84048
 216.42279 217.48906 219.17044 219.16060 219.19315 220.94173 223.92741 226.91359
 229.89125 234.14594 238.78322 243.00143 246.90115 250.68909 254.33794 257.70880
 260.77783 263.63162 266.25842 268.66132 270.77728 272.55435 274.17920 275.83417
 277.04361 278.55771 280.23291 281.70532 282.97955 284.10693 285.13550 286.06729
 286.90536 287.65164 288.30359 289.13443
 366.78100 356.34498 345.78695 334.66293 323.07590 311.27988 299.15985 286.97283
 274.69480 262.60178 250.62075 239.93173 230.06371 221.17768 213.36966 206.38163
 200.22561 195.17358 191.76556 189.81753 188.86451 188.93849 189.78346 191.10144
 192.83641 194.94139 197.21436 199.58334 202.03831 204.52829 206.62626 208.47824
 210.11422 211.26919 211.50817 211.74614 211.69312 211.40809 211.05107 210.69104
 210.31802 210.03799 209.85597 209.72995 209.66792 210.00890 210.40487 210.80385
 211.60682 212.79480 214.05477 215.84775 217.78573 219.83870 221.94368 224.03665
 226.10663 228.20060 230.30758 232.42355 234.56253 236.74450 239.01048 241.39046
 244.02143 246.28241 248.29438 250.06936 251.49633 252.62931 253.46128 253.78726
 253.83423 253.61821 252.98819 251.94616 250.56214 248.73311 246.65209 244.49506
 242.29604 240.11001 237.93999 235.78897 233.65894 231.53592 229.57189 227.73887
 226.03184 224.51382 223.15379 221.93577 220.82774 219.79772 218.91170 218.06267
 217.31465 216.50462 215.61260 214.98657 214.44655 215.04182 216.43549 216.96315
 216.40559 217.29901 218.94086 218.89569 219.03493 220.90430 224.03120 226.99791
 230.00591 234.24731 238.88823 243.14030 247.06506 250.85904 254.50258 257.85513
 260.89514 263.72409 266.34821 268.75861 270.88263 272.68216 274.24731 276.04755
 277.27484 279.03708 280.71713 282.19232 283.46899 284.59851 285.62903 286.56259
 287.40225 288.14996 288.80316 289.63556
 366.78100 356.34426 345.78551 334.66077 323.07303 311.27628 299.15554 286.96780
 274.68905 262.59531 250.61356 239.92382 230.05508 221.16833 213.35959 206.37085
 200.21410 195.16136 191.75262 189.80387 188.85013 188.92339 189.76764 191.08490
 192.81916 194.92341 197.19567 199.56393 202.01818 204.50744 206.60469 208.45595
 210.09121 211.24546 211.48372 211.72098 211.66723 211.38149 211.02375 210.66300
 210.28926 210.00852 209.82577 209.69903 209.63629 209.97654 210.37180 210.77006
 211.57231 212.75957 214.01882 215.81108 217.74834 219.80059 221.90485 223.99711
 226.06636 228.15962 230.26588 232.38113 234.51939 236.70065 238.96590 241.34516
 243.97542 246.23567 248.24693 250.02118 251.44744 252.57970 253.41095 253.73621
 253.78247 253.56572 252.93498 251.89224 250.50749 248.67775 246.59601 244.43826
 242.23852 240.05178 237.88103 235.72929 233.59855 231.47480 229.51006 227.67631
 225.96857 224.44983 223.08908 221.87034 220.76160 219.73085 218.84411 217.99437
 217.24562 216.43488 215.54214 214.91539 214.37465 215.01508 216.47643 216.96800
 216.56314 217.19315 218.57346 218.52707 218.85840 220.86977 224.07152 227.06299
 230.04398 234.32779 239.00960 243.26530 247.18594 250.96939 254.59750 257.91629
 260.93250 263.74588 266.37195 268.77875 270.91241 272.73697 274.39301 276.28116
 277.55060 279.26614 280.96158 282.45032 283.73868 284.87854 285.91849 286.86063
 287.70798 288.46252 289.12170 289.96173
 366.78100 356.34273 345.78246 334.65619 323.06692 311.26865 299.14638 286.95711
 274.67684 262.58157 250.59830 239.90703 230.03676 221.14849 213.33822 206.34795
 200.18968 195.13542 191.72515 189.77488 188.81961 188.89134 189.73407 191.04980
 192.78253 194.88526 197.15599 199.52272 201.97545 204.46318 206.55891 208.40864
 210.04237 211.19510 211.43183 211.66756 211.61229 211.32502 210.96575 210.60348
 210.22821 209.94594 209.76167 209.63340 209.56913 209.90786 210.30159 210.69832
 211.49905 212.68479 213.94252 215.73325 217.66898 219.71971 221.82244 223.91317
 225.98090 228.07263 230.17736 232.29109 234.42782 236.60755 238.87128 241.24901
 243.87774 246.13647 248.14620 249.91893 251.34366 252.47439 253.30412 253.62785
 253.67258 253.45431 252.82204 251.77777 250.39150 248.56023 246.47696 244.31769
 242.11642 239.92815 237.75589 235.60262 233.47035 231.34508 229.37881 227.54354
 225.83427 224.31400 222.95173 221.73146 220.62119 219.58892 218.70065 217.84938
 217.09911 216.28684 215.39257 214.76430 214.22203 214.95125 216.54886 216.88928
 216.65544 217.22536 218.48012 218.28105 218.64520 220.75163 224.02924 227.03709
 230.07262 234.38402 239.06906 243.33875 247.27475 251.07146 254.69499 257.99057
 260.97723 263.77359 266.40039 268.79599 270.92657 272.75919 274.51608 276.39172
 277.78265 279.64926 281.37506 282.89044 284.20187 285.36215 286.42075 287.37973
 288.24225 289.01031 289.68130 290.53638
 366.78100 356.34389 345.78478 334.65967 323.07156 311.27446 299.15335 286.96524
 274.68613 262.59202 250.60991 239.91980 230.05069 221.16359 213.35448 206.36537
 200.20826 195.15515 191.74604 189.79693 188.84282 188.91572 189.75961 191.07650
 192.81039 194.91428 197.18617 199.55406 202.00795 204.49684 206.59374 208.44463
 210.07952 211.23341 211.47130 211.70819 211.65408 211.36797 211.00987 210.64876
 210.27465 209.99354 209.81043 209.68332 209.62021 209.96010 210.35499 210.75289
 211.55478 212.74167 214.00056 215.79245 217.72934 219.78123 221.88512 223.97702
 226.04591 228.13880 230.24469 232.35958 234.49747 236.67836 238.94325 241.32215
 243.95204 246.21193 248.22282 249.99671 251.42260 252.55449 253.38538 253.71027
 253.75617 253.53906 252.90795 251.86484 250.47973 248.64962 246.56751 244.40940
 242.20930 240.02219 237.85108 235.69897 233.56786 231.44375 229.47864 227.64453
 225.93643 224.41732 223.05621 221.83710 220.72799 219.69688 218.80977 217.95966
 217.21055 216.39945 215.50634 214.87923 214.33812 215.00488 216.49548 216.93271
 216.68921 217.13672 218.23848 218.07771 218.53261 220.72189 224.04164 227.07730
 230.11574 234.45912 239.17947 243.46738 247.40962 251.20308 254.82111 258.09586
 261.07077 263.85443 266.47778 268.87451 271.00519 272.89066 274.73846 276.63690
 278.04843 279.87360 281.59964 283.11526 284.42688 285.58734 286.64609 287.60522
 288.46786 289.23605 289.90714 290.76233
 366.78100 356.34608 345.78916 334.66624 323.08032 311.28541 299.16649 286.98057
 274.70365 262.61173 250.63181 239.94389 230.07697 221.19205 213.38514 206.39822
 200.24330 195.19238 191.78546 189.83854 188.88662 188.96170 189.80779 191.12687
 192.86295 194.96903 197.24311 199.61319 202.06927 204.56035 206.65943 208.51252
 210.14960 211.30568 211.54576 211.78484 211.73292 211.44900 211.09308 210.73416
 210.36225 210.08333 209.90241 209.77749 209.71657 210.05865 210.45573 210.85581
 211.65989 212.84898 214.11006 215.90414 217.84322 219.89730 222.00338 224.09746
 226.16854 228.26362 230.37171 232.48879 234.62887 236.81195 239.07903 241.46011
 244.09219 246.35427 248.36736 250.14344 251.57152 252.70560 253.53868 253.86576
 253.91384 253.69892 253.07000 252.02909 250.64617 248.81825 246.73833 244.58241
 242.38449 240.19957 238.03065 235.88073 233.75182 231.62990 229.66698 227.83506
 226.12914 224.61222 223.25330 222.03638 220.92946 219.90055 219.01563 218.16771
 217.42079 216.61187 215.72095 215.09603 214.55711 215.10535 216.38795 217.02234
 216.80797 217.11250 217.97101 217.74690 218.31702 220.62865 223.99294 227.09351
 230.16573 234.54340 239.29138 243.59846 247.54961 251.34993 254.96504 258.21106
 261.14465 263.89999 266.51569 268.89294 271.04932 273.03467 274.95163 276.84302
 278.22742 280.03549 281.78366 283.31863 284.64706 285.82236 286.89465 287.86606
 288.73975 289.51776 290.19742 291.06357
 366.78100 356.34726 345.79151 334.66977 323.08503 311.29128 299.17354 286.98880
 274.71305 262.62231 250.64357 239.95682 230.09108 221.20734 213.40159 206.41585
 200.26211 195.21236 191.80662 189.86088 188.91013 188.98639 189.83365 191.15390
 192.89116 194.99842 197.27367 199.64493 202.10219 204.59444 206.69470 208.54896
 210.18721 211.34447 211.58573 211.82598 211.77524 211.49250 211.13775 210.78001
 210.40927 210.13152 209.95178 209.82804 209.76829 210.11155 210.50981 210.91106
 211.71632 212.90658 214.16883 215.96409 217.90435 219.95960 222.06686 224.16212
 226.23437 228.33063 230.43989 232.55814 234.69940 236.88366 239.15191 241.53417
 244.16743 246.43068 248.44494 250.22220 251.65145 252.78671 253.62097 253.94922
 253.99848 253.78474 253.15699 252.11725 250.73551 248.90876 246.83002 244.67528
 242.47853 240.29479 238.12705 235.97830 233.85056 231.72982 229.76807 227.93733
 226.23259 224.71684 223.35910 222.14336 221.03761 220.00987 219.12613 218.27938
 217.53364 216.72590 215.83615 215.21241 214.67467 215.16853 216.33432 216.97844
 216.92531 217.28070 218.00888 217.52457 218.01611 220.37262 223.80582 226.98682
 230.19714 234.60011 239.32948 243.66470 247.64853 251.48872 255.14151 258.39249
 261.29254 264.01370 266.58920 268.95392 271.12976 273.16022 275.20337 276.96445
 278.55688 280.59225 282.42029 284.02545 285.41458 286.64362 287.76489 288.78073
 289.69434 290.50790 291.21863 292.12439
 366.78100 356.34672 345.79044 334.66816 323.08288 311.28859 299.17031 286.98503
 274.70875 262.61747 250.63819 239.95091 230.08463 221.20035 213.39407 206.40778
 200.25350 195.20322 191.79694 189.85066 188.89938 188.97510 189.82182 191.14154
 192.87825 194.98497 197.25969 199.63041 202.08713 204.57885 206.67857 208.53229
 210.17001 211.32673 211.56744 211.80716 211.75588 211.47260 211.11732 210.75904
 210.38776 210.10948 209.92920 209.80492 209.74463 210.08735 210.48507 210.88579
 211.69051 212.88023 214.14195 215.93667 217.87639 219.93110 222.03782 224.13254
 226.20426 228.29998 230.40870 232.52642 234.66714 236.85086 239.11858 241.50029
 244.13301 246.39573 248.40945 250.18617 251.61489 252.74961 253.58333 253.91105
 253.95976 253.74548 253.11720 252.07692 250.69464 248.86736 246.78808 244.63280
 242.43552 240.25124 238.08295 235.93367 233.80539 231.68411 229.72183 227.89055
 226.18527 224.66899 223.31071 222.09442 220.98814 219.95986 219.07558 218.22830
 217.48202 216.67374 215.78346 215.15918 214.62090 215.14568 216.34015 216.87181
 216.99249 217.40979 217.99771 217.48364 217.93056 220.30293 223.60445 226.86539
 230.16240 234.64977 239.40002 243.71210 247.69482 251.53790 255.17836 258.43558
 261.37027 264.11371 266.70172 269.07007 271.31183 273.55685 275.70490 277.47369
 278.94952 280.86069 282.64520 284.21213 285.56821 286.76794 287.86255 288.85419
 289.74603 290.54025 291.23404 292.11823
 366.78100 356.34570 345.78840 334.66510 323.07880 311.28350 299.16420 286.97791
 274.70061 262.60831 250.62801 239.93971 230.07241 221.18711 213.37981 206.39251
 200.23721 195.18591 191.77861 189.83131 188.87901 188.95372 189.79942 191.11812
 192.85382 194.95952 197.23322 199.60292 202.05862 204.54932 206.64802 208.50072
 210.13742 211.29312 211.53282 211.77153 211.71923 211.43493 211.07863 210.71933
 210.34703 210.06773 209.88643 209.76113 209.69983 210.04153 210.43823 210.83793
 211.64164 212.83034 214.09104 215.88474 217.82344 219.87714 221.98284 224.07654
 226.14724 228.24194 230.34964 232.46634 234.60604 236.78874 239.05545 241.43615
 244.06785 246.32955 248.34225 250.11795 251.54565 252.67935 253.51205 253.83875
 253.88645 253.67115 253.04185 252.00056 250.61726 248.78896 246.70866 244.55236
 242.35406 240.16876 237.99946 235.84916 233.71986 231.59756 229.63426 227.80196
 226.09566 224.57837 223.21907 222.00177 220.89447 219.86517 218.97987 218.13157
 217.38427 216.57497 215.68367 215.05837 214.51907 215.08644 216.36597 216.80673
 217.08989 217.42290 217.73058 217.41074 217.90050 220.21533 223.50270 226.81755
 230.21848 234.70602 239.45964 243.76756 247.73108 251.52580 255.09406 258.30942
 261.26706 264.06180 266.70148 269.15405 271.52560 273.87726 276.04504 277.91992
 279.44760 280.81897 282.26495 283.60620 284.78500 285.82791 286.77942 287.64145
 288.41672 289.10712 289.71021 290.47882
 366.78100 356.34470 345.78639 334.66209 323.07479 311.27848 299.15818 286.97087
 274.69257 262.59927 250.61796 239.92866 230.06036 221.17405 213.36575 206.37745
 200.22114 195.16884 191.76054 189.81223 188.85893 188.93262 189.77732 191.09502
 192.82971 194.93441 197.20711 199.57580 202.03050 204.52020 206.61789 208.46959
 210.10528 211.25998 211.49868 211.73637 211.68307 211.39777 211.04046 210.68016
 210.30686 210.02655 209.84425 209.71795 209.65564 209.99634 210.39203 210.79073
 211.59343 212.78112 214.04082 215.83352 217.77121 219.82391 221.92861 224.02130
 226.09100 228.18469 230.29139 232.40709 234.54578 236.72748 238.99318 241.37287
 244.00357 246.26427 248.27596 250.05066 251.47736 252.61005 253.44175 253.76744
 253.81414 253.59784 252.96753 251.92523 250.54093 248.71162 246.63032 244.47302
 242.27371 240.08741 237.91710 235.76580 233.63550 231.51219 229.54789 227.71459
 226.00728 224.48898 223.12868 221.91037 220.80207 219.77177 218.88546 218.03616
 217.28785 216.47755 215.58525 214.95894 214.41864 215.03056 216.40831 216.72104
 217.14479 217.53580 217.68294 217.23750 217.64813 219.97427 223.33215 226.66231
 230.24557 234.73897 239.46843 243.81349 247.81895 251.64165 255.21632 258.38721
 261.29559 264.04840 266.65750 269.12769 271.58411 274.06628 276.28729 278.15686
 279.74750 281.02432 282.07816 282.73065 283.62903 284.52127 285.33530 286.07272
 286.73599 287.32663 287.84259 288.50012
 366.78100 356.34589 345.78877 334.66566 323.07954 311.28443 299.16532 286.97920
 274.70209 262.60998 250.62986 239.94175 230.07463 221.18952 213.38241 206.39529
 200.24018 195.18906 191.78195 189.83484 188.88272 188.95761 189.80349 191.12238
 192.85827 194.96415 197.23804 199.60793 202.06381 204.55470 206.65358 208.50647
 210.14336 211.29924 211.53913 211.77801 211.72590 211.44179 211.08567 210.72656
 210.35445 210.07533 209.89422 209.76910 209.70799 210.04988 210.44676 210.84665
 211.65053 212.83942 214.10031 215.89419 217.83308 219.88696 221.99285 224.08674
 226.15762 228.25251 230.36040 232.47728 234.61717 236.80005 239.06694 241.44783
 244.07971 246.34160 248.35448 250.13037 251.55826 252.69214 253.52503 253.85192
 253.89980 253.68469 253.05557 252.01446 250.63135 248.80323 246.72312 244.56700
 242.36889 240.18378 238.01466 235.86455 233.73543 231.61332 229.65021 227.81809
 226.11198 224.59487 223.23575 222.01864 220.91152 219.88241 218.99730 218.14918
 217.40207 216.59295 215.70184 215.07673 214.53761 215.07727 216.32532 216.78929
 217.05666 217.48743 217.64883 217.12436 217.45334 219.79492 223.27924 226.53256
 230.27148 234.78616 239.52354 243.90141 247.92699 251.74815 255.30009 258.47357
 261.36713 264.08340 266.65396 269.12393 271.65369 274.23523 276.51471 278.38095
 280.00388 281.32983 282.33188 282.83801 283.02414 283.84268 284.71478 285.50485
 286.21542 286.84818 287.40094 288.10538
 366.78100 356.34726 345.79152 334.66978 323.08504 311.29130 299.17356 286.98882
 274.71308 262.62234 250.64360 239.95686 230.09112 221.20738 213.40164 206.41590
 200.26216 195.21242 191.80668 189.86094 188.91020 188.98646 189.83372 191.15398
 192.89124 194.99850 197.27376 199.64502 202.10229 204.59455 206.69481 208.54907
 210.18733 211.34459 211.58585 211.82611 211.77537 211.49263 211.13789 210.78015
 210.40941 210.13167 209.95193 209.82819 209.76845 210.11171 210.50997 210.91123
 211.71649 212.90675 214.16901 215.96427 217.90453 219.95979 222.06705 224.16231
 226.23457 228.33083 230.44009 232.55835 234.69961 236.88387 239.15213 241.53439
 244.16765 246.43091 248.44517 250.22243 251.65169 252.78695 253.62121 253.94947
 253.99873 253.78499 253.15725 252.11751 250.73577 248.90903 246.83029 244.67555
 242.47881 240.29507 238.12734 235.97860 233.85086 231.73012 229.76838 227.93764
 226.23290 224.71716 223.35942 222.14368 221.03794 220.01020 219.12646 218.27972
 217.53398 216.72624 215.83650 215.21276 214.67502 215.13425 216.21674 216.91266
 217.12532 217.38800 217.48297 216.92783 217.25343 219.67929 223.24763 226.38669
 230.27229 234.82513 239.58293 243.97575 248.00130 251.80945 255.34990 258.52814
 261.42227 264.11664 266.64349 269.07538 271.64313 274.34952 276.63593 278.45889
 280.07980 281.39441 282.34103 282.86096 282.93884 283.21555 284.12427 284.96326
 285.71783 286.38980 286.97681 287.72488
 366.78100 356.34648 345.78996 334.66744 323.08191 311.28739 299.16887 286.98335
 274.70683 262.61531 250.63578 239.94826 230.08174 221.19722 213.39070 206.40418
 200.24966 195.19913 191.79261 189.84609 188.89457 188.97005 189.81653 191.13600
 192.87248 194.97896 197.25344 199.62392 202.08040 204.57188 206.67135 208.52483
 210.16231 211.31879 211.55927 211.79875 211.74723 211.46370 211.10818 210.74966
 210.37814 210.09962 209.91910 209.79457 209.73405 210.07653 210.47401 210.87449
 211.67897 212.86845 214.12992 215.92440 217.86388 219.91836 222.02484 224.11932
 226.19079 228.28627 230.39475 232.51223 234.65271 236.83619 239.10367 241.48514
 244.11762 246.38010 248.39358 250.17006 251.59854 252.73301 253.56649 253.89397
 253.94245 253.72793 253.09941 252.05889 250.67636 248.84884 246.76932 244.61380
 242.41628 240.23176 238.06323 235.91371 233.78519 231.66367 229.70115 227.86963
 226.16411 224.64758 223.28906 222.07254 220.96602 219.93750 219.05298 218.20546
 217.45893 216.65041 215.75989 215.13537 214.59685 215.09857 216.26694 216.80745
 217.23946 217.54771 217.53282 216.90485 217.17154 219.49213 222.97963 226.35547
 230.26974 234.87166 239.62404 244.01796 248.06041 251.88397 255.43520 258.62622
 261.53775 264.21573 266.69998 269.09796 271.68832 274.39056 276.71313 278.56305
 280.16483 281.42856 282.26810 282.62701 282.68335 283.19061 284.00046 284.73410
 285.39395 285.98154 286.49484 287.14902
 366.78100 356.34482 345.78663 334.66245 323.07526 311.27908 299.15889 286.97171
 274.69352 262.60034 250.61915 239.92997 230.06178 221.17560 213.36741 206.37923
 200.22304 195.17086 191.76267 189.81449 188.86131 188.93512 189.77994 191.09775
 192.83257 194.93738 197.21020 199.57901 202.03383 204.52364 206.62146 208.47327
 210.10909 211.26390 211.50272 211.74053 211.68735 211.40216 211.04498 210.68480
 210.31161 210.03143 209.84924 209.72306 209.66087 210.00169 210.39750 210.79632
 211.59913 212.78695 214.04676 215.83958 217.77739 219.83021 221.93502 224.02784
 226.09765 228.19147 230.29829 232.41410 234.55292 236.73473 239.00055 241.38036
 244.01118 246.27199 248.28381 250.05862 251.48544 252.61825 253.45007 253.77588
 253.82270 253.60651 252.97633 251.93415 250.54996 248.72078 246.63959 244.48241
 242.28322 240.09704 237.92685 235.77567 233.64548 231.52230 229.55811 227.72493
 226.01774 224.49956 223.13937 221.92119 220.81300 219.78282 218.89664 218.04745
 217.29927 216.48908 215.59690 214.97071 214.43053 215.01711 216.36487 216.69377
 217.18527 217.65985 217.60681 216.89139 217.09048 219.34850 222.82594 226.31480
 230.28853 234.93254 239.69249 244.08063 248.12933 251.95326 255.49965 258.69794
 261.63306 264.33105 266.81168 269.15247 271.67227 274.44476 276.88751 278.73917
 280.37296 281.67548 282.43558 282.52051 282.44830 283.09198 283.87115 284.57706
 285.21194 285.77728 286.27118 286.90057
 366.78100 356.34610 345.78920 334.66630 323.08040 311.28549 299.16659 286.98069
 274.70379 262.61189 250.63199 239.94409 230.07719 221.19229 213.38539 206.39848
 200.24358 195.19268 191.78578 189.83888 188.88698 188.96208 189.80818 191.12728
 192.86338 194.96947 197.24357 199.61367 202.06977 204.56087 206.65997 208.51307
 210.15017 211.30627 211.54637 211.78546 211.73356 211.44966 211.09376 210.73486
 210.36296 210.08406 209.90316 209.77826 209.71736 210.05945 210.45655 210.85665
 211.66075 212.84985 214.11095 215.90505 217.84415 219.89825 222.00435 224.09844
 226.16954 228.26464 230.37274 232.48984 234.62994 236.81304 239.08014 241.46124
 244.09334 246.35543 248.36853 250.14463 251.57273 252.70683 253.53993 253.86703
 253.91513 253.70023 253.07133 252.03042 250.64752 248.81962 246.73972 244.58382
 242.38592 240.20102 238.03212 235.88222 233.75332 231.63141 229.66851 227.83661
 226.13071 224.61381 223.25491 222.03801 220.93111 219.90221 219.01730 218.16940
 217.42250 216.61360 215.72270 215.09780 214.55890 215.06841 216.26477 216.85141
 217.21382 217.59662 217.48914 216.72812 216.90431 219.18132 222.79410 226.21678
 230.32014 234.97443 239.76443 244.14465 248.19742 252.00328 255.54158 258.74289
 261.67767 264.38367 266.86679 269.20697 271.68469 274.49249 277.02502 278.90540
 280.48624 281.70370 282.41290 282.58630 282.52795 282.67950 283.32169 284.06012
 284.72910 285.32477 285.84518 286.50836
 366.78100 356.34789 345.79279 334.67168 323.08757 311.29447 299.17736 286.99325
 274.71814 262.62804 250.64993 239.96382 230.09872 221.21561 213.41050 206.42540
 200.27229 195.22318 191.81808 189.87297 188.92286 188.99976 189.84765 191.16854
 192.90643 195.01433 197.29022 199.66211 202.12001 204.61290 206.71379 208.56869
 210.20758 211.36547 211.60737 211.84826 211.79815 211.51605 211.16194 210.80483
 210.43472 210.15762 209.97851 209.85540 209.79630 210.14019 210.53908 210.94098
 211.74687 212.93776 214.20066 215.99655 217.93744 219.99334 222.10123 224.19712
 226.27001 228.36691 230.47680 232.59569 234.73759 236.92248 239.19137 241.57427
 244.20816 246.47205 248.48695 250.26484 251.69473 252.83063 253.66552 253.99441
 254.04430 253.83120 253.20409 252.16498 250.78388 248.95777 246.87966 244.72556
 242.52945 240.34634 238.17924 236.03113 233.90402 231.78392 229.82281 227.99270
 226.28859 224.77349 223.41638 222.20127 221.09617 220.06906 219.18595 218.33985
 217.59474 216.78763 215.89853 215.27542 214.73831 215.14801 216.11621 217.00830
 217.39711 217.66902 217.41965 216.55461 216.72147 218.97804 222.68822 226.07175
 230.32393 235.01237 239.83270 244.20186 248.26408 252.07307 255.62152 258.82654
 261.76044 264.45648 266.91870 269.24670 271.72992 274.49307 277.05322 279.02405
 280.58777 281.75427 282.38904 282.51242 282.46194 282.46936 282.84467 283.39462
 284.05075 284.71268 285.29092 286.02783
 366.78100 356.34768 345.79236 334.67103 323.08671 311.29339 299.17607 286.99174
 274.71642 262.62610 250.64778 239.96145 230.09613 221.21281 213.40749 206.42216
 200.26884 195.21952 191.81420 189.86887 188.91855 188.99523 189.84291 191.16358
 192.90126 195.00894 197.28462 199.65629 202.11397 204.60665 206.70733 208.56200
 210.20068 211.35836 211.60004 211.84071 211.79039 211.50807 211.15375 210.79642
 210.42610 210.14878 209.96946 209.84613 209.78681 210.13049 210.52917 210.93084
 211.73652 212.92720 214.18988 215.98555 217.92623 219.98191 222.08959 224.18526
 226.25794 228.35462 230.46430 232.58297 234.72465 236.90933 239.17801 241.56068
 244.19436 246.45804 248.47272 250.25039 251.68007 252.81575 253.65043 253.97910
 254.02878 253.81546 253.18814 252.14881 250.76749 248.94117 246.86285 244.70852
 242.51220 240.32888 238.16156 236.01323 233.88591 231.76559 229.80427 227.97394
 226.26962 224.75430 223.39698 222.18165 221.07633 220.04901 219.16569 218.31936
 217.57404 216.76672 215.87740 215.25407 214.71675 215.13411 216.12016 217.00043
 217.49435 217.72911 217.41217 216.50566 216.64603 218.81494 222.50621 226.04543
 230.33658 235.05904 239.88744 244.25916 248.33119 252.14534 255.70161 258.91516
 261.85965 264.54730 266.98376 269.26938 271.68112 274.48477 277.16626 279.14490
 280.69128 281.82199 282.38947 282.47797 282.40228 282.37454 282.68881 283.21402
 283.74472 284.35107 284.92102 285.64734
 366.78100 356.34662 345.79023 334.66785 323.08247 311.28808 299.16970 286.98431
 274.70793 262.61655 250.63716 239.94978 230.08340 221.19901 213.39263 206.40624
 200.25186 195.20148 191.79509 189.84871 188.89733 188.97294 189.81956 191.13917
 192.87579 194.98241 197.25702 199.62764 202.08426 204.57587 206.67549 208.52910
 210.16672 211.32334 211.56395 211.80357 211.75219 211.46880 211.11342 210.75503
 210.38365 210.10527 209.92488 209.80050 209.74012 210.08273 210.48035 210.88096
 211.68558 212.87520 214.13681 215.93143 217.87105 219.92566 222.03228 224.12689
 226.19851 228.29413 230.40274 232.52036 234.66098 236.84459 239.11221 241.49382
 244.12644 246.38906 248.40267 250.17929 251.60791 252.74252 253.57614 253.90375
 253.95237 253.73799 253.10960 252.06922 250.68684 248.85945 246.78007 244.62468
 242.42730 240.24292 238.07453 235.92515 233.79677 231.67538 229.71300 227.88161
 226.17623 224.65985 223.30146 222.08508 220.97870 219.95031 219.06593 218.21854
 217.47216 216.66378 215.77339 215.14901 214.61063 215.08080 216.19165 216.96014
 217.56476 217.75993 217.34526 216.37859 216.52144 218.67305 222.38089 226.04092
 230.34329 235.09755 239.93385 244.33391 248.41592 252.24153 255.80617 259.01886
 261.96039 264.63760 267.06134 269.31610 271.64584 274.42188 277.13443 279.24643
 280.81329 281.93054 282.46216 282.47736 282.34348 282.28699 282.53622 282.99881
 283.56345 284.17337 284.73975 285.46155
 354.97500 345.04800 334.58700 324.11500 313.32600 302.53700 291.65000 280.76700
 269.93100 259.19300 248.62200 238.61700 229.08700 220.35500 212.54000 205.53500
 199.46400 194.49300 191.14300 189.19000 188.08900 188.01400 188.72400 189.90600
 191.46900 193.38200 195.40300 197.55600 199.80700 202.06000 204.28800 206.47900
 208.55200 210.37800 212.02500 213.65900 214.99800 216.11800 217.17200 218.25900
 219.49400 220.64500 221.67900 222.61400 223.54500 224.98200 226.57100 228.19000
 229.79700 231.81100 233.86500 235.97200 238.24200 240.55300 242.89900 245.25300
 247.48800 249.53500 251.36600 252.84800 254.09800 255.16700 256.02700 256.25300
 256.09500 255.54300 253.93500 252.56600 251.38400 250.24500 249.05200 247.70100
 246.01600 243.99600 241.78400 239.39300 236.81300 234.22300 231.65800 229.14400
 226.74000 224.47300 222.33500 220.32500 218.44000 216.67700 214.96200 213.47200
 212.20000 211.10800 210.26000 209.63900 209.24400 209.03100 209.05800 209.33300
 209.78400 210.62600 211.33100 212.39100 213.62500 214.84668 217.72949 219.47640
 220.32566 220.86828 220.88710 220.27371 219.43733 218.84250 219.04934 220.86203
 222.60583 225.72206 229.03064 232.61777 236.12270 239.51333 242.70767 245.68587
 248.41061 250.90679 253.19353 254.91714 256.48655 257.94920 259.39966 260.69384
 261.81714 262.77997 263.71679 264.54570 265.26305 265.89772 266.47676 267.00133
 267.47312 267.89325 268.26027 268.72800
