|-------------------------------------------------------------------------|
|   File Name : in_temp.dat
|   Subject   : temperature profiles used for initial guess atmosphere
|   File Type : input of gmtr
|   Data Type : atmospherical data
|   Author/s  : WRF-Chem
|   Date      : Fri Jul 26 15:39:24 2024
|-------------------------------------------------------------------------|

 WRF-Chem temperature
#
 values of T (K)    (8f10.5)
#
 354.97500 345.04800 334.58700 324.11500 313.32600 302.53700 291.65000 280.76700
 269.93100 259.19300 248.62200 238.61700 229.08700 220.35500 212.54000 205.53500
 199.46400 194.49300 191.14300 189.19000 188.08900 188.01400 188.72400 189.90600
 191.46900 193.38200 195.40300 197.55600 199.80700 202.06000 204.28800 206.47900
 208.55200 210.37800 212.02500 213.65900 214.99800 216.11800 217.17200 218.25900
 219.49400 220.64500 221.67900 222.61400 223.54500 224.98200 226.57100 228.19000
 229.79700 231.81100 233.86500 235.97200 238.24200 240.55300 242.89900 245.25300
 247.48800 249.53500 251.36600 252.84800 254.09800 255.16700 256.02700 256.25300
 256.09500 255.54300 253.93500 252.56600 251.38400 250.24500 249.05200 247.70100
 246.01600 243.99600 241.78400 239.39300 236.81300 234.22300 231.65800 229.14400
 226.74000 224.47300 222.33500 220.32500 218.44000 216.67700 214.96200 213.47200
 212.20000 211.10800 210.26000 209.63900 209.24400 209.03100 209.05800 209.33300
 209.78400 210.62600 211.33100 212.39100 213.62500 214.84668 217.72949 219.47640
 220.32566 220.86828 220.88710 220.27371 219.43733 218.84250 219.04934 220.86203
 222.60583 225.72206 229.03064 232.61777 236.12270 239.51333 242.70767 245.68587
 248.41061 250.90679 253.19353 254.91714 256.48655 257.94920 259.39966 260.69384
 261.81714 262.77997 263.71679 264.54570 265.26305 265.89772 266.47676 267.00133
 267.47312 267.89325 268.26027 268.72800
 366.78100 356.33500 345.76700 334.63300 323.03600 311.23000 299.10000 286.90300
 274.61500 262.51200 250.52100 239.82200 229.94400 221.04800 213.23000 206.23200
 200.06600 195.00400 191.58600 189.62800 188.66500 188.72900 189.56400 190.87200
 192.59700 194.69200 196.95500 199.31400 201.75900 204.23900 206.32700 208.16900
 209.79500 210.94000 211.16900 211.39700 211.33400 211.03900 210.67200 210.30200
 209.91900 209.62900 209.43700 209.30100 209.22900 209.56000 209.94600 210.33500
 211.12800 212.30600 213.55600 215.33900 217.26700 219.31000 221.40500 223.48800
 225.54800 227.63200 229.72900 231.83500 233.96400 236.13600 238.39200 240.76200
 243.38300 245.63400 247.63600 249.40100 250.81800 251.94100 252.76300 253.07900
 253.11600 252.89000 252.25000 251.19800 249.80400 247.96500 245.87400 243.70700
 241.49800 239.30200 237.12200 234.96100 232.82100 230.68800 228.71400 226.87100
 225.15400 223.62600 222.25600 221.02800 219.91000 218.87000 217.97400 217.11500
 216.35700 215.53700 214.63500 213.99900 213.44900 212.85855 212.01316 212.61654
 214.26826 216.08686 218.14273 220.53346 223.40855 226.78828 231.49734 235.90155
 239.42278 243.28576 247.23140 251.11907 254.80144 258.23331 261.38913 264.27520
 266.89312 269.26852 271.44504 273.08845 274.58484 275.98591 277.39845 278.65879
 279.75272 280.69038 281.56708 282.34086 283.01050 283.60295 284.14348 284.63317
 285.07358 285.46577 285.80838 286.24500
 381.81900 372.39900 361.20600 349.77600 337.62200 324.85300 311.81000 298.35300
 284.86000 271.32400 258.56100 246.30400 236.08700 226.79600 218.44800 211.29000
 205.52200 200.89400 197.38100 194.84800 193.01500 192.31500 192.25000 192.43100
 192.91200 193.53700 194.13600 194.71200 195.26200 195.83100 196.39300 196.97600
 197.60400 198.14900 198.58400 199.05700 199.69500 200.37800 201.05400 201.70800
 202.31300 202.85700 203.35500 203.86200 204.56900 205.29700 206.02600 206.98700
 208.19300 209.44100 210.96900 212.57600 214.46200 216.51300 218.63000 220.85300
 223.34100 225.96200 228.73900 231.69700 234.70600 237.70600 240.69200 243.65700
 246.73700 249.69900 252.52100 255.06300 257.29000 259.23300 260.63300 261.68000
 262.46100 262.79800 262.69100 262.22400 261.06900 259.52500 257.70700 255.50700
 253.00100 250.30200 247.39800 244.45200 241.65400 239.05400 236.73300 234.59000
 232.59500 230.72500 228.83400 226.82600 224.66600 222.38700 220.10400 217.71500
 215.45900 213.06600 210.54600 208.09300 205.35400 202.08130 196.05959 200.71215
 209.01611 216.90438 223.84126 229.78593 235.00632 240.20838 245.98943 250.68668
 254.32982 257.93487 261.55666 264.96801 268.15192 271.06452 273.76717 276.25691
 278.57680 280.74479 282.77456 284.60533 286.27232 287.81705 289.31715 290.65561
 291.81734 292.81312 293.70701 294.49387 295.17482 295.77730 296.32696 296.82492
 297.27278 297.67160 298.02000 298.46400
 399.33000 389.90700 379.81300 368.66800 357.52200 345.30100 333.07400 320.22700
 307.21600 293.84800 280.37600 267.29600 254.61000 242.98700 232.15100 221.97700
 212.67200 204.28600 197.66900 192.82100 189.48600 187.45200 186.81400 187.08900
 187.78100 189.05400 190.64800 192.54200 194.63000 196.75200 198.67100 200.15800
 201.53500 202.48700 202.97500 203.34000 203.53900 203.49700 203.38500 203.24700
 203.00500 202.78600 202.60300 202.43700 202.42600 202.88800 203.42000 203.95100
 204.89500 205.99200 207.30100 208.95800 210.73800 213.10000 215.56400 218.18000
 220.96600 223.91800 226.96100 230.09200 233.29300 236.55700 239.95500 243.53700
 246.84500 249.39000 251.54200 253.47400 255.19500 256.48400 257.43100 258.05900
 258.21200 258.04000 257.58200 256.64300 255.23900 253.50700 251.40800 249.05600
 246.57600 243.99400 241.38900 238.83000 236.34400 233.98600 231.96900 230.11800
 228.42300 226.89900 225.54800 224.29700 223.10500 221.96500 220.95800 220.11300
 219.49000 218.92000 218.32500 217.88100 217.42300 216.96366 216.35568 216.80261
 217.73415 218.28582 218.64258 219.10077 220.44626 222.53987 226.38451 230.35736
 233.59734 237.39164 241.29814 245.22796 248.98002 252.51130 255.78595 258.80109
 261.54781 264.05210 266.34239 268.04198 269.58951 271.01303 272.35754 273.55718
 274.59842 275.49092 276.28989 276.99307 277.60161 278.14001 278.63122 279.07623
 279.47646 279.83287 280.14422 280.54100
 399.73800 389.78500 379.66200 368.15100 356.64100 344.35000 331.79200 318.88800
 305.72600 292.49300 279.20900 266.73800 254.69600 244.21100 234.45700 225.43300
 217.56900 210.45100 204.30000 199.30600 195.45800 192.57600 191.02700 190.38600
 190.23900 190.53400 191.16600 191.92500 192.79500 193.76600 194.73200 195.31200
 195.80000 196.05200 196.11500 196.11500 196.03900 195.72300 195.34000 194.98900
 194.75100 194.79200 195.13300 195.59800 196.50600 198.13600 199.85800 201.56600
 204.17900 206.82300 209.89300 213.28400 216.82800 220.60500 224.38700 228.20900
 232.03200 235.82500 239.56000 243.25800 246.84500 250.20100 253.70900 257.46800
 261.53000 264.22100 266.60100 268.68100 270.32900 271.74100 272.83600 273.47400
 273.89800 274.00200 273.75700 273.28800 272.37100 271.10000 269.58900 267.77900
 265.81600 263.72100 261.39300 258.91600 256.29800 253.42300 250.33100 247.11400
 243.83700 240.52900 237.24900 233.99900 230.72800 227.51500 224.25400 220.95200
 217.62700 213.65600 210.12100 206.78900 204.01000 201.99491 199.07309 198.76551
 199.40006 200.48994 201.46112 202.31912 203.45100 204.96110 207.47502 210.85391
 213.70530 217.29629 220.99574 224.72316 228.28753 231.64854 234.68024 237.40893
 239.70644 241.60899 243.46854 245.67368 247.68154 249.52395 251.24767 252.78566
 254.12057 255.26479 256.23740 257.09036 257.82852 258.48160 259.07744 259.61723
 260.10271 260.53504 260.91270 261.39400
 399.73800 389.78500 379.66200 368.15100 356.64100 344.35000 331.79200 318.88800
 305.72600 292.49300 279.20900 266.73800 254.69600 244.21100 234.45700 225.43300
 217.56900 210.45100 204.30000 199.30600 195.45800 192.57600 191.02700 190.38600
 190.23900 190.53400 191.16600 191.92500 192.79500 193.76600 194.73200 195.31200
 195.80000 196.05200 196.11500 196.11500 196.03900 195.72300 195.34000 194.98900
 194.75100 194.79200 195.13300 195.59800 196.50600 198.13600 199.85800 201.56600
 204.17900 206.82300 209.89300 213.28400 216.82800 220.60500 224.38700 228.20900
 232.03200 235.82500 239.56000 243.25800 246.84500 250.20100 253.70900 257.46800
 261.53000 264.22100 266.60100 268.68100 270.32900 271.74100 272.83600 273.47400
 273.89800 274.00200 273.75700 273.28800 272.37100 271.10000 269.58900 267.77900
 265.81600 263.72100 261.39300 258.91600 256.29800 253.42300 250.33100 247.11400
 243.83700 240.52900 237.24900 233.99900 230.72800 227.51500 224.25400 220.95200
 217.62700 213.65600 210.12100 206.78900 204.01000 201.99491 199.07309 198.76551
 199.40006 200.48994 201.46112 202.31912 203.45100 204.96110 207.47502 210.85391
 213.70530 217.29629 220.99574 224.72316 228.28753 231.64854 234.68024 237.40893
 239.70644 241.60899 243.46854 245.67368 247.68154 249.52395 251.24767 252.78566
 254.12057 255.26479 256.23740 257.09036 257.82852 258.48160 259.07744 259.61723
 260.10271 260.53504 260.91270 261.39400
 399.33000 389.90700 379.81300 368.66800 357.52200 345.30100 333.07400 320.22700
 307.21600 293.84800 280.37600 267.29600 254.61000 242.98700 232.15100 221.97700
 212.67200 204.28600 197.66900 192.82100 189.48600 187.45200 186.81400 187.08900
 187.78100 189.05400 190.64800 192.54200 194.63000 196.75200 198.67100 200.15800
 201.53500 202.48700 202.97500 203.34000 203.53900 203.49700 203.38500 203.24700
 203.00500 202.78600 202.60300 202.43700 202.42600 202.88800 203.42000 203.95100
 204.89500 205.99200 207.30100 208.95800 210.73800 213.10000 215.56400 218.18000
 220.96600 223.91800 226.96100 230.09200 233.29300 236.55700 239.95500 243.53700
 246.84500 249.39000 251.54200 253.47400 255.19500 256.48400 257.43100 258.05900
 258.21200 258.04000 257.58200 256.64300 255.23900 253.50700 251.40800 249.05600
 246.57600 243.99400 241.38900 238.83000 236.34400 233.98600 231.96900 230.11800
 228.42300 226.89900 225.54800 224.29700 223.10500 221.96500 220.95800 220.11300
 219.49000 218.92000 218.32500 217.88100 217.42300 216.96366 216.35568 216.80261
 217.73415 218.28582 218.64258 219.10077 220.44626 222.53987 226.38451 230.35736
 233.59734 237.39164 241.29814 245.22796 248.98002 252.51130 255.78595 258.80109
 261.54781 264.05210 266.34239 268.04198 269.58951 271.01303 272.35754 273.55718
 274.59842 275.49092 276.28989 276.99307 277.60161 278.14001 278.63122 279.07623
 279.47646 279.83287 280.14422 280.54100
 381.81900 372.39900 361.20600 349.77600 337.62200 324.85300 311.81000 298.35300
 284.86000 271.32400 258.56100 246.30400 236.08700 226.79600 218.44800 211.29000
 205.52200 200.89400 197.38100 194.84800 193.01500 192.31500 192.25000 192.43100
 192.91200 193.53700 194.13600 194.71200 195.26200 195.83100 196.39300 196.97600
 197.60400 198.14900 198.58400 199.05700 199.69500 200.37800 201.05400 201.70800
 202.31300 202.85700 203.35500 203.86200 204.56900 205.29700 206.02600 206.98700
 208.19300 209.44100 210.96900 212.57600 214.46200 216.51300 218.63000 220.85300
 223.34100 225.96200 228.73900 231.69700 234.70600 237.70600 240.69200 243.65700
 246.73700 249.69900 252.52100 255.06300 257.29000 259.23300 260.63300 261.68000
 262.46100 262.79800 262.69100 262.22400 261.06900 259.52500 257.70700 255.50700
 253.00100 250.30200 247.39800 244.45200 241.65400 239.05400 236.73300 234.59000
 232.59500 230.72500 228.83400 226.82600 224.66600 222.38700 220.10400 217.71500
 215.45900 213.06600 210.54600 208.09300 205.35400 202.08130 196.05959 200.71215
 209.01611 216.90438 223.84126 229.78593 235.00632 240.20838 245.98943 250.68668
 254.32982 257.93487 261.55666 264.96801 268.15192 271.06452 273.76717 276.25691
 278.57680 280.74479 282.77456 284.60533 286.27232 287.81705 289.31715 290.65561
 291.81734 292.81312 293.70701 294.49387 295.17482 295.77730 296.32696 296.82492
 297.27278 297.67160 298.02000 298.46400
 366.78100 356.33310 345.76319 334.62729 323.02839 311.22049 299.08858 286.88968
 274.59978 262.49487 250.50197 239.80107 229.92117 221.02326 213.20336 206.20346
 200.03555 194.97165 191.55175 189.59185 188.62694 188.68904 189.52214 190.82823
 192.55133 194.64443 196.90553 199.26262 201.70572 204.18382 206.26991 208.11001
 209.73411 210.87721 211.10430 211.33040 211.26550 210.96859 210.59969 210.22779
 209.84289 209.55098 209.35708 209.21918 209.14527 209.47437 209.85847 210.24557
 211.03666 212.21276 213.46086 215.24195 217.16805 219.20915 221.30224 223.38334
 225.44144 227.52354 229.61863 231.72273 233.84983 236.01992 238.27402 240.64212
 243.26122 245.51031 247.51041 249.27351 250.68860 251.80970 252.62980 252.94390
 252.97899 252.75109 252.10919 251.05528 249.65938 247.81848 245.72558 243.55667
 241.34577 239.14787 236.96596 234.80306 232.66116 230.52626 228.55035 226.70545
 224.98655 223.45664 222.08474 220.85484 219.73494 218.69303 217.79513 216.93423
 216.17432 215.35242 214.44852 213.81062 213.25871 212.85588 211.90747 211.96257
 212.92384 214.83415 216.44746 217.09865 218.63278 222.66765 228.70428 233.64499
 237.44586 241.18596 244.94386 248.72586 252.46213 255.61118 258.20413 260.67670
 263.39984 266.03864 268.42957 270.53497 272.50327 274.38150 276.03745 277.65753
 279.32419 280.95615 282.45691 283.81335 284.99466 286.04218 287.00336 287.87540
 288.66592 289.37543 290.00024 290.83218
 366.78100 356.33151 345.76002 334.62252 323.02203 311.21254 299.07905 286.87856
 274.58706 262.48057 250.48608 239.78359 229.90210 221.00260 213.18111 206.17962
 200.01013 194.94463 191.52314 189.56165 188.59516 188.65567 189.48717 190.79168
 192.51319 194.60470 196.86421 199.21971 201.66122 204.13773 206.22224 208.06075
 209.68325 210.82476 211.05027 211.27478 211.20829 210.90979 210.53930 210.16581
 209.77932 209.48582 209.29033 209.15084 209.07535 209.40286 209.78536 210.17087
 210.96038 212.13489 213.38140 215.16090 217.08541 219.12492 221.21643 223.29594
 225.35244 227.43295 229.52646 231.62897 233.75448 235.92298 238.17549 240.54200
 243.15951 245.40702 247.40552 249.16703 250.58054 251.70005 252.51855 252.83106
 252.86457 252.63508 251.99159 250.93609 249.53860 247.69611 245.60162 243.43113
 241.21863 239.01914 236.83565 234.67116 232.52767 230.39117 228.41368 226.56719
 224.84670 223.31521 221.94171 220.71022 219.58873 218.54524 217.64574 216.78325
 216.02176 215.19827 214.29278 213.65328 213.09979 212.77754 212.01862 212.09996
 213.02376 214.90657 216.46687 217.18681 218.58553 222.61377 228.65958 233.56631
 237.35948 241.11472 244.89780 248.67590 252.35556 255.47884 258.07904 260.56454
 263.23770 265.87445 268.31079 270.42899 272.38480 274.24832 275.89948 277.52057
 279.19278 280.83600 282.34454 283.70139 284.88315 285.93167 286.89160 287.76474
 288.55548 289.26541 289.89078 290.72733
 366.78100 356.32996 345.75692 334.61788 323.01584 311.20480 299.06976 286.86772
 274.57469 262.46665 250.47061 239.76657 229.88353 220.98249 213.15945 206.15641
 199.98537 194.91833 191.49529 189.53225 188.56421 188.62317 189.45314 190.75610
 192.47606 194.56602 196.82398 199.17794 201.61790 204.09286 206.17582 208.01278
 209.63374 210.77370 210.99766 211.22062 211.15258 210.85255 210.48051 210.10547
 209.71743 209.42239 209.22535 209.08431 209.00727 209.33323 209.71419 210.09815
 210.88611 212.05907 213.30403 215.08199 217.00496 219.04292 221.13288 223.21084
 225.26580 227.34476 229.43672 231.53768 233.66164 235.82860 238.07956 240.44452
 243.06048 245.30644 247.30341 249.06337 250.47533 251.59329 252.41025 252.72121
 252.75317 252.52213 251.87709 250.82005 249.42101 247.57697 245.48093 243.30889
 241.09485 238.89382 236.70878 234.54274 232.39770 230.25966 228.28062 226.43258
 224.71054 223.17750 221.80246 220.56942 219.44638 218.40134 217.50030 216.63626
 215.87323 215.04819 214.14115 213.50011 212.94507 212.70032 212.12383 212.24258
 213.12111 214.98204 216.49088 217.26392 218.54756 222.58951 228.60693 233.48636
 237.27122 241.03809 244.84343 248.61684 252.23734 255.33900 257.95792 260.46344
 263.08414 265.71066 268.18753 270.31644 272.26221 274.11472 275.76434 277.38782
 279.07059 280.72134 282.23636 283.59470 284.77686 285.82559 286.78586 287.66086
 288.45242 289.16196 289.78784 290.62491
 366.78100 356.32846 345.75393 334.61339 323.00986 311.19732 299.06079 286.85725
 274.56272 262.45318 250.45565 239.75011 229.86557 220.96304 213.13850 206.13397
 199.96143 194.89290 191.46836 189.50383 188.53429 188.59176 189.42022 190.72168
 192.44015 194.52861 196.78508 199.13754 201.57601 204.04947 206.13094 207.96640
 209.58587 210.72433 210.94680 211.16826 211.09872 210.79719 210.42365 210.04712
 209.65758 209.36105 209.16251 209.01998 208.94144 209.26591 209.64537 210.02783
 210.81430 211.98576 213.22923 215.00569 216.92716 218.96362 221.05209 223.12855
 225.18202 227.25948 229.34994 231.44941 233.57187 235.73734 237.98680 240.35027
 242.96473 245.20920 247.20466 248.96313 250.37359 251.49005 252.30552 252.61498
 252.64545 252.41291 251.76638 250.70784 249.30731 247.46177 245.36424 243.19070
 240.97516 238.77263 236.58609 234.41856 232.27202 230.13249 228.15195 226.30242
 224.57888 223.04435 221.66781 220.43327 219.30874 218.26220 217.35967 216.49413
 215.72960 214.90306 213.99453 213.35199 212.79546 212.62543 212.22491 212.37987
 213.22240 215.05708 216.53085 217.32126 218.53769 222.59186 228.54927 233.40454
 237.18237 240.95952 244.78458 248.55258 252.11131 255.19380 257.83875 260.36917
 262.93515 265.54269 268.05420 270.19604 272.13705 273.98273 275.63266 277.26221
 278.96008 280.61258 282.13544 283.49521 284.67740 285.72714 286.68762 287.56406
 288.35535 289.06476 289.69180 290.53073
 366.78100 356.32708 345.75117 334.60925 323.00434 311.19042 299.05250 286.84759
 274.55167 262.44075 250.44184 239.73492 229.84901 220.94509 213.11917 206.11326
 199.93934 194.86942 191.44351 189.47759 188.50668 188.56276 189.38984 190.68993
 192.40701 194.49409 196.74918 199.10026 201.53735 204.00943 206.08951 207.92360
 209.54168 210.67877 210.89985 211.11993 211.04902 210.74610 210.37118 209.99327
 209.60235 209.30444 209.10452 208.96060 208.88069 209.20377 209.58185 209.96294
 210.74802 211.91811 213.16019 214.93527 216.85536 218.89044 220.97752 223.05261
 225.10469 227.18078 229.26986 231.36794 233.48903 235.65311 237.90120 240.26328
 242.87636 245.11945 247.11353 248.87061 250.27970 251.39478 252.20887 252.51695
 252.54603 252.31212 251.66420 250.60428 249.20237 247.35545 245.25654 243.08162
 240.86470 238.66079 236.47287 234.30395 232.15604 230.01512 228.03321 226.18229
 224.45737 222.92146 221.54354 220.30763 219.18171 218.13379 217.22988 216.36296
 215.59704 214.76913 213.85921 213.21530 212.65738 212.55659 212.31921 212.51244
 213.32788 215.13197 216.58070 217.35747 218.56567 222.60811 228.49339 233.32347
 237.09412 240.87984 244.72209 248.48360 251.97830 255.04102 257.71606 260.27383
 262.78693 265.36993 267.91019 270.06873 272.01407 273.86020 275.51169 277.14679
 278.85080 280.51270 282.04083 283.40237 284.58517 285.63406 286.59689 287.47205
 288.26569 288.97586 289.60193 290.44070
 366.78100 356.32588 345.74876 334.60564 322.99952 311.18441 299.04529 286.83917
 274.54205 262.42993 250.42981 239.72169 229.83457 220.92946 213.10234 206.09522
 199.92010 194.84898 191.42186 189.45474 188.48262 188.53751 189.36339 190.66227
 192.37815 194.46403 196.71791 199.06779 201.50367 203.97456 206.05344 207.88632
 209.50320 210.63908 210.85896 211.07784 211.00572 210.70161 210.32549 209.94637
 209.55425 209.25513 209.05401 208.90889 208.82777 209.14966 209.52654 209.90642
 210.69030 211.85918 213.10006 214.87394 216.79282 218.82671 220.91259 222.98647
 225.03735 227.11223 229.20011 231.29699 233.41687 235.57976 237.82664 240.18752
 242.79940 245.04128 247.03416 248.79004 250.19792 251.31181 252.12469 252.43157
 252.45945 252.22433 251.57521 250.51409 249.11097 247.26286 245.16274 242.98662
 240.76850 238.56338 236.37426 234.20414 232.05502 229.91291 227.92979 226.07767
 224.35155 222.81443 221.43531 220.19819 219.07107 218.02196 217.11684 216.24872
 215.48160 214.65248 213.74136 213.09624 212.53712 212.49684 212.40213 212.64711
 213.43983 215.20502 216.62897 217.37943 218.62009 222.62665 228.44618 233.24734
 237.00870 240.80132 244.65623 248.41016 251.83910 254.88156 257.58960 260.17749
 262.63986 265.19391 267.75357 269.92661 271.88535 273.74442 275.40701 277.05258
 278.75674 280.42331 281.95444 283.31464 284.49792 285.54834 286.51004 287.38474
 288.17828 288.89087 289.51666 290.36072
 366.78100 356.32485 345.74671 334.60256 322.99542 311.17927 299.03912 286.83198
 274.53383 262.42069 250.41954 239.71039 229.82225 220.91610 213.08796 206.07981
 199.90366 194.83152 191.40337 189.43523 188.46208 188.51593 189.34079 190.63864
 192.35350 194.43835 196.69120 199.04006 201.47491 203.94477 206.02262 207.85447
 209.47033 210.60518 210.82404 211.04189 210.96874 210.66360 210.28645 209.90631
 209.51316 209.21302 209.01087 208.86472 208.78258 209.10343 209.47929 209.85814
 210.64099 211.80885 213.04870 214.82156 216.73941 218.77226 220.85712 222.92997
 224.97983 227.05368 229.14053 231.23639 233.35524 235.51710 237.76295 240.12280
 242.73366 244.97451 246.96637 248.72122 250.12807 251.24093 252.05278 252.35864
 252.38549 252.14934 251.49920 250.43705 249.03291 247.18376 245.08261 242.90547
 240.68632 238.48018 236.29003 234.11888 231.96874 229.82559 227.84145 225.98830
 224.26115 222.72301 221.34286 220.10472 218.97657 217.92642 217.02028 216.15113
 215.38299 214.55284 213.64069 212.99455 212.43440 212.44624 212.47444 212.78441
 213.55954 215.27942 216.66936 217.40207 218.69023 222.64366 228.40891 233.17824
 236.92546 240.72383 244.58725 248.33163 251.69386 254.71423 257.45740 260.07687
 262.49677 265.01706 267.58578 269.76883 271.74506 273.62216 275.30679 276.97589
 278.68967 280.35062 281.88025 283.24341 284.42627 285.47754 286.43811 287.31448
 288.10849 288.82068 289.45169 290.29181
 366.78100 356.32395 345.74490 334.59985 322.99180 311.17475 299.03370 286.82564
 274.52659 262.41254 250.41049 239.70044 229.81139 220.90434 213.07529 206.06624
 199.88919 194.81614 191.38709 189.41803 188.44398 188.49693 189.32088 190.61783
 192.33178 194.41573 196.66768 199.01563 201.44958 203.91853 205.99548 207.82642
 209.44137 210.57532 210.79327 211.01022 210.93617 210.63012 210.25207 209.87102
 209.47697 209.17592 208.97287 208.82581 208.74276 209.06271 209.43766 209.81561
 210.59756 211.76451 213.00346 214.77541 216.69236 218.72431 220.80826 222.88020
 224.92915 227.00210 229.08805 231.18300 233.30095 235.46190 237.70685 240.06580
 242.67575 244.91570 246.90665 248.66059 250.06654 251.17849 251.98944 252.29439
 252.32034 252.08329 251.43224 250.36919 248.96414 247.11409 245.01204 242.83399
 240.61393 238.40688 236.21583 234.04378 231.89273 229.74868 227.76363 225.90958
 224.18153 222.64248 221.26143 220.02238 218.89332 217.84227 216.93522 216.06517
 215.29612 214.46507 213.55202 212.90497 212.34392 212.40257 212.54124 212.92131
 213.68512 215.35410 216.70786 217.43057 218.77145 222.66116 228.37709 233.11418
 236.84544 240.64888 244.51994 248.25102 251.54446 254.53735 257.31528 259.96811
 262.35779 264.84369 267.41165 269.60483 271.59961 273.48788 275.18500 276.87503
 278.60532 280.30597 281.84879 283.21271 284.39822 285.44998 286.41522 287.29257
 288.08615 288.80273 289.43051 290.27792
 366.78100 356.32320 345.74340 334.59761 322.98881 311.17101 299.02921 286.82041
 274.52062 262.40582 250.40302 239.69222 229.80242 220.89463 213.06483 206.05503
 199.87723 194.80343 191.37364 189.40384 188.42904 188.48124 189.30444 190.60064
 192.31385 194.39705 196.64825 198.99545 201.42865 203.89686 205.97306 207.80326
 209.41746 210.55066 210.76787 210.98407 210.90927 210.60247 210.22367 209.84188
 209.44708 209.14528 208.94148 208.79368 208.70989 209.02909 209.40329 209.78049
 210.56169 211.72790 212.96610 214.73730 216.65350 218.68470 220.76791 222.83911
 224.88731 226.95951 229.04471 231.13892 233.25612 235.41632 237.66052 240.01872
 242.62793 244.86713 246.85733 248.61053 250.01573 251.12693 251.93714 252.24134
 252.26654 252.02874 251.37694 250.31315 248.90735 247.05655 244.95375 242.77495
 240.55416 238.34636 236.15456 233.98176 231.82996 229.68517 227.69937 225.84457
 224.11577 222.57597 221.19418 219.95438 218.82458 217.77278 216.86498 215.99419
 215.22439 214.39259 213.47879 212.83099 212.26920 212.36772 212.60051 213.05754
 213.81064 215.43561 216.75000 217.45978 218.85619 222.68596 228.34920 233.04955
 236.76546 240.57472 244.45425 248.16768 251.39021 254.35178 257.16162 259.84970
 262.22131 264.67429 267.23386 269.43857 271.45999 273.36877 275.07681 276.77954
 278.52826 280.27051 281.81894 283.18582 284.37088 285.42587 286.39304 287.27682
 288.07959 288.80280 289.43539 290.28445
 366.78100 356.32263 345.74226 334.59589 322.98652 311.16815 299.02578 286.81641
 274.51604 262.40067 250.39730 239.68593 229.79556 220.88719 213.05682 206.04645
 199.86808 194.79371 191.36334 189.39297 188.41760 188.46923 189.29186 190.58749
 192.30012 194.38275 196.63338 198.98001 201.41264 203.88027 205.95590 207.78553
 209.39916 210.53179 210.74842 210.96405 210.88868 210.58131 210.20194 209.81957
 209.42420 209.12183 208.91746 208.76909 208.68472 209.00335 209.37698 209.75361
 210.53424 211.69987 212.93750 214.70813 216.62375 218.65438 220.73701 222.80764
 224.85527 226.92690 229.01153 231.10516 233.22179 235.38142 237.62505 239.98268
 242.59131 244.82994 246.81957 248.57220 249.97683 251.08746 251.89709 252.20072
 252.22535 251.98698 251.33461 250.27024 248.86387 247.01250 244.90913 242.72976
 240.50839 238.30002 236.10765 233.93428 231.78191 229.63654 227.65017 225.79480
 224.06543 222.52506 221.14269 219.90232 218.77195 217.71958 216.81121 215.93984
 215.16947 214.33710 213.42273 212.77436 212.21199 212.34311 212.65289 213.18983
 213.94035 215.51810 216.80707 217.49586 218.94168 222.71606 228.31996 232.98192
 236.68497 240.50253 244.38930 248.07968 251.22949 254.15602 256.99475 259.71918
 262.08212 264.50784 267.05475 269.27490 271.33252 273.27097 274.99380 276.70374
 278.47348 280.22638 281.77618 283.14258 284.33011 285.38440 286.35211 287.23752
 288.04077 288.76569 289.40131 290.24854
 366.78100 356.32204 345.74108 334.59412 322.98416 311.16519 299.02223 286.81227
 274.51131 262.39535 250.39139 239.67943 229.78847 220.87950 213.04854 206.03758
 199.85862 194.78366 191.35270 189.38174 188.40578 188.45681 189.27885 190.57389
 192.28593 194.36797 196.61801 198.96405 201.39609 203.86312 205.93816 207.76720
 209.38024 210.51228 210.72832 210.94336 210.86740 210.55943 210.17947 209.79651
 209.40055 209.09759 208.89263 208.74367 208.65871 208.97675 209.34978 209.72582
 210.50586 211.67090 212.90794 214.67798 216.59302 218.62306 220.70509 222.77513
 224.82217 226.89321 228.97725 231.07029 233.18633 235.34537 237.58840 239.94544
 242.55348 244.79152 246.78056 248.53260 249.93664 251.04668 251.85571 252.15875
 252.18279 251.94383 251.29087 250.22591 248.81895 246.96699 244.86302 242.68306
 240.46110 238.25214 236.05918 233.88522 231.73226 229.58630 227.59933 225.74337
 224.01341 222.47245 221.08949 219.84853 218.71757 217.66461 216.75565 215.88368
 215.11272 214.27976 213.36480 212.71584 212.15288 212.31937 212.71268 213.31044
 214.06427 215.61505 216.87181 217.54352 219.04909 222.75317 228.28801 232.91341
 236.60555 240.43109 244.32040 247.98138 251.05540 253.94485 256.81046 259.57138
 261.93628 264.34320 266.87808 269.11914 271.21890 273.19220 274.92734 276.63980
 278.42670 280.18463 281.73669 283.10370 284.29108 285.34625 286.31476 287.19931
 288.00623 288.73160 289.36554 290.21838
 366.78100 356.32149 345.73997 334.59246 322.98194 311.16243 299.01891 286.80840
 274.50688 262.39037 250.38585 239.67334 229.78183 220.87231 213.04080 206.02928
 199.84977 194.77425 191.34274 189.37122 188.39471 188.44520 189.26668 190.56117
 192.27265 194.35414 196.60362 198.94911 201.38059 203.84708 205.92156 207.75005
 209.36254 210.49402 210.70951 210.92399 210.84748 210.53896 210.15845 209.77493
 209.37842 209.07491 208.86939 208.71988 208.63436 208.95185 209.32433 209.69982
 210.47930 211.64379 212.88027 214.64976 216.56425 218.59373 220.67522 222.74470
 224.79119 226.86167 228.94516 231.03764 233.15313 235.31162 237.55410 239.91059
 242.51807 244.75556 246.74404 248.49553 249.89901 251.00850 251.81698 252.11947
 252.14296 251.90344 251.24993 250.18441 248.77690 246.92438 244.81987 242.63935
 240.41684 238.20733 236.01381 233.83930 231.68578 229.53927 227.55175 225.69524
 223.96472 222.42321 221.03969 219.79818 218.66667 217.61315 216.70364 215.83112
 215.05961 214.22609 213.31058 212.66106 212.09755 212.29820 212.77228 213.44392
 214.15393 215.71486 217.00409 217.60043 219.14169 222.79034 228.26839 232.83995
 236.51361 240.34761 244.23697 247.86436 250.86282 253.71892 256.61337 259.41309
 261.79376 264.18997 266.71182 268.97513 271.11993 273.13202 274.88126 276.59616
 278.38367 280.14575 281.69763 283.06580 284.25342 285.30930 286.27805 287.16400
 287.97223 288.69659 289.33371 290.18417
 366.78100 356.32163 345.74027 334.59290 322.98254 311.16317 299.01980 286.80944
 274.50807 262.39171 250.38734 239.67498 229.78361 220.87424 213.04288 206.03151
 199.85215 194.77678 191.34541 189.37405 188.39768 188.44832 189.26995 190.56458
 192.27622 194.35785 196.60749 198.95312 201.38476 203.85139 205.92602 207.75466
 209.36729 210.49893 210.71456 210.92919 210.85283 210.54446 210.16410 209.78073
 209.38436 209.08100 208.87563 208.72627 208.64090 208.95854 209.33117 209.70680
 210.48644 211.65107 212.88771 214.65734 216.57197 218.60161 220.68324 222.75288
 224.79951 226.87014 228.95378 231.04641 233.16205 235.32068 237.56332 239.91995
 242.52758 244.76522 246.75385 248.50549 249.90912 251.01875 251.82739 252.13002
 252.15366 251.91429 251.26092 250.19556 248.78819 246.93583 244.83146 242.65110
 240.42873 238.21936 236.02600 233.85163 231.69827 229.55190 227.56453 225.70817
 223.97780 222.43644 221.05307 219.81170 218.68034 217.62697 216.71761 215.84524
 215.07388 214.24051 213.32514 212.67578 212.11241 212.31418 212.79085 213.59146
 214.29453 215.73775 217.18404 217.77670 219.22656 222.76865 228.20122 232.72934
 236.39795 240.25012 244.14471 247.74097 250.66872 253.49368 256.41763 259.25705
 261.66602 264.05371 266.55606 268.84198 271.03055 273.08572 274.85532 276.57385
 278.34320 280.10510 281.65897 283.02682 284.21539 285.27179 286.24146 287.12912
 287.93619 288.66422 289.30133 290.16006
 366.78100 356.32198 345.74096 334.59393 322.98391 311.16489 299.02187 286.81185
 274.51083 262.39480 250.39078 239.67876 229.78774 220.87872 213.04769 206.03667
 199.85765 194.78263 191.35161 189.38059 188.40456 188.45554 189.27752 190.57250
 192.28448 194.36646 196.61643 198.96241 201.39439 203.86137 205.93635 207.76532
 209.37830 210.51028 210.72626 210.94124 210.86522 210.55719 210.17717 209.79415
 209.39813 209.09511 208.89008 208.74106 208.65604 208.97402 209.34700 209.72298
 210.50295 211.66793 212.90491 214.67489 216.58987 218.61984 220.70182 222.77180
 224.81878 226.88976 228.97374 231.06671 233.18269 235.34167 237.58465 239.94163
 242.54960 244.78758 246.77656 248.52854 249.93252 251.04250 251.85147 252.15445
 252.17843 251.93941 251.28639 250.22137 248.81434 246.96232 244.85830 242.67828
 240.45626 238.24723 236.05421 233.88019 231.72717 229.58115 227.59413 225.73810
 224.00808 222.46706 221.08404 219.84302 218.71199 217.65897 216.74995 215.87793
 215.10691 214.27389 213.35886 212.70984 212.14682 212.34306 212.80673 213.71498
 214.48160 215.77699 217.27065 217.93181 219.32278 222.75209 228.13634 232.63890
 236.30600 240.17299 244.06625 247.62602 250.48329 253.27242 256.22015 259.09470
 261.53784 263.92096 266.40292 268.71249 270.94574 273.04504 274.83905 276.56818
 278.31799 280.06604 281.61728 282.98444 284.17236 285.22931 286.19727 287.08710
 287.89621 288.62506 289.26392 290.12039
 366.78100 356.32220 345.74141 334.59461 322.98482 311.16602 299.02323 286.81343
 274.51264 262.39684 250.39305 239.68125 229.79046 220.88166 213.05087 206.04007
 199.86128 194.78648 191.35569 189.38489 188.40910 188.46030 189.28251 190.57771
 192.28992 194.37212 196.62233 198.96853 201.40074 203.86794 205.94315 207.77235
 209.38556 210.51776 210.73397 210.94917 210.87338 210.56558 210.18579 209.80299
 209.40720 209.10440 208.89961 208.75081 208.66602 208.98422 209.35743 209.73363
 210.51384 211.67904 212.91625 214.68645 216.60166 218.63186 220.71407 222.78427
 224.83148 226.90268 228.98689 231.08009 233.19630 235.35550 237.59871 239.95591
 242.56412 244.80232 246.79153 248.54373 249.94794 251.05814 251.86735 252.17055
 252.19476 251.95596 251.30317 250.23837 248.83158 246.97978 244.87599 242.69619
 240.47440 238.26560 236.07281 233.89901 231.74622 229.60042 227.61363 225.75783
 224.02804 222.48724 221.10445 219.86365 218.73286 217.68006 216.77126 215.89947
 215.12867 214.29588 213.38108 212.73229 212.16949 212.37007 212.84398 213.80083
 214.65294 215.86678 217.29190 218.07057 219.48013 222.76570 228.11058 232.58197
 236.23065 240.10385 243.98483 247.50104 250.28838 253.04170 256.00870 258.91187
 261.39056 263.77719 266.24246 268.58148 270.86478 273.01050 274.82611 276.55554
 278.29095 280.02811 281.57593 282.94305 284.13141 285.18643 286.15631 287.04434
 287.85757 288.58386 289.22638 290.08194
 366.78100 356.32290 345.74280 334.59671 322.98761 311.16951 299.02741 286.81831
 274.51821 262.40312 250.40002 239.68892 229.79882 220.89072 213.06063 206.05053
 199.87243 194.79833 191.36823 189.39813 188.42304 188.47494 189.29784 190.59374
 192.30664 194.38955 196.64045 198.98735 201.42025 203.88815 205.96405 207.79396
 209.40786 210.54076 210.75766 210.97356 210.89847 210.59137 210.21227 209.83017
 209.43507 209.13297 208.92888 208.78078 208.69668 209.01558 209.38948 209.76639
 210.54729 211.71319 212.95109 214.72199 216.63789 218.66880 220.75170 222.82260
 224.87050 226.94240 229.02731 231.12121 233.23811 235.39801 237.64191 239.99981
 242.60872 244.84762 246.83752 248.59042 249.99532 251.10623 251.91613 252.22003
 252.24493 252.00683 251.35473 250.29064 248.88454 247.03344 244.93034 242.75124
 240.53015 238.32205 236.12995 233.95685 231.80475 229.65965 227.67356 225.81846
 224.08936 222.54926 221.16716 219.92707 218.79697 217.74487 216.83677 215.96567
 215.19557 214.36348 213.44938 212.80128 212.23918 212.42702 212.87076 213.84818
 214.81746 216.00635 217.32045 218.21974 219.68578 222.79561 228.10558 232.52713
 236.14604 240.01978 243.88383 247.35156 250.07260 252.79561 255.78131 258.71155
 261.23059 263.62781 266.08124 268.45621 270.78928 272.98154 274.82852 276.56863
 278.32446 279.98245 281.52502 282.89218 284.08145 285.13904 286.10910 286.99866
 287.81097 288.54062 289.18192 290.04102
 366.78100 356.32393 345.74487 334.59980 322.99174 311.17467 299.03361 286.82554
 274.52648 262.41241 250.41035 239.70028 229.81122 220.90415 213.07509 206.06602
 199.88896 194.81589 191.38683 189.41776 188.44370 188.49663 189.32057 190.61750
 192.33144 194.41537 196.66731 199.01524 201.44918 203.91811 205.99505 207.82598
 209.44092 210.57485 210.79279 211.00972 210.93566 210.62959 210.25153 209.87046
 209.47640 209.17533 208.97227 208.82520 208.74214 209.06207 209.43701 209.81494
 210.59688 211.76381 213.00275 214.77468 216.69162 218.72355 220.80749 222.87942
 224.92836 227.00129 229.08723 231.18216 233.30010 235.46103 237.70597 240.06490
 242.67484 244.91477 246.90571 248.65964 250.06558 251.17751 251.98845 252.29338
 252.31932 252.08225 251.43119 250.36812 248.96306 247.11299 245.01093 242.83286
 240.61280 238.40573 236.21467 234.04260 231.89154 229.74747 227.76241 225.90834
 224.18028 222.64121 221.26015 220.02108 218.89202 217.84095 216.93389 216.06382
 215.29476 214.46369 213.55063 212.90356 212.34250 212.50566 212.89117 213.87630
 214.98793 216.16281 217.37311 218.38573 219.90179 222.84164 228.08952 232.45377
 236.04703 239.92145 243.76230 247.17360 249.83069 252.53406 255.54085 258.50021
 261.06934 263.48880 265.94012 268.35117 270.72794 272.96094 274.84332 276.59930
 278.37430 279.95770 281.48502 282.84918 284.03476 285.08780 286.05673 286.94357
 287.75607 288.48694 289.12677 289.98370
 366.78100 356.32439 345.74578 334.60117 322.99356 311.17695 299.03633 286.82872
 274.53011 262.41650 250.41489 239.70528 229.81667 220.91006 213.08145 206.07284
 199.89623 194.82361 191.39500 189.42639 188.45278 188.50617 189.33056 190.62795
 192.34234 194.42673 196.67912 199.02751 201.46189 203.93128 206.00867 207.84006
 209.45545 210.58984 210.80823 211.02562 210.95201 210.64640 210.26879 209.88817
 209.49456 209.19395 208.99134 208.84473 208.76212 209.08251 209.45790 209.83629
 210.61868 211.78607 213.02545 214.79784 216.71523 218.74762 220.83201 222.90440
 224.95379 227.02718 229.11357 231.20896 233.32735 235.48873 237.73412 240.09351
 242.70390 244.94429 246.93568 248.69007 250.09646 251.20885 252.02024 252.32563
 252.35201 252.11540 251.46479 250.40218 248.99757 247.14796 245.04635 242.86874
 240.64913 238.44252 236.25191 234.08029 231.92968 229.78607 227.80146 225.94785
 224.22024 222.68163 221.30102 220.06241 218.93380 217.88319 216.97657 216.10696
 215.33835 214.50774 213.59513 212.94852 212.38791 212.55350 212.94473 213.93231
 215.14204 216.27890 217.42615 218.54683 220.09270 222.91142 228.05484 232.37621
 235.94759 239.82213 243.63168 246.97899 249.57953 252.27226 255.30084 258.28848
 260.91409 263.36566 265.82092 268.26642 270.68042 272.94904 274.86075 276.62677
 278.39746 279.95416 281.46466 282.82352 284.00574 285.05829 286.02533 286.91223
 287.72473 288.45422 289.09647 289.94833
 366.78100 356.32385 345.74469 334.59954 322.99139 311.17423 299.03308 286.82492
 274.52577 262.41162 250.40946 239.69931 229.81016 220.90300 213.07385 206.06470
 199.88754 194.81439 191.38523 189.41608 188.44193 188.49477 189.31862 190.61547
 192.32931 194.41316 196.66500 199.01285 201.44670 203.91554 205.99239 207.82324
 209.43808 210.57193 210.78978 211.00662 210.93247 210.62631 210.24816 209.86701
 209.47285 209.17170 208.96855 208.82139 208.73824 209.05809 209.43293 209.81078
 210.59262 211.75947 212.99832 214.77016 216.68701 218.71886 220.80270 222.87455
 224.92339 226.99624 229.08209 231.17693 233.29478 235.45563 237.70047 240.05932
 242.66917 244.90901 246.89986 248.65370 250.05955 251.17140 251.98224 252.28709
 252.31294 252.07578 251.42463 250.36148 248.95632 247.10617 245.00401 242.82586
 240.60571 238.39855 236.20740 234.03525 231.88409 229.73994 227.75478 225.90063
 224.17248 222.63332 221.25217 220.01302 218.88386 217.83271 216.92556 216.05540
 215.28625 214.45509 213.54194 212.89479 212.33363 212.54550 213.04607 214.04996
 215.22163 216.33429 217.50061 218.68916 220.24838 223.00061 228.01665 232.31342
 235.86139 239.73241 243.50308 246.78494 249.35133 252.03339 255.07753 258.09052
 260.76965 263.25449 265.71970 268.19891 270.64130 272.92780 274.86188 276.63678
 278.40970 279.99759 281.43484 282.79050 283.97617 285.02960 285.99759 286.88480
 287.69769 288.42868 289.06796 289.92133
 366.78100 356.32340 345.74380 334.59821 322.98961 311.17201 299.03041 286.82181
 274.52222 262.40762 250.40502 239.69442 229.80482 220.89723 213.06763 206.05803
 199.88043 194.80683 191.37724 189.40764 188.43304 188.48544 189.30884 190.60525
 192.31865 194.40205 196.65345 199.00085 201.43426 203.90266 205.97906 207.80946
 209.42386 210.55727 210.77467 210.99107 210.91647 210.60987 210.23128 209.84968
 209.45508 209.15348 208.94988 208.80229 208.71869 209.03809 209.41249 209.78989
 210.57130 211.73770 212.97610 214.74750 216.66390 218.69531 220.77871 222.85011
 224.89851 226.97091 229.05632 231.15072 233.26812 235.42852 237.67292 240.03133
 242.64073 244.88013 246.87053 248.62393 250.02934 251.14074 251.95114 252.25554
 252.28094 252.04335 251.39175 250.32815 248.92255 247.07195 244.96936 242.79076
 240.57016 238.36256 236.17096 233.99837 231.84677 229.70217 227.71657 225.86197
 224.13338 222.59378 221.21218 219.97258 218.84298 217.79139 216.88379 216.01319
 215.24359 214.41199 213.49840 212.85080 212.28920 212.54109 213.13620 214.19931
 215.25186 216.38414 217.62553 218.82124 220.38156 223.10257 227.98128 232.25572
 235.78421 239.64081 243.36229 246.57709 249.13289 251.80667 254.86024 257.89722
 260.63055 263.15726 265.64459 268.15189 270.60803 272.89807 274.85080 276.64166
 278.42258 280.01846 281.41669 282.76608 283.95157 285.00241 285.96722 286.85336
 287.66293 288.39163 289.01205 289.85339
 366.78100 356.32411 345.74523 334.60034 322.99245 311.17557 299.03468 286.82679
 274.52790 262.41402 250.41213 239.70224 229.81336 220.90647 213.07758 206.06870
 199.89181 194.81892 191.39004 189.42115 188.44726 188.50037 189.32449 190.62160
 192.33571 194.41983 196.67194 199.02005 201.45417 203.92328 206.00039 207.83150
 209.44662 210.58073 210.79884 211.01596 210.94207 210.63618 210.25830 209.87741
 209.48352 209.18264 208.97975 208.83286 208.74997 209.07009 209.44520 209.82331
 210.60543 211.77254 213.01165 214.78377 216.70088 218.73299 220.81711 222.88922
 224.93833 227.01144 229.09756 231.19267 233.31078 235.47190 237.71701 240.07612
 242.68624 244.92635 246.91746 248.67157 250.07769 251.18980 252.00091 252.30603
 252.33214 252.09525 251.44437 250.38148 248.97659 247.12671 245.02482 242.84693
 240.62704 238.42016 236.22927 234.05738 231.90650 229.76261 227.77772 225.92384
 224.19595 222.65706 221.27618 220.03729 218.90840 217.85751 216.95063 216.08074
 215.31185 214.48097 213.56808 212.92119 212.36031 212.59879 213.16226 214.33893
 215.30721 216.47861 217.76711 218.96135 220.53757 223.19955 227.95572 232.19389
 235.70793 239.53168 243.18669 246.32655 248.87767 251.55478 254.62126 257.69031
 260.48993 263.07355 265.59174 268.11819 270.58426 272.88351 274.85916 276.66217
 278.43436 280.01968 281.39853 282.74478 283.92844 284.97803 285.94284 286.82614
 287.64145 288.37198 288.98965 289.82727
 366.78100 356.32557 345.74814 334.60470 322.99827 311.18284 299.04341 286.83698
 274.53954 262.42711 250.42668 239.71825 229.83082 220.92538 213.09795 206.09052
 199.91509 194.84366 191.41622 189.44879 188.47636 188.53093 189.35650 190.65506
 192.37063 194.45620 196.70977 199.05934 201.49490 203.96547 206.04404 207.87661
 209.49318 210.62874 210.84831 211.06688 210.99445 210.69002 210.31358 209.93415
 209.54172 209.24229 209.04086 208.89542 208.81399 209.13556 209.51213 209.89170
 210.67526 211.84383 213.08440 214.85797 216.77654 218.81010 220.89567 222.96924
 225.01981 227.09438 229.18194 231.27851 233.39808 235.56065 237.80721 240.16778
 242.77935 245.02092 247.01349 248.76905 250.17662 251.29019 252.10276 252.40933
 252.43689 252.20146 251.55203 250.49060 249.08717 247.23873 245.13830 242.96187
 240.74344 238.53801 236.34857 234.17814 232.02871 229.88628 227.90285 226.05041
 224.32398 222.78655 221.40712 220.16969 219.04225 217.99282 217.08739 216.21896
 215.45153 214.62209 213.71066 213.06523 212.50580 212.69757 213.15065 214.44551
 215.42955 216.60812 217.87427 219.09430 220.72304 223.30730 227.94632 232.13200
 235.63167 239.40596 242.97874 246.03598 248.57994 251.27449 254.36554 257.47943
 260.35477 263.00253 265.55383 268.09689 270.57510 272.88647 274.88046 276.68585
 278.44608 280.02747 281.36862 282.70700 283.88617 284.93317 285.89273 286.77689
 287.59216 288.31528 288.93307 289.76642
 366.78100 356.32694 345.75089 334.60883 323.00377 311.18972 299.05166 286.84660
 274.55054 262.43949 250.44043 239.73337 229.84732 220.94326 213.11720 206.11115
 199.93709 194.86703 191.44098 189.47492 188.50386 188.55981 189.38675 190.68669
 192.40363 194.49058 196.74552 199.09646 201.53341 204.00535 206.08529 207.91924
 209.53718 210.67412 210.89507 211.11501 211.04395 210.74089 210.36584 209.98778
 209.59672 209.29867 209.09861 208.95455 208.87450 209.19744 209.57538 209.95633
 210.74127 211.91121 213.15316 214.92810 216.84804 218.88298 220.96993 223.04487
 225.09681 227.17276 229.26170 231.35964 233.48059 235.64453 237.89247 240.25442
 242.86736 245.11030 247.10424 248.86119 250.27013 251.38507 252.19902 252.50696
 252.53590 252.30185 251.65379 250.59373 249.19168 247.34462 245.24556 243.07051
 240.85345 238.64939 236.46133 234.29228 232.14422 230.00316 228.02111 226.17005
 224.44499 222.90894 221.53088 220.29482 219.16877 218.12071 217.21665 216.34960
 215.58354 214.75548 213.84542 213.20137 212.64331 212.79486 213.15294 214.51479
 215.56062 216.76221 217.98734 219.21890 220.90099 223.42801 227.95465 232.08485
 235.56555 239.28131 242.75977 245.72942 248.26414 250.98636 254.10973 257.27258
 260.22171 262.93323 265.52060 268.08554 270.57153 272.88297 274.88364 276.69580
 278.45883 280.04840 281.41293 282.65125 283.81870 284.86371 285.82047 286.70651
 287.52817 288.24298 288.85904 289.69113
 366.78100 356.32841 345.75383 334.61324 323.00965 311.19706 299.06048 286.85689
 274.56230 262.45271 250.45513 239.74954 229.86495 220.96236 213.13778 206.13319
 199.96060 194.89202 191.46743 189.50284 188.53325 188.59067 189.41908 190.72049
 192.43890 194.52732 196.78373 199.13614 201.57456 204.04797 206.12938 207.96479
 209.58421 210.72262 210.94503 211.16644 211.09686 210.79527 210.42168 210.04509
 209.65551 209.35892 209.16033 209.01775 208.93916 209.26357 209.64298 210.02540
 210.81181 211.98322 213.22663 215.00305 216.92446 218.96087 221.04928 223.12570
 225.17911 227.25652 229.34694 231.44635 233.56876 235.73417 237.98359 240.34700
 242.96141 245.20582 247.20124 248.95965 250.37006 251.48647 252.30189 252.61130
 252.64171 252.40913 251.76254 250.70395 249.30336 247.45778 245.36019 243.18660
 240.97101 238.76843 236.58184 234.41425 232.26767 230.12808 228.14749 226.29790
 224.57432 223.03973 221.66314 220.42855 219.30397 218.25738 217.35479 216.48920
 215.72462 214.89803 213.98944 213.34686 212.79027 212.90086 213.16217 214.53806
 215.69342 216.93649 218.14520 219.36008 221.08141 223.54434 227.97655 232.06136
 235.50717 239.15611 242.52769 245.40361 247.93231 250.69185 253.85187 257.05975
 260.07089 262.84277 265.47614 268.07434 270.56671 272.87607 274.88589 276.71335
 278.47745 280.06824 281.45001 282.61584 283.77728 284.82129 285.77603 286.66068
 287.48050 288.18277 288.79898 289.62674
 366.78100 356.32961 345.75623 334.61684 323.01445 311.20306 299.06768 286.86529
 274.57190 262.46352 250.46713 239.76274 229.87936 220.97797 213.15458 206.15119
 199.97981 194.91242 191.48903 189.52565 188.55726 188.61587 189.44548 190.74810
 192.46771 194.55732 196.81494 199.16855 201.60816 204.08278 206.16539 208.00200
 209.62261 210.76223 210.98584 211.20845 211.14007 210.83968 210.46729 210.09190
 209.70352 209.40813 209.21074 209.06936 208.99197 209.31758 209.69820 210.08181
 210.86942 212.04203 213.28665 215.06426 216.98687 219.02449 221.11410 223.19171
 225.24632 227.32494 229.41655 231.51716 233.64078 235.80739 238.05800 240.42261
 243.03823 245.28384 247.28045 249.04007 250.45168 251.56929 252.38591 252.69652
 252.72813 252.49674 251.85136 250.79397 249.39458 247.55020 245.45381 243.28142
 241.06703 238.86565 236.68026 234.51387 232.36849 230.23010 228.25071 226.40233
 224.67994 223.14655 221.77116 220.53778 219.41439 218.36900 217.46762 216.60323
 215.83984 215.01445 214.10707 213.46568 212.91029 212.99716 213.20239 214.48738
 215.83771 217.16760 218.32114 219.52989 221.26596 223.66367 227.99504 232.04268
 235.44839 239.02742 242.28319 245.05418 247.57251 250.37465 253.57542 256.82309
 259.88715 262.72604 265.42752 268.07492 270.57739 272.88513 274.91000 276.75314
 278.51373 280.09723 281.48157 282.64502 283.75494 284.79413 285.76514 286.64444
 287.42877 288.12234 288.73392 289.56357
 366.78100 356.33110 345.75921 334.62131 323.02041 311.21052 299.07662 286.87572
 274.58383 262.47693 250.48203 239.77914 229.89724 220.99734 213.17545 206.17355
 200.00365 194.93776 191.51586 189.55396 188.58707 188.64717 189.47827 190.78238
 192.50348 194.59458 196.85368 199.20879 201.64989 204.12599 206.21010 208.04820
 209.67030 210.81141 211.03651 211.26061 211.19372 210.89482 210.52392 210.15003
 209.76313 209.46923 209.27334 209.13344 209.05754 209.38465 209.76675 210.15185
 210.94096 212.11506 213.36116 215.14027 217.06437 219.10347 221.19458 223.27368
 225.32978 227.40989 229.50299 231.60509 233.73020 235.89830 238.15040 240.51651
 243.13361 245.38071 247.37882 249.13992 250.55302 251.67213 252.49023 252.80233
 252.83543 252.60554 251.96164 250.90574 249.50785 247.66495 245.57005 243.39916
 241.18626 238.98636 236.80247 234.63757 232.49367 230.35678 228.37888 226.53198
 224.81109 223.27919 221.90529 220.67340 219.55150 218.50760 217.60771 216.74481
 215.98291 215.15902 214.25312 213.61322 213.05933 213.10638 213.21759 214.48076
 215.97714 217.36378 218.44342 219.65416 221.47867 223.77834 228.04411 232.08510
 235.42229 238.91476 242.03703 244.69319 247.20018 250.04581 253.28798 256.57581
 259.70239 262.62662 265.40488 268.08963 270.58997 272.88510 274.91776 276.77692
 278.54254 280.12338 281.50427 282.69888 283.69925 284.72501 285.68912 286.56519
 287.34079 288.03018 288.64322 289.48294
 366.78100 356.33213 345.76126 334.62439 323.02452 311.21565 299.08278 286.88291
 274.59204 262.48617 250.49230 239.79043 229.90956 221.01069 213.18982 206.18895
 200.02008 194.95521 191.53434 189.57347 188.60760 188.66873 189.50086 190.80599
 192.52812 194.62025 196.88038 199.23651 201.67864 204.15578 206.24091 208.08004
 209.70317 210.84530 211.07143 211.29656 211.23069 210.93282 210.56295 210.19008
 209.80421 209.51134 209.31647 209.17760 209.10273 209.43086 209.81399 210.20012
 210.99025 212.16538 213.41251 215.19264 217.11777 219.15790 221.25003 223.33016
 225.38729 227.46842 229.56255 231.66568 233.79181 235.96094 238.21407 240.58120
 243.19933 245.44746 247.44659 249.20872 250.62285 251.74298 252.56211 252.87524
 252.90937 252.68050 252.03763 250.98276 249.58589 247.74402 245.65015 243.48028
 241.26841 239.06954 236.88667 234.72280 232.57993 230.44407 228.46720 226.62133
 224.90146 223.37059 221.99772 220.76685 219.64598 218.60311 217.70424 216.84237
 216.08150 215.25863 214.35376 213.71489 213.16202 213.18604 213.24277 214.55328
 216.03909 217.43245 218.57848 219.79683 221.67447 224.01935 228.11864 232.12531
 235.41281 238.81073 241.78029 244.31026 246.81247 249.71558 253.01270 256.35422
 259.55392 262.55945 265.39169 268.08887 270.57495 272.85324 274.89825 276.77866
 278.55734 280.13876 281.51593 282.71179 283.66910 284.68243 285.63040 286.48096
 287.23917 287.92389 288.53632 289.38904
 366.78100 356.33255 345.76211 334.62566 323.02622 311.21777 299.08532 286.88588
 274.59543 262.48998 250.49654 239.79509 229.91465 221.01620 213.19575 206.19531
 200.02686 194.96241 191.54197 189.58152 188.61608 188.67763 189.51018 190.81574
 192.53829 194.63084 196.89140 199.24795 201.69051 204.16806 206.25361 208.09317
 209.71672 210.85927 211.08583 211.31138 211.24594 210.94849 210.57904 210.20660
 209.82115 209.52870 209.33426 209.19581 209.12137 209.44992 209.83347 210.22003
 211.01058 212.18613 213.43369 215.21424 217.13980 219.18035 221.27290 223.35346
 225.41101 227.49256 229.58712 231.69067 233.81723 235.98678 238.24033 240.60789
 243.22644 245.47499 247.47455 249.23710 250.65166 251.77221 252.59176 252.90532
 252.93987 252.71142 252.06898 251.01453 249.61809 247.77664 245.68319 243.51375
 241.30230 239.10385 236.92141 234.75796 232.61552 230.48007 228.50362 226.65818
 224.93873 223.40828 222.03584 220.80539 219.68495 218.64250 217.74405 216.88261
 216.12216 215.29971 214.39527 213.75682 213.20438 213.23338 213.30193 214.61484
 216.09328 217.46779 218.73286 220.03537 221.86256 224.22487 228.17249 232.13727
 235.38295 238.68195 241.49988 243.91469 246.43594 249.41412 252.77576 256.17123
 259.43579 262.50342 265.37253 268.07352 270.54709 272.81158 274.86591 276.76270
 278.54892 280.12769 281.49872 282.68448 283.67776 284.65863 285.60538 286.45166
 287.07108 287.75687 288.38123 289.25262
 366.78100 356.33388 345.76477 334.62965 323.03153 311.22442 299.09330 286.89518
 274.60606 262.50195 250.50983 239.80971 229.93060 221.03348 213.21436 206.21525
 200.04813 194.98501 191.56590 189.60678 188.64266 188.70555 189.53943 190.84631
 192.57019 194.66408 196.92596 199.28384 201.72773 204.20661 206.29349 208.13438
 209.75926 210.90314 211.13103 211.35791 211.29379 210.99767 210.62956 210.25844
 209.87432 209.58321 209.39009 209.25297 209.17986 209.50974 209.89462 210.28251
 211.07439 212.25127 213.50016 215.28204 217.20892 219.25080 221.34469 223.42657
 225.48545 227.56834 229.66422 231.76910 233.89699 236.06787 238.32275 240.69164
 243.31152 245.56140 247.56229 249.32617 250.74205 251.86393 252.68482 252.99970
 253.03558 252.80847 252.16735 251.11423 249.71912 247.87900 245.78688 243.61877
 241.40865 239.21153 237.03041 234.86830 232.72718 230.59306 228.61795 226.77383
 225.05571 223.52660 222.15548 220.92636 219.80725 218.76613 217.86901 217.00890
 216.24978 215.42866 214.52554 213.88843 213.33731 213.32883 213.30878 214.67717
 216.20175 217.52342 218.88348 220.25339 222.01628 224.38339 228.22928 232.13666
 235.32664 238.51866 241.21088 243.54964 246.11014 249.15463 252.55769 255.99525
 259.31754 262.43970 265.34540 268.05405 270.51340 272.75800 274.81244 276.71930
 278.51132 280.09039 281.46368 282.64517 283.62726 284.65762 285.63077 286.18164
 286.91852 287.61533 288.24948 289.12009
 366.78100 356.33544 345.76789 334.63433 323.03778 311.23222 299.10267 286.90611
 274.61856 262.51600 250.52545 239.82689 229.94934 221.05378 213.23623 206.23867
 200.07312 195.01156 191.59400 189.63645 188.67389 188.73834 189.57378 190.88223
 192.60767 194.70312 196.96656 199.32601 201.77145 204.25190 206.34034 208.18279
 209.80923 210.95467 211.18412 211.41256 211.35001 211.05545 210.68890 210.31934
 209.93679 209.64723 209.45568 209.32012 209.24857 209.58001 209.96646 210.35590
 211.14935 212.32779 213.57823 215.36168 217.29012 219.33357 221.42901 223.51246
 225.57290 227.65735 229.75479 231.86124 233.99068 236.16313 238.41957 240.79002
 243.41146 245.66291 247.66535 249.43079 250.84824 251.97168 252.79413 253.11057
 253.14802 252.92246 252.28291 251.23135 249.83780 247.99924 245.90869 243.74213
 241.53358 239.33802 237.15846 234.99791 232.85835 230.72580 228.75224 226.90969
 225.19313 223.66558 222.29602 221.06847 219.95091 218.91136 218.01580 217.15725
 216.39969 215.58014 214.67858 214.04302 213.49347 213.43640 213.30159 214.73500
 216.33839 217.62157 219.01196 220.38232 222.10547 224.51744 228.32549 232.18192
 235.27888 238.36992 240.94128 243.19992 245.78853 248.88866 252.33186 255.81792
 259.20032 262.37619 265.30756 268.00925 270.44400 272.67023 274.73230 276.65738
 278.45590 280.03848 281.41663 282.60989 283.57736 284.60971 285.58527 286.10101
 286.84030 287.53525 288.16263 289.03564
 366.78100 356.33591 345.76883 334.63574 323.03965 311.23457 299.10548 286.90939
 274.62231 262.52022 250.53013 239.83204 229.95496 221.05987 213.24278 206.24570
 200.08061 195.01952 191.60244 189.64535 188.68326 188.74818 189.58409 190.89300
 192.61892 194.71483 196.97874 199.33865 201.78457 204.26548 206.35439 208.19731
 209.82422 210.97013 211.20005 211.42896 211.36687 211.07279 210.70670 210.33761
 209.95553 209.66644 209.47535 209.34026 209.26918 209.60109 209.98800 210.37792
 211.17183 212.35074 213.60166 215.38557 217.31448 219.35840 221.45431 223.53822
 225.59914 227.68405 229.78196 231.88888 234.01879 236.19170 238.44861 240.81953
 243.44144 245.69335 247.69627 249.46218 250.88009 252.00401 252.82692 253.14383
 253.18175 252.95666 252.31757 251.26649 249.87340 248.03531 245.94522 243.77914
 241.57105 239.37596 237.19688 235.03679 232.89770 230.76562 228.79253 226.95044
 225.23436 223.70727 222.33818 221.11110 219.99401 218.95492 218.05983 217.20175
 216.44466 215.62557 214.72449 214.08940 213.54031 213.48541 213.35570 214.78648
 216.42303 217.73256 219.14273 220.53722 222.22708 224.66942 228.44878 232.17920
 235.23438 238.23434 240.68401 242.84499 245.44373 248.60454 252.10298 255.64865
 259.08923 262.30127 265.24603 267.94427 270.37061 272.59515 274.67065 276.60028
 278.38934 279.95865 281.32791 282.51727 283.50784 284.55081 285.53265 286.02878
 286.72403 287.41422 288.04242 288.90643
 366.78100 356.33610 345.76920 334.63631 323.04041 311.23551 299.10661 286.91072
 274.62382 262.52192 250.53202 239.83413 229.95723 221.06233 213.24543 206.24854
 200.08364 195.02274 191.60584 189.64894 188.68705 188.75215 189.58825 190.89735
 192.62346 194.71956 196.98366 199.34376 201.78987 204.27097 206.36007 208.20317
 209.83028 210.97638 211.20648 211.43558 211.37368 211.07979 210.71389 210.34499
 209.96309 209.67420 209.48330 209.34840 209.27750 209.60961 209.99671 210.38681
 211.18091 212.36001 213.61112 215.39522 217.32432 219.36842 221.46453 223.54863
 225.60973 227.69483 229.79294 231.90004 234.03014 236.20324 238.46035 240.83145
 243.45355 245.70565 247.70875 249.47486 250.89296 252.01706 252.84016 253.15727
 253.19537 252.97047 252.33157 251.28068 249.88778 248.04988 245.95998 243.79409
 241.58619 239.39129 237.21239 235.05249 232.91360 230.78170 228.80880 226.96690
 225.25101 223.72411 222.35521 221.12831 220.01142 218.97252 218.07762 217.21972
 216.46283 215.64393 214.74303 214.10813 213.55923 213.52301 213.44800 214.80127
 216.52667 217.83244 219.24371 220.68102 222.31673 224.72736 228.46089 232.08481
 235.13025 238.05182 240.40086 242.45856 245.05241 248.28818 251.87456 255.49678
 258.98221 262.21616 265.17682 267.88916 270.32553 272.55124 274.62524 276.55115
 278.31067 279.86612 281.23407 282.37683 283.44177 284.49295 285.45999 285.98743
 286.76685 287.50858 288.18463 289.04617
 366.78100 356.33721 345.77143 334.63964 323.04486 311.24107 299.11329 286.91850
 274.63272 262.53193 250.54315 239.84636 229.97058 221.07679 213.26101 206.26522
 200.10144 195.04165 191.62587 189.67008 188.70930 188.77551 189.61273 190.92294
 192.65016 194.74737 197.01259 199.37380 201.82102 204.30323 206.39345 208.23766
 209.86588 211.01309 211.24431 211.47452 211.41374 211.12095 210.75616 210.38838
 210.00759 209.71981 209.53002 209.39624 209.32645 209.65967 210.04788 210.43910
 211.23431 212.41453 213.66674 215.45196 217.38217 219.42739 221.52460 223.60982
 225.67203 227.75825 229.85746 231.96568 234.09689 236.27111 238.52932 240.90154
 243.52475 245.77797 247.78218 249.54940 250.96861 252.09383 252.91804 253.23626
 253.27547 253.05169 252.41390 251.36411 249.97233 248.13554 246.04676 243.88197
 241.67519 239.48140 237.30362 235.14483 233.00705 230.87626 228.90448 227.06369
 225.34891 223.82312 222.45534 221.22955 220.11377 219.07598 218.18220 217.32541
 216.56963 215.75184 214.85206 214.21827 213.67049 213.61919 213.56952 214.82466
 216.56772 217.86308 219.29314 220.75333 222.40410 224.78778 228.42311 232.04233
 234.91429 237.72467 240.03026 242.16612 244.81624 248.11571 251.75668 255.40126
 258.88062 262.12231 265.11084 267.82690 270.26166 272.48041 274.54495 276.45578
 278.17764 279.70627 281.12622 282.35614 283.44559 284.51910 285.59479 286.57709
 287.46054 288.24725 288.93451 289.81036
 366.78100 356.33950 345.77599 334.64649 323.05399 311.25248 299.12698 286.93448
 274.65098 262.55247 250.56597 239.87147 229.99796 221.10646 213.29296 206.29945
 200.13795 195.08045 191.66695 189.71344 188.75494 188.82344 189.66293 190.97543
 192.70493 194.80442 197.07192 199.43542 201.88492 204.36941 206.46191 208.30841
 209.93890 211.08840 211.32190 211.55439 211.49589 211.20539 210.84288 210.47738
 210.09888 209.81338 209.62587 209.49437 209.42687 209.76236 210.15286 210.54636
 211.34385 212.52635 213.78085 215.56835 217.50084 219.54834 221.64784 223.73533
 225.79983 227.88833 229.98982 232.10032 234.23382 236.41032 238.67081 241.04531
 243.67081 245.92630 247.93280 249.70230 251.12379 252.25129 253.07779 253.39828
 253.43978 253.21828 252.58278 251.53527 250.14577 248.31127 246.22476 244.06226
 241.85776 239.66625 237.49075 235.33425 233.19875 231.07024 229.10074 227.26224
 225.54973 224.02623 222.66073 221.43722 220.32372 219.28822 218.39672 217.54221
 216.78871 215.97321 215.07570 214.44420 213.89870 213.76279 213.56816 214.97466
 216.70021 218.04233 219.43732 220.85109 222.53088 224.91154 228.49078 232.07146
 234.84875 237.56616 239.80420 241.92641 244.57651 247.90601 251.57855 255.25307
 258.77457 262.06091 265.07288 267.78671 270.21182 272.40378 274.42398 276.28918
 277.97971 279.46512 280.85577 282.22745 283.46243 284.63370 285.72162 286.70721
 287.59363 288.38297 289.07254 289.95132
 366.78100 356.34196 345.78091 334.65387 323.06382 311.26478 299.14174 286.95169
 274.67065 262.57460 250.59056 239.89852 230.02747 221.13843 213.32739 206.33634
 200.17730 195.12225 191.71121 189.76017 188.80412 188.87508 189.71703 191.03199
 192.76395 194.86590 197.13586 199.50181 201.95377 204.44073 206.53568 208.38464
 210.01759 211.16955 211.40551 211.64046 211.58442 211.29637 210.93633 210.57329
 210.19724 209.91420 209.72916 209.60011 209.53507 209.87302 210.26598 210.66194
 211.46189 212.64685 213.90380 215.69376 217.62872 219.67867 221.78063 223.87058
 225.93754 228.02850 230.13245 232.24541 234.38136 236.56032 238.82328 241.20023
 243.82819 246.08614 248.09510 249.86706 251.29101 252.42097 253.24993 253.57288
 253.61684 253.39779 252.76475 251.71971 250.33266 248.50062 246.41657 244.25653
 242.05449 239.86544 237.69240 235.53835 233.40531 231.27927 229.31222 227.47618
 225.76613 224.24509 222.88205 221.66100 220.54996 219.51692 218.62787 217.77583
 217.02478 216.21174 215.31670 214.68765 214.14461 213.90192 213.48584 215.15497
 216.76163 218.06584 219.52681 220.96057 222.64708 224.99631 228.52115 232.06694
 234.82207 237.48643 239.62497 241.64281 244.25581 247.63779 251.38887 255.12679
 258.70905 262.04050 265.06888 267.76288 270.14270 272.28067 274.25717 276.08405
 277.74179 279.20206 280.63766 282.01654 283.23856 284.38821 285.46365 286.43793
 287.31421 288.09451 288.77615 289.64487
 366.78100 356.34090 345.77879 334.65069 323.05959 311.25948 299.13538 286.94428
 274.66217 262.56507 250.57997 239.88686 230.01476 221.12466 213.31255 206.32045
 200.16035 195.10424 191.69214 189.74004 188.78293 188.85283 189.69373 191.00762
 192.73852 194.83942 197.10831 199.47321 201.92411 204.41000 206.50390 208.35180
 209.98369 211.13459 211.36949 211.60338 211.54628 211.25718 210.89607 210.53197
 210.15487 209.87076 209.68466 209.55456 209.48845 209.82535 210.21725 210.61214
 211.41104 212.59494 213.85083 215.63973 217.57363 219.62252 221.72342 223.81232
 225.87821 227.96811 230.07101 232.18290 234.31780 236.49570 238.75759 241.13349
 243.76039 246.01728 248.02518 249.79608 251.21897 252.34787 253.17577 253.49766
 253.54056 253.32046 252.68635 251.64025 250.25215 248.41904 246.33394 244.17284
 241.96973 239.77963 237.60553 235.45042 233.31632 231.18922 229.22111 227.38401
 225.67291 224.15080 222.78670 221.56460 220.45249 219.41839 218.52829 217.67518
 216.92308 216.10898 215.21287 214.58277 214.03867 213.85750 213.52527 215.26570
 216.80818 217.88797 219.59135 221.15347 222.82150 225.09254 228.59886 232.04359
 234.83151 237.41599 239.40083 241.25935 243.88942 247.42885 251.25264 255.06006
 258.68286 262.01996 265.02515 267.69479 270.03058 272.11209 274.03860 275.88315
 277.56583 279.07837 280.44049 281.79675 282.98087 284.04172 285.03784 285.98447
 286.83585 287.59402 288.25635 289.10037
 366.78100 356.33793 345.77286 334.64179 323.04773 311.24466 299.11759 286.92352
 274.63845 262.53838 250.55031 239.85425 229.97918 221.08611 213.27104 206.27597
 200.11290 195.05383 191.63877 189.68370 188.72363 188.79056 189.62849 190.93942
 192.66735 194.76529 197.03122 199.39315 201.84108 204.32401 206.41494 208.25987
 209.88881 211.03674 211.26867 211.49960 211.43953 211.14746 210.78339 210.41633
 210.03626 209.74919 209.56012 209.42705 209.35798 209.69191 210.08085 210.47278
 211.26871 212.44964 213.70257 215.48850 217.41943 219.46537 221.56330 223.64923
 225.71216 227.79909 229.89902 232.00795 234.13989 236.31482 238.57375 240.94668
 243.57061 245.82454 247.82947 249.59740 251.01734 252.14327 252.96820 253.28713
 253.32706 253.10399 252.46692 251.41786 250.02679 248.19072 246.10265 243.93858
 241.73251 239.53944 237.36238 235.20431 233.06724 230.93717 228.96610 227.12603
 225.41196 223.88690 222.51983 221.29476 220.17969 219.14262 218.24955 217.39348
 216.63842 215.82135 214.92228 214.28921 213.74214 213.71895 213.66724 215.25330
 217.02815 217.94370 219.78743 221.46822 223.12134 225.27657 228.74632 231.99039
 234.78783 237.19035 239.04315 240.85774 243.57513 247.23494 251.14452 254.99792
 258.64487 261.97241 264.94733 267.61365 269.92886 271.97653 273.89340 275.72977
 277.47067 279.04922 280.44025 281.67328 282.81268 283.87164 284.84186 285.65039
 286.24615 286.94196 287.56235 288.35297
 366.78100 356.33658 345.77016 334.63775 323.04233 311.23791 299.10949 286.91407
 274.62766 262.52624 250.53682 239.83940 229.96298 221.06857 213.25215 206.25573
 200.09131 195.03090 191.61448 189.65806 188.69664 188.76222 189.59881 190.90839
 192.63497 194.73155 196.99613 199.35672 201.80330 204.28488 206.37446 208.21804
 209.84563 210.99221 211.22279 211.45237 211.39095 211.09754 210.73212 210.36370
 209.98228 209.69387 209.50345 209.36903 209.29861 209.63119 210.01878 210.40936
 211.20394 212.38352 213.63510 215.41969 217.34927 219.39385 221.49043 223.57501
 225.63660 227.72218 229.82076 231.92834 234.05892 236.23251 238.49009 240.86167
 243.48425 245.73684 247.74042 249.50700 250.92558 252.05016 252.87375 253.19133
 253.22991 253.00549 252.36707 251.31666 249.92424 248.08682 245.99740 243.83198
 241.62457 239.43015 237.25173 235.09231 232.95389 230.82248 228.85006 227.00864
 225.29322 223.76681 222.39839 221.17197 220.05555 219.01713 218.12272 217.26530
 216.50888 215.69046 214.79004 214.15563 213.60721 213.67252 213.82678 215.27313
 217.06644 218.07512 220.00928 221.78374 223.40366 225.46980 228.78981 231.97603
 234.60585 236.85417 238.60464 240.51248 243.39561 247.11589 251.07080 254.92371
 258.54932 261.85391 264.82083 267.49719 269.81665 271.88074 273.81668 275.65479
 277.38910 278.94669 280.34244 281.57404 282.70380 283.75421 284.74496 285.63235
 286.27216 286.79401 287.38742 288.17218
 366.78100 356.33709 345.77119 334.63928 323.04438 311.24047 299.11257 286.91766
 274.63176 262.53085 250.54194 239.84504 229.96913 221.07523 213.25932 206.26342
 200.09951 195.03961 191.62370 189.66779 188.70689 188.77298 189.61008 190.92017
 192.64727 194.74436 197.00946 199.37055 201.81765 204.29974 206.38983 208.23393
 209.86202 211.00912 211.24021 211.47031 211.40940 211.11650 210.75159 210.38368
 210.00278 209.71487 209.52497 209.39106 209.32116 209.65425 210.04235 210.43344
 211.22853 212.40863 213.66072 215.44582 217.37591 219.42101 221.51810 223.60320
 225.66529 227.75138 229.85048 231.95857 234.08967 236.26376 238.52186 240.89395
 243.51705 245.77014 247.77424 249.54133 250.96042 252.08552 252.90961 253.22771
 253.26680 253.04290 252.40499 251.35509 249.96318 248.12627 246.03737 243.87246
 241.66556 239.47165 237.29375 235.13484 232.99694 230.86603 228.89412 227.05322
 225.33831 223.81241 222.44450 221.21860 220.10269 219.06479 218.17088 217.31397
 216.55807 215.74016 214.84026 214.20635 213.65845 213.72937 213.89696 215.25117
 217.15092 218.19066 220.18660 222.05608 223.62364 225.59961 228.78441 231.95576
 234.44756 236.53636 238.21474 240.20303 243.23651 247.03546 251.00192 254.85178
 258.46185 261.74628 264.70239 267.37811 269.69925 271.76849 273.69376 275.51544
 277.23636 278.78525 280.17645 281.45160 282.62360 283.67978 284.66772 285.55402
 286.33243 286.88452 287.47403 288.25589
 366.78100 356.33736 345.77171 334.64007 323.04543 311.24179 299.11414 286.91950
 274.63386 262.53321 250.54457 239.84793 229.97228 221.07864 213.26300 206.26736
 200.10371 195.04407 191.62843 189.67278 188.71214 188.77850 189.61586 190.92621
 192.65357 194.75093 197.01628 199.37764 201.82500 204.30736 206.39771 208.24207
 209.87043 211.01778 211.24914 211.47950 211.41885 211.12621 210.76157 210.39393
 210.01328 209.72564 209.53600 209.40235 209.33271 209.66607 210.05443 210.44578
 211.24114 212.42150 213.67385 215.45921 217.38957 219.43493 221.53228 223.61764
 225.68000 227.76635 229.86571 231.97407 234.10542 236.27978 238.53814 240.91050
 243.53385 245.78721 247.79157 249.55892 250.97828 252.10364 252.92800 253.24635
 253.28571 253.06207 252.42442 251.37478 249.98314 248.14649 246.05785 243.89321
 241.68657 239.49292 237.31528 235.15664 233.01899 230.88835 228.91671 227.07607
 225.36142 223.83578 222.46814 221.24249 220.12685 219.08921 218.19557 217.33892
 216.58328 215.76564 214.86599 214.23235 213.68471 213.77582 213.99107 215.20546
 217.17747 218.50006 220.36382 222.17430 223.72864 225.67519 228.77147 231.89928
 234.27434 236.22441 237.86705 239.94310 243.11143 246.96597 250.95406 254.81909
 258.41986 261.67740 264.60837 267.26218 269.55966 271.59998 273.49744 275.30365
 277.02081 278.57510 280.03894 281.39758 282.58124 283.63953 284.62177 285.50372
 286.28613 286.94275 287.53064 288.30945
 366.78100 356.33787 345.77275 334.64162 323.04749 311.24436 299.11724 286.92311
 274.63798 262.53786 250.54973 239.85360 229.97847 221.08535 213.27022 206.27509
 200.11197 195.05284 191.63771 189.68258 188.72246 188.78933 189.62720 190.93807
 192.66595 194.76382 197.02969 199.39157 201.83944 204.32231 206.41318 208.25806
 209.88693 211.03480 211.26668 211.49755 211.43742 211.14529 210.78117 210.41404
 210.03391 209.74679 209.55766 209.42453 209.35540 209.68928 210.07815 210.47002
 211.26590 212.44677 213.69964 215.48551 217.41639 219.46226 221.56013 223.64601
 225.70888 227.79575 229.89562 232.00450 234.13637 236.31124 238.57012 240.94299
 243.56686 245.82073 247.82561 249.59348 251.01335 252.13922 252.96410 253.28297
 253.32284 253.09972 252.46259 251.41346 250.02233 248.18621 246.09808 243.93395
 241.72783 239.53470 237.35757 235.19944 233.06232 230.93219 228.96106 227.12094
 225.40681 223.88168 222.51455 221.28943 220.17430 219.13717 218.24405 217.38792
 216.63279 215.81566 214.91654 214.28341 213.73628 213.83070 214.05379 215.23434
 217.21425 218.73346 220.54727 222.27719 223.80206 225.74727 228.78371 231.83969
 234.09068 235.89613 237.51285 239.68947 242.97581 246.88826 250.91202 254.79462
 258.39108 261.62704 264.53214 267.15964 269.41858 271.42285 273.29990 275.10233
 276.82629 278.42316 279.91830 281.25714 282.41547 283.45102 284.39835 285.27606
 286.09894 286.80072 287.40503 288.19275
 366.78100 356.33848 345.77396 334.64343 323.04991 311.24739 299.12087 286.92735
 274.64283 262.54330 250.55578 239.86026 229.98574 221.09322 213.27870 206.28417
 200.12165 195.06313 191.64861 189.69409 188.73457 188.80204 189.64052 190.95200
 192.68048 194.77896 197.04544 199.40791 201.85639 204.33987 206.43135 208.27683
 209.90631 211.05478 211.28726 211.51874 211.45922 211.16770 210.80418 210.43765
 210.05813 209.77161 209.58309 209.45057 209.38204 209.71652 210.10600 210.49848
 211.29496 212.47644 213.72991 215.51639 217.44787 219.49435 221.59283 223.67931
 225.74278 227.83026 229.93074 232.04022 234.17270 236.34818 238.60765 240.98113
 243.60561 245.86009 247.86557 249.63405 251.05452 252.18100 253.00648 253.32596
 253.36644 253.14392 252.50739 251.45887 250.06835 248.23283 246.14531 243.98179
 241.77626 239.58374 237.40722 235.24970 233.11318 230.98365 229.01313 227.17361
 225.46009 223.93557 222.56905 221.34452 220.23000 219.19348 218.30096 217.44544
 216.69092 215.87439 214.97587 214.34335 213.79683 213.88889 214.10640 215.28683
 217.23972 218.87585 220.74583 222.41501 223.90376 225.85474 228.83548 231.79565
 233.90439 235.55434 237.15013 239.44574 242.83003 246.80069 250.85634 254.75136
 258.34000 261.55569 264.43945 267.04645 269.28159 271.25760 273.11438 274.92529
 276.68274 278.29922 279.79883 281.15408 282.33209 283.37726 284.33142 285.20914
 286.02081 286.73468 287.34143 288.13269
 366.78100 356.33878 345.77455 334.64433 323.05111 311.24888 299.12266 286.92944
 274.64521 262.54599 250.55877 239.86354 229.98932 221.09710 213.28287 206.28865
 200.12643 195.06820 191.65398 189.69976 188.74054 188.80831 189.64709 190.95887
 192.68764 194.78642 197.05320 199.41597 201.86475 204.34853 206.44030 208.28608
 209.91586 211.06463 211.29741 211.52919 211.46996 211.17874 210.81552 210.44929
 210.07007 209.78385 209.59562 209.46340 209.39518 209.72995 210.11973 210.51251
 211.30928 212.49106 213.74484 215.53161 217.46339 219.51017 221.60894 223.69572
 225.75950 227.84727 229.94805 232.05783 234.19061 236.36638 238.62616 240.99994
 243.62471 245.87949 247.88527 249.65404 251.07482 252.20160 253.02737 253.34715
 253.38793 253.16570 252.52948 251.48126 250.09103 248.25581 246.16859 244.00536
 241.80014 239.60792 237.43169 235.27447 233.13825 231.00902 229.03880 227.19958
 225.48635 223.96213 222.59591 221.37168 220.25746 219.22124 218.32901 217.47379
 216.71957 215.90335 215.00512 214.37290 213.82668 213.93387 214.18713 215.33665
 217.25060 218.97798 220.92383 222.56189 224.02505 225.97739 228.90294 231.74609
 233.70157 235.19649 236.78610 239.21941 242.70311 246.71982 250.79753 254.70334
 258.28693 261.48651 264.35706 266.95404 269.16391 271.09802 272.92685 274.74347
 276.52908 278.20541 279.74286 281.10760 282.29129 283.34070 284.29868 285.17813
 285.98651 286.70917 287.31799 288.11316
 366.78100 356.33883 345.77467 334.64450 323.05133 311.24917 299.12300 286.92983
 274.64567 262.54650 250.55934 239.86417 229.99000 221.09784 213.28367 206.28950
 200.12734 195.06917 191.65500 189.70084 188.74167 188.80950 189.64834 190.96017
 192.68900 194.78784 197.05467 199.41750 201.86634 204.35017 206.44201 208.28784
 209.91767 211.06651 211.29934 211.53117 211.47201 211.18084 210.81767 210.45151
 210.07234 209.78617 209.59801 209.46584 209.39767 209.73251 210.12234 210.51518
 211.31201 212.49384 213.74768 215.53451 217.46634 219.51318 221.61201 223.69884
 225.76268 227.85051 229.95134 232.06118 234.19401 236.36984 238.62968 241.00351
 243.62835 245.88318 247.88901 249.65785 251.07868 252.20551 253.03135 253.35118
 253.39201 253.16985 252.53368 251.48551 250.09535 248.26018 246.17301 244.00985
 241.80468 239.61251 237.43635 235.27918 233.14302 231.01385 229.04368 227.20452
 225.49135 223.96718 222.60102 221.37685 220.26268 219.22652 218.33435 217.47918
 216.72502 215.90885 215.01068 214.37852 213.83235 213.96797 214.28842 215.38896
 217.25392 219.06468 221.07230 222.70805 224.15144 226.09276 228.96973 231.69159
 233.49132 234.84273 236.43958 239.01111 242.59758 246.65096 250.74174 254.65321
 258.22995 261.41382 264.27100 266.85034 269.03064 270.94781 272.78992 274.62451
 276.43002 278.13284 279.67465 281.04132 282.22437 283.27481 284.23639 285.11453
 285.91769 286.63733 287.25256 288.05173
 366.78100 356.33853 345.77406 334.64359 323.05012 311.24764 299.12117 286.92770
 274.64323 262.54376 250.55629 239.86082 229.98635 221.09387 213.27940 206.28493
 200.12246 195.06399 191.64952 189.69505 188.73558 188.80310 189.64163 190.95316
 192.68169 194.78022 197.04675 199.40928 201.85781 204.34134 206.43286 208.27839
 209.90792 211.05645 211.28898 211.52051 211.46104 211.16957 210.80609 210.43962
 210.06015 209.77368 209.58521 209.45274 209.38427 209.71880 210.10832 210.50085
 211.29738 212.47891 213.73244 215.51897 217.45050 219.49703 221.59556 223.68208
 225.74561 227.83314 229.93367 232.04320 234.17573 236.35126 238.61079 240.98431
 243.60884 245.86337 247.86890 249.63743 251.05796 252.18449 253.01002 253.32954
 253.37007 253.14760 252.51113 251.46266 250.07219 248.23672 246.14925 243.98578
 241.78030 239.58783 237.41136 235.25389 233.11742 230.98795 229.01748 227.17801
 225.46453 223.94006 222.57359 221.34912 220.23465 219.19818 218.30571 217.45024
 216.69576 215.87929 214.98082 214.34835 213.80188 213.97966 214.39970 215.46262
 217.25154 219.12781 221.19524 222.85315 224.28435 226.19209 229.02773 231.64732
 233.29936 234.52052 236.12938 238.82726 242.50444 246.58943 250.68904 254.59962
 258.16385 261.32855 264.16885 266.73309 268.90884 270.83011 272.65857 274.51044
 276.36365 278.07187 279.61456 280.98013 282.16562 283.21585 284.17740 285.05588
 285.85547 286.57275 287.19449 287.99542
 366.78100 356.33774 345.77248 334.64122 323.04696 311.24370 299.11644 286.92218
 274.63692 262.53666 250.54840 239.85214 229.97688 221.08361 213.26835 206.27309
 200.10983 195.05057 191.63531 189.68005 188.71979 188.78653 189.62427 190.93501
 192.66275 194.76049 197.02623 199.38797 201.83571 204.31845 206.40919 208.25393
 209.88267 211.03041 211.26215 211.49289 211.43263 211.14037 210.77611 210.40884
 210.02858 209.74132 209.55206 209.41880 209.34954 209.68328 210.07202 210.46376
 211.25950 212.44024 213.69298 215.47872 217.40946 219.45520 221.55294 223.63868
 225.70142 227.78816 229.88790 231.99664 234.12838 236.30312 238.56186 240.93460
 243.55834 245.81207 247.81681 249.58455 251.00429 252.13003 252.95477 253.27351
 253.31325 253.08999 252.45273 251.40347 250.01221 248.17595 246.08769 243.92343
 241.71717 239.52391 237.34665 235.18839 233.05113 230.92087 228.94961 227.10935
 225.39509 223.86983 222.50257 221.27730 220.16204 219.12478 218.23152 217.37526
 216.62000 215.80274 214.90348 214.27022 213.72296 213.96176 214.52594 215.55882
 217.24722 219.15633 221.28484 222.98643 224.42180 226.27542 229.06653 231.61366
 233.13066 234.23024 235.85472 238.66806 242.41927 246.53369 250.64389 254.55321
 258.10532 261.25302 264.07938 266.63977 268.78644 270.61057 272.47778 274.50580
 276.33966 278.03680 279.57492 280.93994 282.12366 283.17392 284.13651 285.01196
 285.80887 286.52277 287.14731 287.97089
 366.78100 356.33679 345.77059 334.63838 323.04317 311.23896 299.11076 286.91555
 274.62934 262.52814 250.53893 239.84172 229.96551 221.07131 213.25510 206.25889
 200.09468 195.03448 191.61827 189.66206 188.70086 188.76665 189.60344 190.91323
 192.64003 194.73682 197.00161 199.36241 201.80920 204.29099 206.38078 208.22458
 209.85237 210.99916 211.22996 211.45975 211.39854 211.10533 210.74013 210.37192
 209.99071 209.70251 209.51230 209.37809 209.30788 209.64068 210.02847 210.41926
 211.21405 212.39385 213.64564 215.43043 217.36023 219.40502 221.50181 223.58660
 225.64840 227.73419 229.83298 231.94078 234.07157 236.24536 238.50315 240.87495
 243.49774 245.75053 247.75433 249.52112 250.93991 252.06470 252.88850 253.20629
 253.24508 253.02087 252.38267 251.33246 249.94025 248.10305 246.01384 243.84863
 241.64142 239.44722 237.26901 235.10980 232.97160 230.84039 228.86818 227.02697
 225.31177 223.78556 222.41735 221.19115 220.07494 219.03673 218.14252 217.28532
 216.52911 215.71090 214.81070 214.17649 213.62828 213.93370 214.65532 215.66310
 217.25385 219.16011 221.35229 223.10686 224.55814 226.35028 229.08975 231.57753
 232.97433 233.96391 235.60397 238.52136 242.33731 246.47948 250.59840 254.50671
 258.05054 261.19058 264.01505 266.55750 268.63254 270.41919 272.48331 274.39813
 276.29550 277.96902 279.50299 280.86853 282.05176 283.10190 284.06204 284.93903
 285.73798 286.45404 287.08041 287.90509
 366.78100 356.33573 345.76847 334.63520 323.03894 311.23367 299.10441 286.90814
 274.62087 262.51861 250.52834 239.83008 229.95281 221.05755 213.24028 206.24301
 200.07775 195.01648 191.59922 189.64195 188.67969 188.74442 189.58015 190.88889
 192.61462 194.71036 196.97409 199.33383 201.77956 204.26029 206.34903 208.19176
 209.81850 210.96423 211.19397 211.42270 211.36043 211.06617 210.69990 210.33064
 209.94837 209.65911 209.46784 209.33258 209.26131 209.59304 209.97978 210.36951
 211.16325 212.34198 213.59272 215.37645 217.30518 219.34892 221.44465 223.52839
 225.58912 227.67386 229.77159 231.87832 234.00806 236.18079 238.43753 240.80826
 243.43000 245.68173 247.68446 249.45020 250.86793 251.99167 252.81440 253.13114
 253.16887 252.94360 252.30434 251.25307 249.85981 248.02154 245.93128 243.76501
 241.55674 239.36148 237.18221 235.02195 232.88268 230.75042 228.77715 226.93488
 225.21862 223.69135 222.32209 221.09482 219.97756 218.93829 218.04302 217.18476
 216.42749 215.60823 214.70696 214.07170 213.52243 213.89948 214.79028 215.77065
 217.26062 219.15053 221.40677 223.21432 224.68933 226.42136 229.09793 231.52260
 232.81931 233.72427 235.38763 238.39986 242.27124 246.43370 250.55219 254.44962
 257.97733 261.10886 263.94028 266.48187 268.53461 270.33505 272.42389 274.35016
 276.24002 277.90182 279.43356 280.79614 281.97760 283.02377 283.98303 284.85986
 285.65976 286.37750 286.99460 287.80066
 366.78100 356.33476 345.76651 334.63227 323.03503 311.22878 299.09854 286.90130
 274.61305 262.50981 250.51857 239.81932 229.94108 221.04484 213.22659 206.22835
 200.06211 194.99986 191.58162 189.62338 188.66013 188.72389 189.55865 190.86640
 192.59116 194.68592 196.94867 199.30743 201.75219 204.23194 206.31970 208.16146
 209.78721 210.93197 211.16073 211.38848 211.32524 211.03000 210.66275 210.29251
 209.90927 209.61902 209.42678 209.29054 209.21829 209.54905 209.93481 210.32356
 211.11632 212.29408 213.54383 215.32659 217.25435 219.29710 221.39186 223.47462
 225.53437 227.61813 229.71489 231.82064 233.94940 236.12116 238.37691 240.74667
 243.36743 245.61818 247.61994 249.38470 250.80145 251.92421 252.74597 253.06172
 253.09848 252.87224 252.23199 251.17975 249.78551 247.94626 245.85502 243.68778
 241.47853 239.28229 237.10205 234.94080 232.80056 230.66732 228.69307 226.84983
 225.13259 223.60434 222.23410 221.00586 219.88761 218.84737 217.95113 217.09188
 216.33364 215.51340 214.61115 213.97491 213.42467 213.86798 214.91536 215.89793
 217.28722 219.12822 221.43747 223.29016 224.79205 226.48181 229.09598 231.43883
 232.64471 233.49968 235.20683 238.30948 242.23328 246.40869 250.52280 254.40723
 257.91876 261.04517 263.88443 266.42950 268.46570 270.19910 272.35657 274.29443
 276.18060 277.83179 279.35745 280.71729 281.89606 282.94046 283.89594 284.77414
 285.58105 286.30179 286.91232 287.72141
 366.78100 356.33378 345.76457 334.62935 323.03114 311.22392 299.09270 286.89449
 274.60527 262.50106 250.50884 239.80862 229.92941 221.03219 213.21297 206.21376
 200.04654 194.98333 191.56411 189.60489 188.64068 188.70346 189.53725 190.84403
 192.56781 194.66160 196.92338 199.28117 201.72495 204.20373 206.29052 208.13130
 209.75609 210.89987 211.12765 211.35444 211.29022 210.99401 210.62579 210.25457
 209.87036 209.57914 209.38592 209.24871 209.17549 209.50528 209.89006 210.27784
 211.06963 212.24641 213.49520 215.27698 217.20376 219.24555 221.33933 223.42112
 225.47990 227.56268 229.65847 231.76325 233.89104 236.06182 238.31660 240.68539
 243.30517 245.55496 247.55574 249.31952 250.73531 251.85709 252.67787 252.99266
 253.02844 252.80123 252.16001 251.10679 249.71158 247.87136 245.77915 243.61093
 241.40071 239.20350 237.02228 234.86007 232.71885 230.58463 228.60942 226.76520
 225.04699 223.51777 222.14655 220.91734 219.79812 218.75691 217.85969 216.99947
 216.24026 215.41904 214.51582 213.87861 213.32739 213.83334 215.02870 216.05475
 217.30867 219.11790 221.51021 223.35210 224.83487 226.50104 229.06627 231.32214
 232.44933 233.27931 235.04181 238.23320 242.21396 246.40218 250.51205 254.38786
 257.88538 260.99777 263.82199 266.35727 268.40131 270.18787 272.37527 274.21512
 276.11142 277.76114 279.27612 280.62122 281.78467 282.82315 283.77087 284.65192
 285.47235 286.18506 286.79453 287.60583
 366.78100 356.33274 345.76248 334.62623 323.02697 311.21871 299.08645 286.88720
 274.59694 262.49168 250.49842 239.79716 229.91691 221.01865 213.19839 206.19813
 200.02988 194.96562 191.54536 189.58510 188.61984 188.68159 189.51433 190.82007
 192.54281 194.63556 196.89630 199.25304 201.69578 204.17352 206.25927 208.09901
 209.72275 210.86549 211.09224 211.31798 211.25272 210.95546 210.58620 210.21395
 209.82869 209.53643 209.34217 209.20391 209.12966 209.45840 209.84214 210.22888
 211.01963 212.19537 213.44311 215.22385 217.14959 219.19034 221.28308 223.36382
 225.42156 227.50331 229.59805 231.70179 233.82853 235.99827 238.25202 240.61976
 243.23850 245.48724 247.48699 249.24973 250.66447 251.78521 252.60495 252.91870
 252.95344 252.72518 252.08292 251.02867 249.63241 247.79115 245.69789 243.52863
 241.31738 239.11912 236.93686 234.77360 232.63135 230.49609 228.51983 226.67457
 224.95531 223.42506 222.05280 220.82254 219.70228 218.66003 217.76177 216.90051
 216.14025 215.31799 214.41374 213.77548 213.22322 213.79330 215.14020 216.20892
 217.35902 219.13795 221.57875 223.39502 224.85501 226.50127 229.01970 231.17621
 232.22060 233.04724 234.88924 238.17278 242.20389 246.40558 250.51169 254.37900
 257.86499 260.96701 263.78818 266.33679 268.38806 270.09268 272.26105 274.15329
 276.04318 277.70453 279.22568 280.58298 281.76019 282.80917 283.78412 284.66772
 285.45529 286.14670 286.75375 287.55609
 366.78100 356.33177 345.76053 334.62330 323.02307 311.21384 299.08060 286.88037
 274.58914 262.48290 250.48867 239.78644 229.90521 221.00597 213.18474 206.18351
 200.01427 194.94904 191.52781 189.56658 188.60034 188.66111 189.49288 190.79764
 192.51941 194.61118 196.87095 199.22671 201.66848 204.14525 206.23002 208.06878
 209.69155 210.83332 211.05908 211.28385 211.21762 210.91939 210.54915 210.17592
 209.78969 209.49645 209.30122 209.16199 209.08676 209.41452 209.79729 210.18306
 210.97282 212.14759 213.39436 215.17413 217.09889 219.13866 221.23043 223.31019
 225.36696 227.44773 229.54150 231.64426 233.77003 235.93880 238.19156 240.55833
 243.17610 245.42387 247.42263 249.18440 250.59817 251.71793 252.53670 252.84947
 252.88324 252.65400 252.01077 250.95554 249.55831 247.71607 245.62184 243.45161
 241.23937 239.04014 236.85691 234.69268 232.54944 230.41321 228.43598 226.58974
 224.86951 223.33828 221.96505 220.73381 219.61258 218.56935 217.67011 216.80788
 216.04665 215.22342 214.31818 213.67895 213.12572 213.75359 215.23700 216.35724
 217.45117 219.18993 221.59557 223.41521 224.89749 226.51732 228.95467 230.99161
 231.97038 232.81972 234.75432 238.13086 242.20898 246.42137 250.52029 254.37352
 257.83972 260.92578 263.74454 266.30597 268.37088 270.04614 272.18863 274.14182
 275.96698 277.64838 279.17490 280.53336 281.70981 282.75967 283.73499 284.61554
 285.39713 286.08688 286.69305 287.49478
 366.78100 356.33146 345.75992 334.62239 323.02185 311.21231 299.07877 286.87823
 274.58670 262.48016 250.48562 239.78308 229.90154 221.00201 213.18047 206.17893
 200.00939 194.94385 191.52232 189.56078 188.59424 188.65470 189.48616 190.79063
 192.51209 194.60355 196.86301 199.21847 201.65994 204.13640 206.22086 208.05932
 209.68178 210.82325 211.04871 211.27317 211.20663 210.90809 210.53756 210.16402
 209.77748 209.48394 209.28840 209.14887 209.07333 209.40079 209.78325 210.16871
 210.95818 212.13264 213.37910 215.15856 217.08302 219.12249 221.21395 223.29341
 225.34987 227.43033 229.52380 231.62626 233.75172 235.92018 238.17264 240.53911
 243.15657 245.40403 247.40249 249.16395 250.57742 251.69688 252.51534 252.82780
 252.86126 252.63173 251.98819 250.93265 249.53511 247.69257 245.59804 243.42750
 241.21496 239.01542 236.83188 234.66735 232.52381 230.38727 228.40973 226.56319
 224.84266 223.31112 221.93758 220.70604 219.58450 218.54097 217.64143 216.77889
 216.01735 215.19381 214.28828 213.64874 213.09520 213.75092 215.30008 216.49992
 217.61041 219.23151 221.61977 223.43643 224.90408 226.50572 228.89037 230.80858
 231.69638 232.58038 234.63753 238.10315 242.22585 246.45158 250.54091 254.36926
 257.80368 260.87140 263.70105 266.27283 268.31943 270.05038 272.23969 274.12430
 275.93848 277.57520 279.08356 280.41315 281.54181 282.58060 283.55466 284.41922
 285.16779 285.85892 286.47061 287.28299
 366.78100 356.33047 345.75793 334.61940 323.01786 311.20733 299.07279 286.87126
 274.57873 262.47119 250.47566 239.77212 229.88959 220.98905 213.16652 206.16399
 199.99345 194.92692 191.50438 189.54185 188.57431 188.63378 189.46425 190.76771
 192.48818 194.57864 196.83711 199.19158 201.63204 204.10751 206.19097 208.02844
 209.64990 210.79037 211.01484 211.23830 211.17077 210.87123 210.49970 210.12516
 209.73763 209.44310 209.24656 209.10603 209.02949 209.35596 209.73742 210.12189
 210.91036 212.08382 213.32929 215.10775 217.03122 219.06968 221.16015 223.23862
 225.29408 227.37355 229.46601 231.56748 233.69194 235.85941 238.11088 240.47634
 243.09281 245.33927 247.33674 249.09721 250.50967 251.62814 252.44560 252.75707
 252.78953 252.55900 251.91447 250.85793 249.45940 247.61586 245.52033 243.34879
 241.13526 238.93473 236.75019 234.58466 232.44012 230.30259 228.32405 226.47652
 224.75499 223.22245 221.84792 220.61538 219.49285 218.44831 217.54778 216.68425
 215.92171 215.09718 214.19064 213.55011 212.99557 213.71097 215.40118 216.60912
 217.71284 219.43587 221.67253 223.43787 224.91144 226.50031 228.82137 230.47060
 231.32600 232.35371 234.54030 238.09547 242.24742 246.47330 250.55443 254.36812
 257.77808 260.83536 263.68762 266.29459 268.34943 270.03534 272.11401 274.11130
 275.93213 277.57544 279.04611 280.34497 281.42407 282.45474 283.42596 284.23706
 284.94754 285.63608 286.24792 287.06104
 366.78100 356.32999 345.75699 334.61798 323.01597 311.20497 299.06996 286.86795
 274.57495 262.46694 250.47093 239.76693 229.88392 220.98291 213.15991 206.15690
 199.98589 194.91889 191.49588 189.53287 188.56487 188.62386 189.45385 190.75685
 192.47684 194.56683 196.82483 199.17882 201.61881 204.09381 206.17680 208.01379
 209.63479 210.77478 210.99877 211.22177 211.15376 210.85375 210.48175 210.10674
 209.71873 209.42373 209.22672 209.08571 209.00871 209.33470 209.71569 210.09969
 210.88768 212.06067 213.30567 215.08366 217.00665 219.04465 221.13464 223.21263
 225.26763 227.34662 229.43861 231.53961 233.66360 235.83059 238.08159 240.44658
 243.06257 245.30857 247.30556 249.06555 250.47755 251.59554 252.41253 252.72353
 252.75552 252.52451 251.87951 250.82250 249.42349 247.57949 245.48348 243.31147
 241.09747 238.89646 236.71145 234.54545 232.40044 230.26243 228.28343 226.43542
 224.71341 223.18041 221.80540 220.57239 219.44939 218.40438 217.50337 216.63937
 215.87636 215.05135 214.14435 213.50334 212.94833 213.69720 215.46649 216.73253
 217.83853 219.63979 221.72861 223.42354 224.89655 226.48608 228.72040 230.15228
 230.94380 232.07942 234.41452 238.09468 242.30125 246.52835 250.59471 254.39787
 257.80072 260.84152 263.67575 266.29504 268.39087 270.06726 272.20786 274.02838
 275.90561 277.54422 279.00607 280.25742 281.31763 282.35150 283.31790 284.08344
 284.74951 285.43246 286.04031 286.84055
 366.78100 356.33001 345.75703 334.61804 323.01605 311.20506 299.07008 286.86809
 274.57510 262.46711 250.47113 239.76714 229.88415 220.98316 213.16018 206.15719
 199.98620 194.91921 191.49623 189.53324 188.56525 188.62426 189.45428 190.75729
 192.47730 194.56731 196.82533 199.17934 201.61935 204.09436 206.17738 208.01439
 209.63540 210.77541 210.99943 211.22244 211.15445 210.85446 210.48248 210.10749
 209.71950 209.42452 209.22753 209.08654 209.00955 209.33557 209.71658 210.10059
 210.88860 212.06162 213.30663 215.08464 217.00765 219.04567 221.13568 223.21369
 225.26870 227.34772 229.43973 231.54074 233.66475 235.83177 238.08278 240.44779
 243.06380 245.30982 247.30683 249.06684 250.47885 251.59687 252.41388 252.72489
 252.75690 252.52592 251.88093 250.82394 249.42495 247.58097 245.48498 243.31299
 241.09901 238.89802 236.71303 234.54704 232.40206 230.26407 228.28508 226.43709
 224.71511 223.18212 221.80713 220.57414 219.45116 218.40617 217.50518 216.64119
 215.87821 215.05322 214.14623 213.50524 212.95026 213.71251 215.51343 216.84592
 217.97691 219.79877 221.79730 223.40425 224.84033 226.43967 228.57875 229.87379
 230.61238 231.82071 234.29099 238.09271 242.36667 246.60547 250.65825 254.44269
 257.82867 260.85217 263.66882 266.30103 268.46420 270.19186 272.22040 273.97092
 275.75632 277.43527 278.94855 280.18469 281.29791 282.33231 283.16684 283.83386
 284.51794 285.20276 285.80978 286.61624
 366.78100 356.32984 345.75669 334.61753 323.01538 311.20422 299.06906 286.86691
 274.57375 262.46559 250.46944 239.76528 229.88213 220.98097 213.15781 206.15466
 199.98350 194.91634 191.49319 189.53003 188.56188 188.62072 189.45056 190.75341
 192.47325 194.56310 196.82094 199.17478 201.61463 204.08947 206.17231 208.00916
 209.63000 210.76985 210.99369 211.21653 211.14838 210.84822 210.47606 210.10091
 209.71275 209.41760 209.22044 209.07928 209.00213 209.32797 209.70881 210.09266
 210.88050 212.05335 213.29819 215.07603 216.99888 219.03672 221.12657 223.20441
 225.25925 227.33810 229.42994 231.53078 233.65463 235.82147 238.07232 240.43716
 243.05300 245.29885 247.29569 249.05553 250.46738 251.58522 252.40207 252.71291
 252.74475 252.51360 251.86844 250.81129 249.41213 247.56797 245.47182 243.29966
 241.08550 238.88435 236.69919 234.53304 232.38788 230.24972 228.27057 226.42241
 224.70025 223.16710 221.79194 220.55879 219.43563 218.39047 217.48932 216.62516
 215.86200 215.03685 214.12969 213.48854 212.93338 213.70746 215.53632 216.96902
 218.12129 219.93871 221.90617 223.43289 224.79948 226.37903 228.41330 229.56500
 230.28142 231.60017 234.21738 238.11655 242.41948 246.65494 250.69516 254.46274
 257.82773 260.83417 263.64349 266.29385 268.47720 270.24173 272.27090 274.00656
 275.67923 277.41116 278.92285 280.17380 281.30576 282.23886 282.98459 283.64935
 284.39719 285.08856 285.70316 286.51746
 366.78100 356.33035 345.75770 334.61905 323.01739 311.20674 299.07209 286.87044
 274.57779 262.47014 250.47449 239.77083 229.88818 220.98753 213.16488 206.16223
 199.99158 194.92493 191.50227 189.53962 188.57197 188.63132 189.46167 190.76502
 192.48537 194.57571 196.83406 199.18841 201.62876 204.10411 206.18746 208.02481
 209.64615 210.78650 211.01085 211.23420 211.16655 210.86690 210.49525 210.12059
 209.73294 209.43829 209.24164 209.10099 209.02434 209.35069 209.73203 210.11638
 210.90473 212.07808 213.32343 215.10178 217.02513 219.06347 221.15382 223.23217
 225.28752 227.36687 229.45922 231.56057 233.68491 235.85226 238.10361 240.46896
 243.08531 245.33166 247.32901 249.08935 250.50170 251.62005 252.43740 252.74875
 252.78110 252.55045 251.90579 250.84914 249.45049 247.60684 245.51119 243.33954
 241.12588 238.92523 236.74058 234.57493 232.43028 230.29263 228.31398 226.46632
 224.74467 223.21202 221.83737 220.60472 219.48207 218.43742 217.53676 216.67311
 215.91046 215.08581 214.17916 213.53851 212.98386 213.73537 215.51091 217.07054
 218.28955 220.06938 222.00334 223.44032 224.73152 226.26949 228.21034 229.36195
 229.97543 231.35748 234.10452 238.10246 242.45299 246.71480 250.75313 254.51678
 257.86716 260.83942 263.62247 266.27338 268.47345 270.30954 272.29053 274.04959
 275.67523 277.33435 278.81320 280.04950 281.11905 281.87369 282.66913 283.53479
 284.32153 285.04672 285.69894 286.53012
 366.78100 356.33197 345.76094 334.62391 323.02388 311.21485 299.08182 286.88180
 274.59077 262.48474 250.49071 239.78868 229.90765 221.00862 213.18759 206.18656
 200.01753 194.95250 191.53147 189.57044 188.60441 188.66539 189.49736 190.80233
 192.52430 194.61627 196.87624 199.23221 201.67418 204.15115 206.23612 208.07509
 209.69806 210.84003 211.06600 211.29098 211.22495 210.92692 210.55689 210.18386
 209.79783 209.50480 209.30977 209.17074 209.09571 209.42368 209.80665 210.19262
 210.98259 212.15757 213.40454 215.18451 217.10948 219.14945 221.24142 223.32139
 225.37836 227.45933 229.55330 231.65627 233.78224 235.95121 238.20418 240.57116
 243.18913 245.43710 247.43607 249.19804 250.61201 251.73198 252.55095 252.86392
 252.89789 252.66886 252.02583 250.97080 249.57378 247.73175 245.63772 243.46769
 241.25566 239.05663 236.87360 234.70957 232.56654 230.43051 228.45348 226.60745
 224.88742 223.35639 221.98337 220.75234 219.63131 218.58828 217.68925 216.82722
 216.06619 215.24316 214.33813 213.69910 213.14607 213.82887 215.45595 217.10245
 218.47980 220.16220 222.03377 223.40237 224.61723 226.10400 227.91530 229.20302
 229.55504 231.05626 233.99184 238.08229 242.49246 246.80959 250.88289 254.64523
 258.00586 261.01004 263.80231 266.39447 268.59860 270.47495 272.15924 273.94791
 275.62518 277.24121 278.54819 279.57492 280.42480 281.28223 282.21960 283.12961
 283.97073 284.71976 285.37408 286.20795
 366.78100 356.33082 345.75863 334.62045 323.01926 311.20908 299.07490 286.87371
 274.58153 262.47434 250.47916 239.77598 229.89379 220.99361 213.17143 206.16924
 199.99906 194.93287 191.51069 189.54851 188.58132 188.64114 189.47195 190.77577
 192.49659 194.58740 196.84622 199.20103 201.64185 204.11767 206.20148 208.03930
 209.66111 210.80193 211.02675 211.25056 211.18338 210.88420 210.51301 210.13883
 209.75164 209.45746 209.26128 209.12109 209.04491 209.37172 209.75354 210.13836
 210.92717 212.10099 213.34680 215.12562 217.04944 219.08825 221.17907 223.25789
 225.31370 227.39352 229.48633 231.58815 233.71297 235.88078 238.13260 240.49841
 243.11523 245.36205 247.35986 249.12068 250.53349 251.65231 252.47013 252.78194
 252.81476 252.58457 251.94039 250.88421 249.48602 247.64284 245.54766 243.37647
 241.16329 238.96310 236.77892 234.61374 232.46955 230.33237 228.35418 226.50700
 224.78582 223.25363 221.87945 220.64726 219.52508 218.48090 217.58071 216.71753
 215.95534 215.13116 214.22498 213.58479 213.03061 213.78807 215.59073 217.09636
 218.55960 220.25827 222.08916 223.49524 224.71106 226.12277 227.78163 229.09959
 229.42543 231.03957 234.06577 238.13318 242.55991 246.88605 250.96982 254.72238
 258.06522 261.02325 263.80234 266.37280 268.57120 270.27805 272.19373 274.03513
 275.55020 276.80508 278.01797 279.05630 280.10059 281.17264 282.18988 283.11142
 283.94028 284.67834 285.32312 286.14481
 366.78100 356.32834 345.75368 334.61302 323.00935 311.19669 299.06003 286.85637
 274.56171 262.45205 250.45438 239.74872 229.86406 220.96140 213.13674 206.13208
 199.95941 194.89075 191.46609 189.50143 188.53177 188.58911 189.41744 190.71878
 192.43712 194.52546 196.78180 199.13414 201.57247 204.04581 206.12715 207.96249
 209.58183 210.72017 210.94250 211.16384 211.09418 210.79252 210.41886 210.04220
 209.65253 209.35587 209.15721 209.01455 208.93589 209.26023 209.63956 210.02190
 210.80824 211.97958 213.22292 214.99926 216.92060 218.95693 221.04527 223.12161
 225.17495 227.25229 229.34263 231.44196 233.56430 235.72964 237.97898 240.34232
 242.95666 245.20099 247.19633 248.95467 250.36501 251.48135 252.29669 252.60602
 252.63636 252.40370 251.75704 250.69838 249.29772 247.45205 245.35439 243.18073
 240.96507 238.76241 236.57575 234.40808 232.26142 230.12176 228.14110 226.29144
 224.56778 223.03311 221.65645 220.42179 219.29713 218.25047 217.34781 216.48215
 215.71748 214.89082 213.98216 213.33950 212.78284 213.67818 215.77740 217.20782
 218.62529 220.34543 222.20703 223.67764 224.95187 226.27451 227.99864 228.99747
 229.38445 230.94958 233.98010 238.08792 242.53908 246.89436 250.99341 254.71680
 258.02267 260.97083 263.69958 266.25595 268.31949 270.18027 272.39990 274.03555
 275.44138 276.58511 277.80457 279.19705 280.45358 281.56528 282.57953 283.49838
 284.32480 285.06070 285.70358 286.52289
 366.78100 356.32963 345.75626 334.61689 323.01452 311.20316 299.06779 286.86542
 274.57205 262.46368 250.46731 239.76294 229.87957 220.97821 213.15484 206.15147
 199.98010 194.91273 191.48936 189.52599 188.55762 188.61626 189.44589 190.74852
 192.46815 194.55778 196.81541 199.16904 201.60867 204.08331 206.16594 208.00257
 209.62320 210.76283 210.98646 211.20909 211.14072 210.84036 210.46799 210.09262
 209.70425 209.40888 209.21151 209.07014 208.99277 209.31841 209.69904 210.08267
 210.87030 212.04293 213.28756 215.06519 216.98782 219.02546 221.11509 223.19272
 225.24735 227.32598 229.41761 231.51824 233.64187 235.80851 238.05914 240.42377
 243.03940 245.28503 247.28166 249.04129 250.45292 251.57056 252.38719 252.69782
 252.72945 252.49808 251.85271 250.79534 249.39597 247.55161 245.45524 243.28287
 241.06850 238.86713 236.68176 234.51539 232.37002 230.23166 228.25229 226.40392
 224.68155 223.14818 221.77281 220.53944 219.41607 218.37071 217.46934 216.60497
 215.84160 215.01623 214.10886 213.46749 212.91212 213.74751 215.74896 217.36542
 218.81419 220.47148 222.29865 223.77083 225.04443 226.23213 228.17015 228.74878
 229.09558 230.66806 233.82158 238.02063 242.51091 246.88910 251.00417 254.74692
 258.05740 261.00110 263.73099 266.24182 268.17700 270.22015 272.29660 273.98508
 275.39896 276.74207 278.40170 279.85901 281.12018 282.23599 283.25400 284.17624
 285.00568 285.74432 286.38959 287.21188
 366.78100 356.33308 345.76315 334.62723 323.02831 311.22038 299.08846 286.88954
 274.59961 262.49469 250.50177 239.80084 229.92092 221.02299 213.20307 206.20315
 200.03522 194.97130 191.55138 189.59145 188.62653 188.68861 189.52168 190.82776
 192.55084 194.64391 196.90499 199.26207 201.70514 204.18322 206.26930 208.10937
 209.73345 210.87653 211.10360 211.32968 211.26476 210.96783 210.59891 210.22698
 209.84206 209.55014 209.35621 209.21829 209.14437 209.47344 209.85752 210.24460
 211.03567 212.21175 213.45983 215.24090 217.16698 219.20806 221.30113 223.38221
 225.44029 227.52236 229.61744 231.72152 233.84859 236.01867 238.27274 240.64082
 243.25990 245.50897 247.50905 249.27213 250.68720 251.80828 252.62836 252.94243
 252.97751 252.74959 252.10766 251.05374 249.65782 247.81689 245.72397 243.55505
 241.34412 239.14620 236.96428 234.80135 232.65943 230.52450 228.54858 226.70366
 224.98473 223.45481 222.08289 220.85296 219.73304 218.69112 217.79319 216.93227
 216.17235 215.35042 214.44650 213.80858 213.25665 213.91151 215.58615 217.51260
 219.11470 220.63182 222.37492 223.74823 224.91364 226.07204 227.90459 228.43909
 228.79730 230.50429 233.80984 238.05257 242.56236 246.96648 251.09879 254.86566
 258.18643 261.17194 263.90152 266.43045 268.55939 270.06488 272.15250 273.85699
 275.41031 277.03061 278.79892 280.36371 281.71793 282.91608 284.00919 284.99945
 285.89011 286.68323 287.37610 288.25906
 366.78100 356.33386 345.76472 334.62958 323.03144 311.22429 299.09315 286.89501
 274.60587 262.50173 250.50959 239.80945 229.93031 221.03317 213.21403 206.21488
 200.04774 194.98460 191.56546 189.60632 188.64218 188.70504 189.53890 190.84576
 192.56962 194.66347 196.92533 199.28319 201.72705 204.20591 206.29277 208.13363
 209.75849 210.90235 211.13021 211.35706 211.29292 210.99678 210.62864 210.25750
 209.87336 209.58222 209.38908 209.25194 209.17880 209.50865 209.89351 210.28137
 211.07323 212.25009 213.49895 215.28081 217.20767 219.24953 221.34339 223.42524
 225.48410 227.56696 229.66282 231.76768 233.89554 236.06640 238.32126 240.69012
 243.30998 245.55983 247.56069 249.32455 250.74041 251.86227 252.68313 252.99799
 253.03385 252.80671 252.16557 251.11242 249.71728 247.87714 245.78500 243.61686
 241.40672 239.20958 237.02844 234.86630 232.72516 230.59101 228.61587 226.77173
 225.05359 223.52445 222.15331 220.92417 219.80503 218.76389 217.86675 217.00660
 216.24746 215.42632 214.52318 213.88604 213.33490 213.94838 215.53207 217.57018
 219.32344 220.85403 222.52686 223.78116 224.85585 226.04031 227.60292 228.15027
 228.49147 230.32912 233.77544 238.04375 242.55135 246.95988 251.08453 254.83072
 258.18460 261.19916 263.94830 266.50668 268.71542 270.53049 271.98608 273.93396
 275.57181 277.19864 278.87979 280.51797 281.93567 283.18997 284.33435 285.37106
 286.30347 287.13376 287.85913 288.78348
 366.78100 356.33290 345.76280 334.62670 323.02759 311.21949 299.08739 286.88829
 274.59819 262.49309 250.49999 239.79888 229.91878 221.02068 213.20058 206.20048
 200.03238 194.96828 191.54817 189.58807 188.62297 188.68487 189.51777 190.82367
 192.54657 194.63947 196.90036 199.25726 201.70016 204.17806 206.26396 208.10386
 209.72776 210.87065 211.09755 211.32345 211.25835 210.96125 210.59215 210.22005
 209.83494 209.54284 209.34874 209.21064 209.13654 209.46544 209.84934 210.23623
 211.02713 212.20303 213.45093 215.23183 217.15773 219.19863 221.29152 223.37242
 225.43032 227.51222 229.60712 231.71102 233.83792 236.00782 238.26171 240.62961
 243.24851 245.49741 247.49731 249.26021 250.67511 251.79600 252.61590 252.92980
 252.96470 252.73660 252.09450 251.04040 249.64429 247.80319 245.71009 243.54099
 241.32989 239.13179 236.94969 234.78658 232.64448 230.50938 228.53328 226.68818
 224.96908 223.43898 222.06687 220.83677 219.71667 218.67457 217.77647 216.91537
 216.15527 215.33317 214.42906 213.79096 213.23886 213.90590 215.61494 217.62022
 219.34987 221.04013 222.68439 223.86435 224.92418 226.10591 227.67635 227.99573
 228.19896 230.05968 233.62106 237.97810 242.48763 246.88928 251.02185 254.77522
 258.13199 261.11447 263.84241 266.43201 268.68124 270.51755 271.97787 273.79712
 275.51331 277.19620 279.03079 280.68945 282.12488 283.39490 284.55356 285.60324
 286.54733 287.38803 288.12244 289.05838
 366.78100 356.33318 345.76336 334.62754 323.02872 311.22090 299.08908 286.89027
 274.60045 262.49563 250.50281 239.80199 229.92217 221.02435 213.20453 206.20471
 200.03689 194.97307 191.55325 189.59343 188.62861 188.69080 189.52398 190.83016
 192.55334 194.64652 196.90770 199.26488 201.70806 204.18624 206.27242 208.11260
 209.73678 210.87996 211.10715 211.33333 211.26851 210.97169 210.60287 210.23105
 209.84623 209.55441 209.36059 209.22277 209.14895 209.47813 209.86231 210.24950
 211.04068 212.21686 213.46504 215.24622 217.17240 219.21358 221.30676 223.38794
 225.44612 227.52830 229.62348 231.72766 233.85484 236.02503 238.27921 240.64739
 243.26657 245.51575 247.51593 249.27911 250.69429 251.81547 252.63565 252.94983
 252.98501 252.75719 252.11538 251.06156 249.66574 247.82492 245.73210 243.56328
 241.35246 239.15464 236.97282 234.81000 232.66818 230.53336 228.55754 226.71272
 224.99391 223.46409 222.09227 220.86245 219.74263 218.70081 217.80299 216.94217
 216.18235 215.36053 214.45671 213.81889 213.26707 213.92976 215.65376 217.65788
 219.46283 221.22821 222.76405 223.87909 224.91855 226.06949 227.72874 227.85822
 228.08926 229.98329 233.64386 237.99947 242.50945 246.93188 251.08093 254.85941
 258.18320 261.13043 263.88361 266.43085 268.64667 270.45944 272.02005 273.81039
 275.71722 277.86041 279.78253 281.47028 282.93088 284.22311 285.40210 286.47018
 287.43082 288.28625 289.03354 289.98590
 366.78100 356.33541 345.76782 334.63423 323.03764 311.23205 299.10246 286.90587
 274.61828 262.51569 250.52511 239.82652 229.94893 221.05334 213.23575 206.23816
 200.07257 195.01098 191.59339 189.63580 188.67321 188.73762 189.57303 190.88144
 192.60685 194.70226 196.96567 199.32508 201.77049 204.25090 206.33932 208.18173
 209.80814 210.95355 211.18296 211.41137 211.34878 211.05419 210.68760 210.31801
 209.93542 209.64583 209.45424 209.31865 209.24706 209.57847 209.96488 210.35429
 211.14770 212.32612 213.57653 215.35994 217.28835 219.33176 221.42717 223.51058
 225.57099 227.65540 229.75281 231.85922 233.98863 236.16104 238.41745 240.78786
 243.40927 245.66068 247.66309 249.42850 250.84591 251.96933 252.79174 253.10815
 253.14556 252.91997 252.28038 251.22879 249.83520 247.99661 245.90602 243.73943
 241.53084 239.33525 237.15566 234.99507 232.85548 230.72289 228.74930 226.90671
 225.19013 223.66254 222.29295 221.06536 219.94777 218.90818 218.01259 217.15400
 216.39641 215.57682 214.67523 214.03964 213.49005 214.05180 215.56812 217.69115
 219.78082 221.48402 222.82541 223.84360 224.83339 225.98965 227.37408 227.45709
 227.76891 229.83609 233.62282 238.03268 242.56789 247.01161 251.19019 254.99840
 258.38443 261.36880 264.07178 266.57916 268.80948 270.68216 272.17993 274.04807
 276.14917 278.47687 280.60855 282.48035 284.10022 285.53339 286.84094 288.02548
 289.09085 290.03958 290.86835 291.92456
 366.78100 356.33856 345.77412 334.64368 323.05024 311.24780 299.12136 286.92792
 274.64348 262.54404 250.55660 239.86116 229.98672 221.09428 213.27984 206.28540
 200.12296 195.06452 191.65008 189.69564 188.73620 188.80376 189.64233 190.95389
 192.68245 194.78101 197.04757 199.41013 201.85869 204.34225 206.43381 208.27937
 209.90893 211.05749 211.29005 211.52161 211.46217 211.17073 210.80729 210.44085
 210.06141 209.77497 209.58653 209.45409 209.38565 209.72021 210.10977 210.50233
 211.29889 212.48045 213.73401 215.52057 217.45213 219.49869 221.59725 223.68381
 225.74737 227.83493 229.93549 232.04505 234.17761 236.35317 238.61273 240.98629
 243.61085 245.86542 247.87098 249.63954 251.06010 252.18666 253.01222 253.33178
 253.37234 253.14990 252.51346 251.46502 250.07458 248.23914 246.15170 243.98826
 241.78282 239.59038 237.41394 235.25650 233.12006 230.99062 229.02018 227.18074
 225.46730 223.94286 222.57642 221.35198 220.23754 219.20110 218.30866 217.45322
 216.69878 215.88234 214.98390 214.35146 213.80502 214.22214 215.42079 217.67152
 220.08246 221.78430 222.98778 223.87888 224.82159 225.93062 226.92833 226.95375
 227.38927 229.62965 233.51585 238.00479 242.56175 247.00491 251.18668 255.01517
 258.40482 261.47668 264.16312 266.64108 268.88629 270.79111 272.54602 274.16113
 276.18747 278.09164 280.08939 281.86136 283.39484 284.75156 285.98938 287.11078
 288.11932 289.01746 289.80203 290.80188
 366.78100 356.34009 345.77719 334.64828 323.05637 311.25546 299.13056 286.93865
 274.65574 262.55784 250.57193 239.87802 230.00511 221.11421 213.30130 206.30839
 200.14749 195.09058 191.67767 189.72476 188.76686 188.83595 189.67604 190.98913
 192.71923 194.81932 197.08741 199.45151 201.90160 204.38669 206.47978 208.32688
 209.95797 211.10806 211.34216 211.57525 211.51734 211.22743 210.86553 210.50062
 210.12271 209.83781 209.65090 209.51999 209.45308 209.78918 210.18027 210.57436
 211.37246 212.55555 213.81064 215.59873 217.53183 219.57992 221.68001 223.76811
 225.83320 227.92229 230.02438 232.13548 234.26957 236.44666 238.70776 241.08285
 243.70894 245.96503 247.97213 249.74222 251.16431 252.29240 253.11950 253.44059
 253.48268 253.26178 252.62687 251.57996 250.19105 248.35715 246.27124 244.10933
 241.90543 239.71452 237.53961 235.38370 233.24880 231.12089 229.15198 227.31408
 225.60217 224.07926 222.71435 221.49145 220.37854 219.34363 218.45273 217.59882
 216.84591 216.03100 215.13410 214.50319 213.95828 214.31927 215.37907 217.59131
 220.15373 222.02121 223.27893 224.12120 224.96106 225.93323 226.73402 226.53593
 226.99899 229.44038 233.43164 237.96857 242.56453 247.01825 251.21596 255.05424
 258.48520 261.50574 264.25058 266.69833 268.90579 270.79449 272.53046 274.17993
 276.19638 278.05652 279.95483 281.69907 283.20853 284.54404 285.76248 286.86630
 287.85907 288.74313 289.51544 290.49963
 366.78100 356.33833 345.77365 334.64298 323.04931 311.24663 299.11996 286.92629
 274.64162 262.54194 250.55427 239.85860 229.98392 221.09125 213.27658 206.28190
 200.11923 195.06056 191.64588 189.69121 188.73154 188.79887 189.63719 190.94852
 192.67685 194.77517 197.04150 199.40383 201.85215 204.33548 206.42681 208.27213
 209.90146 211.04979 211.28212 211.51344 211.45377 211.16210 210.79842 210.43175
 210.05208 209.76540 209.57673 209.44406 209.37538 209.70971 210.09904 210.49137
 211.28769 212.46902 213.72235 215.50867 217.44000 219.48633 221.58465 223.67098
 225.73431 227.82163 229.92196 232.03129 234.16362 236.33894 238.59827 240.97160
 243.59592 245.85025 247.85558 249.62390 251.04423 252.17056 252.99588 253.31521
 253.35554 253.13287 252.49619 251.44752 250.05685 248.22117 246.13350 243.96983
 241.76415 239.57148 237.39481 235.23713 233.10046 230.97079 229.00012 227.16044
 225.44677 223.92210 222.55542 221.33075 220.21608 219.17940 218.28673 217.43106
 216.67638 215.85971 214.96104 214.32837 213.78169 214.25429 215.49969 217.48463
 220.09372 222.13251 223.55862 224.45900 225.17053 225.97507 226.56451 226.18904
 226.66263 229.24196 233.32623 237.90213 242.53484 247.00873 251.22481 255.08058
 258.53854 261.59821 264.31671 266.80106 268.98972 270.87955 272.59314 274.21204
 276.18579 278.02979 279.81628 281.52942 283.01199 284.32367 285.52039 286.60455
 287.57962 288.44791 289.20645 290.17313
 366.78100 356.33764 345.77227 334.64091 323.04654 311.24318 299.11581 286.92145
 274.63609 262.53572 250.54736 239.85099 229.97563 221.08226 213.26690 206.27154
 200.10817 195.04881 191.63344 189.67808 188.71771 188.78435 189.62199 190.93262
 192.66026 194.75789 197.02353 199.38516 201.83280 204.31544 206.40607 208.25071
 209.87934 211.02698 211.25861 211.48925 211.42889 211.13652 210.77216 210.40479
 210.02443 209.73706 209.54770 209.41434 209.34497 209.67861 210.06724 210.45888
 211.25451 212.43515 213.68779 215.47342 217.40406 219.44969 221.54733 223.63296
 225.69560 227.78224 229.88187 231.99051 234.12214 236.29678 238.55541 240.92805
 243.55168 245.80532 247.80996 249.57759 250.99723 252.12286 252.94750 253.26613
 253.30577 253.08241 252.44504 251.39568 250.00431 248.16795 246.07958 243.91522
 241.70886 239.51549 237.33813 235.17976 233.04240 230.91203 228.94067 227.10031
 225.38594 223.86058 222.49321 221.26785 220.15248 219.11512 218.22176 217.36539
 216.61003 215.79266 214.89330 214.25993 213.71257 214.23561 215.56313 217.45193
 220.06119 222.13860 223.66673 224.64157 225.31393 226.04617 226.48903 226.03255
 226.52086 229.10112 233.21378 237.80751 242.43964 246.91525 251.11281 254.96490
 258.42297 261.53281 264.28558 266.84280 269.08478 271.01462 272.74515 274.38907
 276.17120 277.98352 279.61713 281.24698 282.70657 283.99796 285.17612 286.24347
 287.20343 288.05829 288.80505 289.75674
 366.78100 356.33805 345.77311 334.64216 323.04822 311.24527 299.11833 286.92438
 274.63943 262.53949 250.55154 239.85560 229.98065 221.08771 213.27276 206.27781
 200.11487 195.05592 191.64098 189.68603 188.72609 188.79314 189.63119 190.94225
 192.67030 194.76836 197.03441 199.39646 201.84452 204.32757 206.41863 208.26368
 209.89274 211.04079 211.27284 211.50390 211.44395 211.15201 210.78806 210.42112
 210.04117 209.75422 209.56528 209.43233 209.36339 209.69744 210.08650 210.47855
 211.27460 212.45566 213.70871 215.49477 217.42582 219.47188 221.56993 223.65598
 225.71904 227.80609 229.90615 232.01520 234.14726 236.32231 238.58136 240.95442
 243.57847 245.83253 247.83758 249.60563 251.02569 252.15174 252.97680 253.29585
 253.33591 253.11296 252.47601 251.42707 250.03612 248.20018 246.11223 243.94829
 241.74234 239.54939 237.37245 235.21450 233.07756 230.94761 228.97667 227.13672
 225.42277 223.89783 222.53088 221.30594 220.19099 219.15405 218.26110 217.40515
 216.65021 215.83326 214.93432 214.30137 213.75443 214.26779 215.56531 217.47612
 220.00330 222.12119 223.64484 224.63815 225.36626 226.14755 226.62904 226.00119
 226.42293 228.94731 233.10190 237.72052 242.35280 246.82130 251.01262 254.87003
 258.33990 261.45236 264.26453 266.80853 269.12381 271.13919 272.90384 274.56262
 276.21060 277.96902 279.54849 280.98175 282.36539 283.62180 284.76807 285.80652
 286.74048 287.57217 288.29874 289.22467
 366.78100 356.33644 345.76987 334.63731 323.04175 311.23718 299.10862 286.91306
 274.62650 262.52493 250.53537 239.83781 229.96124 221.06668 213.25012 206.25355
 200.08899 195.02843 191.61187 189.65530 188.69374 188.75918 189.59561 190.90505
 192.63149 194.72792 196.99236 199.35280 201.79924 204.28067 206.37011 208.21355
 209.84098 210.98742 211.21786 211.44729 211.38573 211.09217 210.72660 210.35804
 209.97648 209.68792 209.49735 209.36279 209.29223 209.62466 210.01210 210.40254
 211.19697 212.37641 213.62785 215.41229 217.34172 219.38616 221.48260 223.56703
 225.62847 227.71391 229.81234 231.91978 234.05022 236.22366 238.48109 240.85253
 243.47497 245.72740 247.73084 249.49728 250.91571 252.04015 252.86359 253.18102
 253.21946 252.99490 252.35634 251.30577 249.91321 248.07565 245.98608 243.82052
 241.61296 239.41839 237.23983 235.08027 232.94171 230.81014 228.83758 226.99602
 225.28045 223.75389 222.38533 221.15876 220.04220 219.00364 218.10908 217.25151
 216.49495 215.67639 214.77582 214.14126 213.59270 214.18930 215.64894 217.55521
 219.81293 221.98753 223.55743 224.56773 225.38718 226.25275 226.94040 225.89307
 226.25403 228.74002 232.97952 237.62010 242.25775 246.72475 250.91675 254.77206
 258.26300 261.39941 264.21649 266.77576 269.10541 271.17334 273.00327 274.69833
 276.32983 277.97195 279.52631 280.90555 282.13126 283.26505 284.39008 285.40927
 286.32593 287.14221 287.85532 288.76407
 366.78100 356.33514 345.76729 334.63343 323.03657 311.23072 299.10086 286.90400
 274.61615 262.51329 250.52243 239.82358 229.94572 221.04987 213.23201 206.23415
 200.06830 195.00644 191.58858 189.63073 188.66787 188.73201 189.56716 190.87530
 192.60044 194.69559 196.95873 199.31787 201.76302 204.24316 206.33130 208.17345
 209.79959 210.94473 211.17388 211.40202 211.33917 211.04431 210.67745 210.30760
 209.92474 209.63488 209.44303 209.30717 209.23531 209.56646 209.95260 210.34174
 211.13489 212.31303 213.56317 215.34632 217.27446 219.31760 221.41275 223.49589
 225.55604 227.64018 229.73732 231.84347 233.97261 236.14475 238.40090 240.77104
 243.39218 245.64333 247.64547 249.41061 250.82776 251.95090 252.77304 253.08919
 253.12633 252.90047 252.26062 251.20876 249.81490 247.97605 245.88519 243.71834
 241.50948 239.31362 237.13377 234.97291 232.83305 230.70020 228.72634 226.88348
 225.16663 223.63877 222.26891 221.04106 219.92320 218.88334 217.98749 217.12863
 216.37077 215.55092 214.64906 214.01320 213.46335 214.12465 215.71146 217.68361
 219.80270 221.95341 223.53415 224.54933 225.43889 226.33983 227.06511 225.75389
 226.08783 228.54581 232.87782 237.52560 242.17059 246.63785 250.82916 254.68730
 258.18958 261.33505 264.15448 266.72501 269.06879 271.15689 273.00259 274.73102
 276.40186 278.01532 279.54532 280.91980 282.12668 283.20609 284.20291 285.16962
 286.07382 286.87900 287.58240 288.47879
 366.78100 356.33522 345.76743 334.63365 323.03687 311.23109 299.10130 286.90452
 274.61674 262.51395 250.52317 239.82439 229.94660 221.05082 213.23304 206.23526
 200.06947 195.00769 191.58991 189.63212 188.66934 188.73356 189.56877 190.87699
 192.60221 194.69743 196.96064 199.31986 201.76508 204.24529 206.33351 208.17573
 209.80194 210.94716 211.17638 211.40460 211.34181 211.04703 210.68025 210.31046
 209.92768 209.63790 209.44612 209.31033 209.23855 209.56977 209.95598 210.34520
 211.13842 212.31663 213.56685 215.35007 217.27829 219.32150 221.41672 223.49994
 225.56015 227.64437 229.74159 231.84780 233.97702 236.14924 238.40546 240.77567
 243.39689 245.64811 247.65032 249.41554 250.83276 251.95598 252.77819 253.09441
 253.13163 252.90584 252.26606 251.21428 249.82049 247.98171 245.89093 243.72415
 241.51536 239.31958 237.13980 234.97901 232.83923 230.70645 228.73266 226.88988
 225.17310 223.64532 222.27553 221.04775 219.92997 218.89018 217.99440 217.13562
 216.37783 215.55805 214.65627 214.02049 213.47070 214.13817 215.72821 217.75615
 219.87376 221.99150 223.53618 224.56345 225.47804 226.40573 227.01311 225.72893
 226.04337 228.56755 232.81793 237.46237 242.11998 246.59787 250.80124 254.67235
 258.19873 261.35901 264.16653 266.72800 269.09232 271.21024 273.06647 274.76474
 276.40964 278.00412 279.53702 280.90005 282.08795 283.15598 284.14639 285.03741
 285.90201 286.68939 287.37723 288.25378
 366.78100 356.33566 345.76832 334.63497 323.03863 311.23329 299.10395 286.90760
 274.62026 262.51792 250.52758 239.82923 229.95189 221.05655 213.23921 206.24187
 200.07652 195.01518 191.59784 189.64050 188.67815 188.74281 189.57847 190.88713
 192.61278 194.70844 196.97210 199.33176 201.77742 204.25807 206.34673 208.18939
 209.81605 210.96170 211.19136 211.42002 211.35768 211.06334 210.69699 210.32765
 209.94531 209.65597 209.46462 209.32928 209.25794 209.58960 209.97625 210.36591
 211.15957 212.33823 213.58889 215.37254 217.30120 219.34486 221.44052 223.52417
 225.58483 227.66949 229.76715 231.87380 234.00346 236.17612 238.43278 240.80344
 243.42509 245.67675 247.67941 249.44507 250.86272 251.98638 252.80904 253.12570
 253.16335 252.93801 252.29867 251.24733 249.85399 248.01564 245.92530 243.75896
 241.55062 239.35527 237.17593 235.01559 232.87625 230.74390 228.77056 226.92822
 225.21188 223.68454 222.31519 221.08785 219.97051 218.93117 218.03582 217.17748
 216.42014 215.60080 214.69946 214.06411 213.51477 214.17346 215.73943 217.83453
 219.88882 221.98108 223.56396 224.59361 225.53236 226.47188 226.99049 225.66211
 225.92189 228.50613 232.76079 237.39651 242.05417 246.53752 250.75784 254.65248
 258.21555 261.40646 264.22192 266.77963 269.15143 271.29761 273.17578 274.85574
 276.46899 278.02393 279.52884 280.88333 282.06760 283.13022 284.11691 285.00116
 285.83731 286.61603 287.29626 288.16318
 366.78100 356.33606 345.76913 334.63619 323.04026 311.23532 299.10638 286.91045
 274.62351 262.52158 250.53164 239.83370 229.95677 221.06183 213.24489 206.24796
 200.08302 195.02209 191.60515 189.64821 188.68628 188.75134 189.58741 190.89647
 192.62253 194.71860 196.98266 199.34273 201.78879 204.26985 206.35892 208.20198
 209.82904 210.97511 211.20517 211.43424 211.37230 211.07836 210.71243 210.34349
 209.96156 209.67262 209.48168 209.34675 209.27581 209.60788 209.99494 210.38500
 211.17907 212.35813 213.60919 215.39326 217.32232 219.36639 221.46245 223.54651
 225.60758 227.69264 229.79071 231.89777 234.02783 236.20090 238.45796 240.82903
 243.45109 245.70315 247.70622 249.47228 250.89034 252.01441 252.83747 253.15454
 253.19260 252.96766 252.32873 251.27779 249.88486 248.04692 245.95698 243.79105
 241.58311 239.38818 237.20924 235.04930 232.91037 230.77843 228.80549 226.96356
 225.24762 223.72069 222.35175 221.12481 220.00788 218.96894 218.07401 217.21607
 216.45913 215.64020 214.73926 214.10433 213.55539 214.20511 215.74094 217.92633
 219.93320 221.95415 223.58345 224.62672 225.58315 226.52060 227.00029 225.70337
 225.87286 228.46869 232.69637 237.30368 241.94389 246.42017 250.64934 254.57005
 258.16699 261.39383 264.23715 266.80957 269.19455 271.36926 273.28488 274.97885
 276.57150 278.08585 279.53769 280.88028 282.05859 283.11499 284.08957 284.96631
 285.75598 286.51370 287.18073 288.03076
 366.78100 356.33658 345.77017 334.63775 323.04233 311.23791 299.10950 286.91408
 274.62766 262.52624 250.53683 239.83941 229.96299 221.06857 213.25216 206.25574
 200.09132 195.03090 191.61449 189.65807 188.69665 188.76223 189.59882 190.90840
 192.63498 194.73156 196.99615 199.35673 201.80331 204.28489 206.37448 208.21806
 209.84564 210.99222 211.22281 211.45239 211.39097 211.09755 210.73214 210.36372
 209.98230 209.69388 209.50347 209.36905 209.29863 209.63121 210.01880 210.40938
 211.20396 212.38354 213.63513 215.41971 217.34929 219.39387 221.49046 223.57504
 225.63662 227.72220 229.82079 231.92837 234.05895 236.23253 238.49012 240.86170
 243.48428 245.73687 247.74045 249.50703 250.92561 252.05020 252.87378 253.19136
 253.22994 253.00553 252.36711 251.31669 249.92427 248.08686 245.99744 243.83202
 241.62460 239.43019 237.25177 235.09235 232.95393 230.82252 228.85010 227.00868
 225.29326 223.76685 222.39843 221.17201 220.05559 219.01718 218.12276 217.26534
 216.50892 215.69051 214.79009 214.15567 213.60725 214.24315 215.74551 217.99393
 220.05968 221.94748 223.51990 224.62285 225.62328 226.57845 227.03792 225.82367
 225.87463 228.44995 232.63565 237.22116 241.82782 246.28697 250.51872 254.45993
 258.08072 261.33716 264.21313 266.80405 269.20477 271.40067 273.33679 275.05023
 276.64621 278.14792 279.54590 280.87106 282.04395 283.09433 284.06284 284.93088
 285.70291 286.40555 287.06064 287.89899
 366.78100 356.33703 345.77107 334.63910 323.04413 311.24017 299.11220 286.91723
 274.63127 262.53030 250.54133 239.84436 229.96840 221.07443 213.25846 206.26250
 200.09853 195.03856 191.62260 189.66663 188.70566 188.77170 189.60873 190.91876
 192.64580 194.74283 197.00786 199.36889 201.81593 204.29796 206.38799 208.23203
 209.86006 211.00709 211.23813 211.46816 211.40719 211.11423 210.74926 210.38129
 210.00033 209.71236 209.52239 209.38842 209.31846 209.65149 210.03952 210.43056
 211.22559 212.40562 213.65766 215.44269 217.37272 219.41776 221.51479 223.59982
 225.66186 227.74789 229.84692 231.95495 234.08599 236.26002 238.51805 240.89009
 243.51312 245.76615 247.77019 249.53722 250.95625 252.08129 252.90532 253.22335
 253.26239 253.03842 252.40045 251.35048 249.95852 248.12155 246.03258 243.86762
 241.66065 239.46668 237.28872 235.12975 232.99178 230.86082 228.88885 227.04788
 225.33292 223.80695 222.43898 221.21302 220.09705 219.05908 218.16511 217.30815
 216.55218 215.73421 214.83425 214.20028 213.65231 214.27979 215.76224 218.03621
 220.15811 221.96255 223.41359 224.55975 225.66499 226.66620 227.09172 225.94110
 225.87381 228.42038 232.58875 237.14275 241.72041 246.17026 250.40587 254.36398
 258.00269 261.27890 264.18134 266.79529 269.20801 271.41074 273.33286 275.03894
 276.65955 278.17633 279.55240 280.85013 282.02066 283.06985 284.03619 284.89285
 285.61884 286.29715 286.91025 287.71854
 366.78100 356.33794 345.77289 334.64183 323.04777 311.24472 299.11766 286.92360
 274.63855 262.53849 250.55043 239.85438 229.97932 221.08627 213.27121 206.27615
 200.11310 195.05404 191.63898 189.68393 188.72387 188.79081 189.62876 190.93970
 192.66764 194.76559 197.03153 199.39347 201.84142 204.32436 206.41530 208.26025
 209.88919 211.03713 211.26908 211.50002 211.43996 211.14791 210.78385 210.41680
 210.03674 209.74968 209.56063 209.42757 209.35851 209.69246 210.08140 210.47334
 211.26929 212.45023 213.70317 215.48912 217.42006 219.46600 221.56395 223.64989
 225.71283 227.79978 229.89972 232.00866 234.14061 236.31555 238.57450 240.94744
 243.57138 245.82533 247.83027 249.59821 251.01816 252.14410 252.96904 253.28799
 253.32793 253.10487 252.46782 251.41876 250.02770 248.19165 246.10359 243.93953
 241.73348 239.54042 237.36336 235.20531 233.06825 230.93820 228.96714 227.12708
 225.41303 223.88797 222.52091 221.29586 220.18080 219.14374 218.25069 217.39463
 216.63957 215.82252 214.92346 214.29040 213.74335 214.33965 215.74847 218.10010
 220.23274 221.93021 223.32518 224.48235 225.64812 226.70175 227.18529 226.12112
 225.97592 228.41559 232.54013 237.08394 241.62782 246.04645 250.27107 254.23344
 257.88107 261.17572 264.11426 266.76498 269.20584 271.43222 273.36859 275.07199
 276.67825 278.18115 279.54709 280.82886 281.99677 283.04547 284.01886 284.88480
 285.51370 286.19193 286.79956 287.62338
 366.78100 356.33922 345.77544 334.64566 323.05288 311.25109 299.12531 286.93253
 274.64875 262.54997 250.56319 239.86841 229.99463 221.10285 213.28907 206.29528
 200.13350 195.07572 191.66194 189.70816 188.74938 188.81760 189.65682 190.96904
 192.69825 194.79747 197.06469 199.42791 201.87713 204.36135 206.45357 208.29979
 209.93001 211.07923 211.31244 211.54466 211.48588 211.19510 210.83232 210.46654
 210.08776 209.80198 209.61420 209.48242 209.41463 209.74985 210.14007 210.53329
 211.33051 212.51273 213.76695 215.55417 217.48639 219.53360 221.63282 223.72004
 225.78426 227.87248 229.97370 232.08392 234.21714 236.39336 238.65358 241.02779
 243.65301 245.90823 247.91445 249.68367 251.10489 252.23211 253.05833 253.37855
 253.41976 253.19798 252.56220 251.51442 250.12464 248.28986 246.20308 244.04030
 241.83552 239.64374 237.46795 235.31117 233.17539 231.04661 229.07683 227.23805
 225.52527 224.00149 222.63571 221.41192 220.29814 219.26236 218.37058 217.51580
 216.76202 215.94624 215.04846 214.41668 213.87090 214.42226 215.72491 218.11000
 220.36971 221.99103 223.23485 224.27444 225.42935 226.66298 227.32797 226.41766
 226.16983 228.45128 232.55449 237.03345 241.52177 245.92007 250.14708 254.12102
 257.78534 261.08215 264.01288 266.66025 269.12292 271.37036 273.26889 274.95773
 276.62875 278.19669 279.58392 280.83914 282.00241 283.05020 284.01227 284.87552
 285.60806 286.25861 286.85910 287.65704
 366.78100 356.34082 345.77863 334.65045 323.05926 311.25908 299.13490 286.94371
 274.66153 262.56435 250.57916 239.88598 230.01379 221.12361 213.31143 206.31924
 200.15906 195.10288 191.69069 189.73851 188.78132 188.85114 189.69196 191.00577
 192.73659 194.83741 197.10622 199.47104 201.92185 204.40767 206.50149 208.34930
 209.98112 211.13194 211.36675 211.60057 211.54338 211.25420 210.89302 210.52883
 210.15165 209.86747 209.68128 209.55110 209.48491 209.82173 210.21355 210.60836
 211.40718 212.59100 213.84681 215.63563 217.56944 219.61826 221.71908 223.80789
 225.87371 227.96353 230.06634 232.17816 234.31297 236.49079 238.75261 241.12842
 243.75524 246.01206 248.01987 249.79069 251.21350 252.34232 253.17014 253.49195
 253.53477 253.31459 252.68040 251.63422 250.24603 248.41285 246.32767 244.16648
 241.96330 239.77312 237.59893 235.44375 233.30956 231.18238 229.21420 227.37701
 225.66583 224.14365 222.77946 221.55728 220.44509 219.41091 218.52073 217.66754
 216.91536 216.10118 215.20499 214.57481 214.03062 214.53230 215.74519 218.02827
 220.43414 221.87924 223.04948 224.13356 225.30727 226.58401 227.33575 226.75768
 226.14235 228.30367 232.45461 237.02116 241.52699 245.91982 250.16119 254.16245
 257.85489 261.18008 264.10953 266.70386 269.06705 271.21320 273.07376 274.74240
 276.36780 277.92221 279.37555 280.72888 281.91238 282.96768 283.93890 284.84445
 285.69095 286.44476 287.10327 287.94244
 366.78100 356.34115 345.77929 334.65144 323.06059 311.26073 299.13688 286.94603
 274.66417 262.56732 250.58246 239.88961 230.01776 221.12790 213.31605 206.32420
 200.16434 195.10849 191.69664 189.74478 188.78793 188.85808 189.69922 191.01337
 192.74451 194.84566 197.11481 199.47995 201.93110 204.41725 206.51139 208.35954
 209.99169 211.14283 211.37798 211.61213 211.55527 211.26642 210.90556 210.54171
 210.16486 209.88100 209.69515 209.56530 209.49944 209.83659 210.22874 210.62388
 211.42303 212.60718 213.86332 215.65247 217.58662 219.63576 221.73691 223.82605
 225.89220 227.98235 230.08549 232.19764 234.33279 236.51093 238.77308 241.14923
 243.77637 246.03352 248.04167 249.81281 251.23596 252.36510 253.19325 253.51540
 253.55854 253.33869 252.70484 251.65898 250.27113 248.43828 246.35342 244.19257
 241.98972 239.79986 237.62601 235.47115 233.33730 231.21045 229.24259 227.40574
 225.69489 224.17303 222.80918 221.58733 220.47547 219.44162 218.55177 217.69891
 216.94706 216.13321 215.23735 214.60750 214.06364 214.58778 215.91959 217.94934
 220.32141 221.94731 223.23578 224.33171 225.42303 226.45633 226.97107 226.68245
 226.31447 228.49707 232.48363 237.02863 241.57176 246.01137 250.30437 254.36354
 258.11453 261.48804 264.45709 267.04996 269.34879 271.35910 273.08334 274.68845
 276.29636 277.90594 279.44931 280.85031 282.19415 283.42694 284.55167 285.57059
 286.48700 287.30307 288.01596 288.92450
 366.78100 356.33981 345.77662 334.64742 323.05523 311.25404 299.12885 286.93665
 274.65346 262.55527 250.56908 239.87489 230.00169 221.11050 213.29731 206.30412
 200.14292 195.08573 191.67254 189.71935 188.76116 188.82996 189.66977 190.98258
 192.71239 194.81219 197.08000 199.44381 201.89362 204.37843 206.47123 208.31804
 209.94885 211.09866 211.33246 211.56527 211.50708 211.21689 210.85470 210.48950
 210.11131 209.82612 209.63893 209.50773 209.44054 209.77635 210.16716 210.56097
 211.35877 212.54158 213.79639 215.58420 217.51701 219.56481 221.66462 223.75243
 225.81724 227.90604 230.00785 232.11866 234.25247 236.42928 238.69008 241.06489
 243.69070 245.94651 247.95331 249.72312 251.14493 252.27274 253.09955 253.42035
 253.46216 253.24097 252.60578 251.55858 250.16939 248.33520 246.24901 244.08682
 241.88262 239.69143 237.51624 235.36005 233.22485 231.09666 229.12747 227.28928
 225.57709 224.05389 222.68870 221.46551 220.35232 219.31712 218.42593 217.57174
 216.81855 216.00336 215.10616 214.47497 213.92978 214.53256 216.03178 218.00218
 220.03508 221.97589 223.39703 224.35530 225.37045 226.44214 227.14091 226.55972
 226.17845 228.34779 232.39661 236.95291 241.45438 245.89163 250.22485 254.34857
 258.19809 261.71069 264.83102 267.55020 269.96271 272.13773 273.92493 275.35614
 276.69501 278.05307 279.55844 280.94852 282.24323 283.48166 284.61154 285.63516
 286.55576 287.37558 288.09174 289.00443
 366.78100 356.34022 345.77743 334.64865 323.05687 311.25609 299.13130 286.93952
 274.65674 262.55895 250.57317 239.87939 230.00660 221.11582 213.30304 206.31026
 200.14947 195.09269 191.67991 189.72712 188.76934 188.83856 189.67877 190.99199
 192.72221 194.82243 197.09064 199.45486 201.90508 204.39029 206.48351 208.33073
 209.96194 211.11216 211.34638 211.57960 211.52181 211.23203 210.87025 210.50546
 210.12768 209.84290 209.65612 209.52533 209.45855 209.79477 210.18598 210.58020
 211.37842 212.56163 213.81685 215.60507 217.53829 219.58650 221.68672 223.77494
 225.84015 227.92937 230.03159 232.14280 234.27702 236.45424 238.71546 241.09067
 243.71689 245.97311 247.98032 249.75054 251.17276 252.30098 253.12819 253.44941
 253.49163 253.27084 252.63606 251.58928 250.20049 248.36671 246.28093 244.11915
 241.91536 239.72458 237.54980 235.39401 233.25923 231.13145 229.16266 227.32488
 225.61310 224.09032 222.72553 221.50275 220.38997 219.35518 218.46440 217.61062
 216.85783 216.04305 215.14627 214.51549 213.97070 214.54622 215.91899 218.18976
 220.08350 221.86287 223.36783 224.29819 225.25655 226.34009 227.34271 226.54019
 226.41530 228.37598 232.33208 236.87115 241.25792 245.61885 249.89279 253.95343
 257.74936 261.26712 264.48767 267.39404 270.00729 272.34317 274.37085 276.07965
 277.51328 278.73563 279.87244 280.99756 282.11838 283.15842 284.11246 284.98636
 285.79846 286.53482 287.17810 287.99789
 366.78100 356.34169 345.78038 334.65306 323.06275 311.26344 299.14013 286.94982
 274.66851 262.57219 250.58788 239.89557 230.02426 221.13495 213.32364 206.33232
 200.17301 195.11770 191.70639 189.75508 188.79877 188.86945 189.71114 191.02583
 192.75752 194.85921 197.12890 199.49458 201.94627 204.43296 206.52765 208.37634
 210.00903 211.16071 211.39640 211.63109 211.57478 211.28647 210.92615 210.56284
 210.18653 209.90322 209.71791 209.58860 209.52328 209.86097 210.25366 210.64935
 211.44904 212.63373 213.89041 215.68010 217.61479 219.66448 221.76617 223.85586
 225.92254 228.01323 230.11692 232.22961 234.36530 236.54399 238.80667 241.18336
 243.81105 246.06874 248.07743 249.84912 251.27280 252.40249 253.23118 253.55387
 253.59756 253.37824 252.74493 251.69962 250.31231 248.48000 246.39569 244.23537
 242.03306 239.84375 237.67044 235.51613 233.38282 231.25650 229.28919 227.45288
 225.74257 224.22126 222.85795 221.63663 220.52532 219.49201 218.60270 217.75039
 216.99908 216.18576 215.29045 214.66114 214.11783 214.63058 215.84201 218.21715
 220.38071 221.95883 223.26004 224.22180 225.19177 226.29973 227.31146 226.68672
 226.52914 228.50726 232.35852 236.90402 241.27504 245.58321 249.84024 253.88773
 257.64746 261.08719 264.20462 267.03220 269.63016 271.97031 273.98862 275.75302
 277.33603 278.71744 279.93686 281.05624 282.11865 283.14600 284.09555 284.96472
 285.75702 286.47186 287.09079 287.91821
 366.78100 356.34215 345.78130 334.65445 323.06460 311.26575 299.14289 286.95304
 274.67219 262.57634 250.59249 239.90064 230.02979 221.14094 213.33009 206.33924
 200.18039 195.12553 191.71468 189.76383 188.80798 188.87913 189.72128 191.03643
 192.76858 194.87073 197.14088 199.50703 201.95917 204.44632 206.54147 208.39062
 210.02377 211.17592 211.41207 211.64722 211.59137 211.30352 210.94367 210.58081
 210.20496 209.92211 209.73726 209.60841 209.54356 209.88171 210.27486 210.67101
 211.47116 212.65631 213.91345 215.70360 217.63875 219.68890 221.79105 223.88120
 225.94835 228.03950 230.14365 232.25680 234.39295 236.57210 238.83524 241.21239
 243.84054 246.09869 248.10784 249.87999 251.30414 252.43429 253.26344 253.58659
 253.63074 253.41188 252.77903 251.73418 250.34733 248.51548 246.43163 244.27178
 242.06993 239.88108 237.70823 235.55438 233.42152 231.29567 229.32882 227.49297
 225.78312 224.26227 222.89942 221.67857 220.56772 219.53487 218.64602 217.79416
 217.04331 216.23046 215.33561 214.70676 214.16391 214.66856 215.86086 218.17023
 220.47122 222.00380 223.16682 224.09428 225.07909 226.25734 227.31749 226.76674
 226.56396 228.49660 232.36156 236.94920 241.32642 245.62639 249.88356 253.95113
 257.72791 261.16357 264.24341 266.99738 269.53564 271.83588 273.75711 275.44266
 277.04352 278.49091 279.78098 280.96164 282.09546 283.13629 284.09149 284.96451
 285.76459 286.49283 287.10934 287.92636
 366.78100 356.34166 345.78032 334.65298 323.06264 311.26330 299.13996 286.94962
 274.66828 262.57194 250.58759 239.89525 230.02391 221.13457 213.32323 206.33189
 200.17255 195.11721 191.70587 189.75453 188.79819 188.86885 189.71051 191.02517
 192.75683 194.85849 197.12815 199.49381 201.94546 204.43212 206.52678 208.37544
 210.00810 211.15976 211.39542 211.63008 211.57374 211.28540 210.92506 210.56172
 210.18538 209.90204 209.71670 209.58736 209.52202 209.85968 210.25233 210.64799
 211.44765 212.63231 213.88897 215.67863 217.61329 219.66295 221.76461 223.85427
 225.92093 228.01159 230.11525 232.22791 234.36357 236.54223 238.80489 241.18155
 243.80920 246.06686 248.07552 249.84718 251.27084 252.40050 253.22916 253.55182
 253.59548 253.37614 252.74280 251.69746 250.31012 248.47778 246.39344 244.23310
 242.03076 239.84142 237.66807 235.51373 233.38039 231.25405 229.28671 227.45037
 225.74003 224.21869 222.85535 221.63401 220.52267 219.48933 218.59999 217.74765
 216.99631 216.18297 215.28763 214.65829 214.11494 214.65247 215.92239 218.17812
 220.45990 222.01729 223.13435 224.00978 224.95615 226.18262 227.31525 226.84344
 226.62059 228.48997 232.35623 236.96655 241.33798 245.61200 249.87660 253.95662
 257.74173 261.18384 264.26736 267.00693 269.54169 271.85486 273.72659 275.34171
 276.92526 278.39395 279.71216 280.92886 282.08835 283.13510 284.09402 284.97192
 285.77475 286.50232 287.12231 287.94162
 366.78100 356.34168 345.78035 334.65303 323.06271 311.26338 299.14006 286.94974
 274.66841 262.57209 250.58777 239.89544 230.02412 221.13480 213.32347 206.33215
 200.17283 195.11750 191.70618 189.75486 188.79853 188.86921 189.71089 191.02556
 192.75724 194.85892 197.12859 199.49427 201.94595 204.43262 206.52730 208.37598
 210.00865 211.16033 211.39601 211.63068 211.57436 211.28604 210.92571 210.56239
 210.18607 209.90274 209.71742 209.58810 209.52277 209.86045 210.25313 210.64880
 211.44848 212.63316 213.88983 215.67951 217.61419 219.66386 221.76554 223.85522
 225.92189 228.01257 230.11625 232.22892 234.36460 236.54328 238.80595 241.18263
 243.81031 246.06798 248.07666 249.84834 251.27201 252.40169 253.23037 253.55304
 253.59672 253.37740 252.74407 251.69875 250.31143 248.47910 246.39478 244.23446
 242.03213 239.84281 237.66949 235.51517 233.38184 231.25552 229.28820 227.45187
 225.74155 224.22023 222.85690 221.63558 220.52426 219.49093 218.60161 217.74929
 216.99796 216.18464 215.28932 214.65999 214.11667 214.66180 215.94972 218.19966
 220.45744 222.03911 223.13368 223.94182 224.80692 226.05176 227.28502 226.94128
 226.71257 228.50284 232.35944 236.98605 241.35480 245.61263 249.86728 253.94319
 257.72107 261.15851 264.24185 266.98264 269.53485 271.87311 273.72812 275.30396
 276.87100 278.34900 279.67581 280.92325 282.09036 283.13925 284.09976 284.97992
 285.78384 286.51044 287.13501 287.95563
 366.78100 356.34235 345.78170 334.65505 323.06540 311.26675 299.14410 286.95445
 274.67381 262.57816 250.59451 239.90286 230.03221 221.14356 213.33291 206.34226
 200.18361 195.12896 191.71831 189.76766 188.81201 188.88336 189.72571 191.04107
 192.77342 194.87577 197.14612 199.51247 201.96482 204.45217 206.54752 208.39687
 210.03022 211.18257 211.41892 211.65427 211.59862 211.31097 210.95133 210.58868
 210.21303 209.93038 209.74573 209.61708 209.55243 209.89078 210.28413 210.68048
 211.48083 212.66618 213.92353 215.71388 217.64923 219.69959 221.80194 223.89229
 225.95964 228.05099 230.15534 232.26869 234.40504 236.58439 238.84774 241.22509
 243.85344 246.11179 248.12114 249.89349 251.31785 252.44820 253.27755 253.60090
 253.64525 253.42660 252.79395 251.74930 250.36265 248.53100 246.44735 244.28770
 242.08605 239.89740 237.72475 235.57111 233.43846 231.31281 229.34616 227.51051
 225.80086 224.28021 222.91756 221.69691 220.58626 219.55361 218.66496 217.81331
 217.06266 216.25001 215.35537 214.72672 214.18407 214.70863 215.94794 218.18973
 220.49332 222.09688 223.14922 223.86240 224.63428 225.86307 227.18919 227.02434
 226.83527 228.54691 232.37910 237.02995 241.41064 245.64790 249.88966 253.95572
 257.71750 261.13806 264.20999 266.94849 269.51590 271.86569 273.70993 275.27014
 276.83331 278.31720 279.64963 280.92438 282.09579 283.14554 284.10812 284.98868
 285.79645 286.52322 287.14987 287.97433
 366.78100 356.34289 345.78279 334.65668 323.06758 311.26947 299.14736 286.95826
 274.67815 262.58304 250.59994 239.90883 230.03873 221.15062 213.34051 206.35041
 200.19230 195.13820 191.72809 189.77798 188.82288 188.89477 189.73767 191.05356
 192.78645 194.88935 197.16024 199.52713 201.98003 204.46792 206.56382 208.41371
 210.04760 211.20050 211.43739 211.67329 211.61818 211.33107 210.97197 210.60986
 210.23476 209.95265 209.76854 209.64044 209.57633 209.91522 210.30912 210.70601
 211.50691 212.69280 213.95069 215.74159 217.67748 219.72838 221.83127 223.92216
 225.99006 228.08195 230.18685 232.30074 234.43763 236.61753 238.88142 241.25931
 243.88821 246.14710 248.15700 249.92989 251.35478 252.48568 253.31557 253.63947
 253.68436 253.46625 252.83415 251.79004 250.40393 248.57283 246.48972 244.33062
 242.12951 239.94140 237.76930 235.61619 233.48409 231.35898 229.39287 227.55777
 225.84866 224.32856 222.96645 221.74634 220.63624 219.60413 218.71602 217.86492
 217.11481 216.30271 215.40860 214.78049 214.23839 214.74988 215.95831 218.16467
 220.50813 222.15880 223.20253 223.80888 224.45462 225.64442 227.05991 227.06415
 226.92714 228.59308 232.41290 237.08888 241.49911 245.71504 249.94128 253.98965
 257.72473 261.12015 264.17511 266.91037 269.48865 271.83817 273.67050 275.22809
 276.79846 278.28952 279.62747 280.92996 282.10611 283.15628 284.11978 285.00400
 285.80917 286.54132 287.16821 287.99896
 366.78100 356.34303 345.78305 334.65708 323.06810 311.27013 299.14816 286.95918
 274.67921 262.58423 250.60126 239.91028 230.04031 221.15234 213.34236 206.35239
 200.19441 195.14044 191.73047 189.78049 188.82552 188.89754 189.74057 191.05659
 192.78962 194.89265 197.16367 199.53070 201.98372 204.47175 206.56778 208.41780
 210.05183 211.20485 211.44188 211.67791 211.62293 211.33596 210.97698 210.61501
 210.24003 209.95806 209.77409 209.64611 209.58214 209.92116 210.31519 210.71222
 211.51324 212.69927 213.95729 215.74832 217.68435 219.73537 221.83840 223.92942
 225.99745 228.08947 230.19450 232.30853 234.44555 236.62558 238.88960 241.26763
 243.89666 246.15568 248.16571 249.93873 251.36376 252.49478 253.32481 253.64884
 253.69386 253.47589 252.84391 251.79994 250.41397 248.58299 246.50002 244.34104
 242.14007 239.95210 237.78012 235.62715 233.49517 231.37020 229.40422 227.56925
 225.86028 224.34030 222.97833 221.75835 220.64838 219.61641 218.72843 217.87746
 217.12748 216.31551 215.42154 214.79356 214.25159 214.76854 215.98990 218.15160
 220.48482 222.19179 223.25706 223.79419 224.33882 225.42676 226.87254 227.07436
 227.03613 228.66196 232.45221 237.14600 241.58194 245.80200 250.00427 254.03114
 257.73630 261.10449 264.14273 266.87634 269.46265 271.80991 273.63065 275.18823
 276.76740 278.26443 279.61002 280.93869 282.11874 283.17068 284.13638 285.02026
 285.82980 286.56021 287.19586 288.02780
 366.78100 356.34302 345.78304 334.65706 323.06808 311.27010 299.14811 286.95913
 274.67915 262.58417 250.60119 239.91021 230.04023 221.15225 213.34227 206.35229
 200.19431 195.14033 191.73034 189.78036 188.82538 188.89740 189.74042 191.05644
 192.78946 194.89248 197.16350 199.53052 201.98354 204.47156 206.56757 208.41759
 210.05161 211.20463 211.44165 211.67767 211.62269 211.33571 210.97673 210.61475
 210.23977 209.95779 209.77380 209.64582 209.58184 209.92086 210.31488 210.71190
 211.51292 212.69894 213.95696 215.74798 217.68400 219.73502 221.83803 223.92905
 225.99707 228.08909 230.19411 232.30813 234.44515 236.62517 238.88919 241.26721
 243.89623 246.15525 248.16526 249.93828 251.36330 252.49432 253.32434 253.64836
 253.69338 253.47540 252.84342 251.79944 250.41346 248.58247 246.49949 244.34051
 242.13953 239.95155 237.77957 235.62659 233.49461 231.36963 229.40365 227.56867
 225.85969 224.33970 222.97772 221.75774 220.64776 219.61578 218.72780 217.87682
 217.12684 216.31486 215.42088 214.79290 214.25092 214.77945 216.02820 218.14510
 220.45148 222.21597 223.31000 223.76239 224.19673 225.24570 226.72792 227.05847
 227.08121 228.68968 232.49368 237.21707 241.68011 245.90129 250.09024 254.08498
 257.75635 261.09622 264.11612 266.84796 269.44000 271.78445 273.59372 275.14902
 276.73715 278.23953 279.60565 280.94623 282.13211 283.18561 284.15347 285.03854
 285.84821 286.58133 287.22302 288.05682
 366.78100 356.34310 345.78321 334.65731 323.06842 311.27052 299.14863 286.95973
 274.67984 262.58494 250.60205 239.91115 230.04126 221.15336 213.34347 206.35357
 200.19568 195.14178 191.73189 189.78199 188.82710 188.89920 189.74231 191.05841
 192.79152 194.89462 197.16573 199.53283 201.98594 204.47404 206.57015 208.42025
 210.05436 211.20746 211.44457 211.68067 211.62578 211.33888 210.97999 210.61809
 210.24320 209.96130 209.77741 209.64951 209.58562 209.92472 210.31883 210.71593
 211.51704 212.70314 213.96125 215.75235 217.68846 219.73956 221.84267 223.93377
 226.00187 228.09398 230.19908 232.31319 234.45029 236.63040 238.89450 241.27261
 243.90171 246.16082 248.17092 249.94403 251.36913 252.50024 253.33034 253.65445
 253.69955 253.48166 252.84976 251.80587 250.41997 248.58908 246.50618 244.34729
 242.14639 239.95850 237.78660 235.63371 233.50181 231.37692 229.41102 227.57613
 225.86723 224.34734 222.98544 221.76555 220.65565 219.62376 218.73586 217.88497
 217.13507 216.32318 215.42928 214.80139 214.25949 214.79616 216.06407 218.13258
 220.42198 222.24196 223.36555 223.76326 224.08244 224.95419 226.48657 227.04051
 227.18886 228.81119 232.57248 237.29366 241.78770 246.02893 250.18417 254.13983
 257.77637 261.08484 264.08517 266.81506 269.41119 271.75052 273.54922 275.10458
 276.70218 278.21075 279.60507 280.95499 282.14130 283.19904 284.16855 285.05743
 285.86536 286.60095 287.24179 288.08450
 366.78100 356.34330 345.78361 334.65791 323.06922 311.27152 299.14982 286.96113
 274.68143 262.58674 250.60404 239.91334 230.04365 221.15595 213.34626 206.35656
 200.19886 195.14517 191.73547 189.78578 188.83108 188.90338 189.74669 191.06299
 192.79630 194.89960 197.17090 199.53821 201.99151 204.47982 206.57612 208.42643
 210.06073 211.21403 211.45134 211.68764 211.63295 211.34625 210.98755 210.62586
 210.25116 209.96947 209.78577 209.65807 209.59438 209.93368 210.32799 210.72529
 211.52659 212.71290 213.97120 215.76251 217.69881 219.75011 221.85342 223.94472
 226.01303 228.10533 230.21063 232.32494 234.46224 236.64255 238.90685 241.28515
 243.91446 246.17376 248.18407 249.95737 251.38267 252.51398 253.34428 253.66859
 253.71389 253.49619 252.86450 251.82080 250.43511 248.60441 246.52171 244.36302
 242.16232 239.97463 237.80293 235.65024 233.51854 231.39384 229.42815 227.59345
 225.88476 224.36506 223.00336 221.78367 220.67397 219.64228 218.75458 217.90388
 217.15419 216.34249 215.44880 214.82110 214.27940 214.82004 216.09737 218.11349
 220.39485 222.26414 223.41653 223.77477 223.98398 224.66042 226.21454 226.99377
 227.30540 228.96486 232.66670 237.37332 241.90053 246.15047 250.28008 254.20030
 257.79895 261.07294 264.05084 266.77914 269.37808 271.70856 273.49829 275.05746
 276.66617 278.18613 279.60846 280.96268 282.15109 283.21066 284.18173 285.07007
 285.88126 286.61533 287.25876 288.10269
 366.78100 356.34352 345.78405 334.65857 323.07010 311.27262 299.15115 286.96267
 274.68320 262.58872 250.60625 239.91577 230.04629 221.15882 213.34934 206.35987
 200.20239 195.14892 191.73944 189.78997 188.83549 188.90802 189.75154 191.06806
 192.80159 194.90511 197.17664 199.54416 201.99769 204.48621 206.58274 208.43326
 210.06778 211.22131 211.45883 211.69536 211.64088 211.35441 210.99593 210.63446
 210.25998 209.97851 209.79503 209.66755 209.60408 209.94360 210.33813 210.73565
 211.53718 212.72370 213.98223 215.77375 217.71028 219.76180 221.86532 223.95685
 226.02537 228.11790 230.22342 232.33795 234.47547 236.65600 238.92052 241.29905
 243.92857 246.18809 248.19862 249.97214 251.39767 252.52919 253.35972 253.68424
 253.72977 253.51229 252.88081 251.83734 250.45186 248.62139 246.53891 244.38044
 242.17996 239.99249 237.82101 235.66854 233.53706 231.41258 229.44711 227.61263
 225.90416 224.38468 223.02321 221.80373 220.69426 219.66278 218.77531 217.92483
 217.17535 216.36388 215.47040 214.84293 214.30145 214.84602 216.13263 218.09296
 220.36247 222.27823 223.46136 223.78519 223.89117 224.40013 225.94714 226.91048
 227.39601 229.11852 232.76288 237.45784 242.02168 246.27576 250.38428 254.26846
 257.82596 261.06262 264.01883 266.74405 269.34296 271.66187 273.44446 275.00909
 276.63123 278.16656 279.60925 280.96835 282.16055 283.22067 284.19345 285.08640
 285.89722 286.63370 287.27692 288.14117
 366.78100 356.34369 345.78438 334.65907 323.07077 311.27346 299.15215 286.96384
 274.68453 262.59022 250.60791 239.91760 230.04830 221.16099 213.35168 206.36237
 200.20506 195.15175 191.74244 189.79313 188.83883 188.91152 189.75521 191.07190
 192.80559 194.90928 197.18097 199.54867 202.00236 204.49105 206.58774 208.43843
 210.07312 211.22681 211.46450 211.70120 211.64689 211.36058 211.00227 210.64096
 210.26665 209.98534 209.80203 209.67473 209.61142 209.95111 210.34580 210.74349
 211.54518 212.73187 213.99057 215.78226 217.71895 219.77064 221.87433 223.96602
 226.03471 228.12740 230.23310 232.34779 234.48548 236.66617 238.93086 241.30955
 243.93924 246.19893 248.20963 249.98332 251.40901 252.54070 253.37139 253.69608
 253.74177 253.52447 252.89316 251.84985 250.46454 248.63423 246.55192 244.39361
 242.19330 240.00600 237.83469 235.68238 233.55107 231.42676 229.46145 227.62714
 225.91883 224.39953 223.03822 221.81891 220.70960 219.67829 218.79098 217.94067
 217.19137 216.38006 215.48675 214.85944 214.31813 214.86914 216.17097 218.07767
 220.31868 222.28113 223.50389 223.79518 223.80403 224.17523 225.69016 226.79060
 227.45212 229.26219 232.86603 237.54715 242.14587 246.40488 250.49284 254.34241
 257.86035 261.05942 263.99295 266.71454 269.31006 271.61731 273.39331 274.96539
 276.59918 278.11432 279.62350 280.98782 282.17703 283.23691 284.20889 285.09891
 285.91022 286.64563 287.28958 288.15347
 366.78100 356.34379 345.78459 334.65938 323.07118 311.27397 299.15276 286.96456
 274.68535 262.59114 250.60894 239.91873 230.04953 221.16232 213.35311 206.36391
 200.20670 195.15350 191.74429 189.79508 188.84088 188.91367 189.75746 191.07426
 192.80805 194.91185 197.18364 199.55143 202.00523 204.49402 206.59082 208.44161
 210.07640 211.23020 211.46799 211.70478 211.65058 211.36437 211.00617 210.64496
 210.27075 209.98955 209.80634 209.67914 209.61593 209.95572 210.35052 210.74831
 211.55010 212.73690 213.99569 215.78749 217.72428 219.77607 221.87987 223.97166
 226.04046 228.13325 230.23904 232.35384 234.49163 236.67242 238.93722 241.31601
 243.94581 246.20560 248.21639 249.99019 251.41598 252.54778 253.37857 253.70336
 253.74916 253.53195 252.90074 251.85754 250.47233 248.64213 246.55992 244.40171
 242.20151 240.01430 237.84310 235.69089 233.55968 231.43548 229.47027 227.63606
 225.92786 224.40865 223.04745 221.82824 220.71903 219.68783 218.80062 217.95042
 217.20121 216.39000 215.49680 214.86959 214.32838 214.88834 216.21129 218.06897
 220.26762 222.26883 223.53899 223.80264 223.72691 223.98767 225.44684 226.63538
 227.47188 229.39680 232.97647 237.64113 242.26593 246.53893 250.60817 254.42250
 257.90186 261.06418 263.97552 266.69116 269.28104 271.57471 273.34470 274.92557
 276.56909 278.09393 279.62140 280.99341 282.18506 283.24722 284.21921 285.11002
 285.91861 286.64923 287.29303 288.15869
 366.78100 356.34390 345.78480 334.65970 323.07160 311.27450 299.15340 286.96530
 274.68620 262.59210 250.61001 239.91991 230.05081 221.16371 213.35461 206.36551
 200.20841 195.15531 191.74621 189.79711 188.84301 188.91591 189.75981 191.07671
 192.81061 194.91451 197.18641 199.55431 202.00821 204.49711 206.59402 208.44492
 210.07982 211.23372 211.47162 211.70852 211.65442 211.36832 211.01022 210.64912
 210.27502 209.99392 209.81082 209.68372 209.62062 209.96052 210.35542 210.75332
 211.55522 212.74212 214.00103 215.79293 217.72983 219.78173 221.88563 223.97753
 226.04643 228.13933 230.24523 232.36013 234.49803 236.67893 238.94383 241.32273
 243.95263 246.21253 248.22343 249.99733 251.42323 252.55513 253.38604 253.71094
 253.75684 253.53974 252.90864 251.86554 250.48044 248.65034 246.56824 244.41014
 242.21004 240.02294 237.85184 235.69974 233.56864 231.44454 229.47944 227.64534
 225.93724 224.41814 223.05705 221.83795 220.72885 219.69775 218.81065 217.96055
 217.21145 216.40035 215.50725 214.88015 214.33905 214.90770 216.25117 218.06354
 220.21700 222.24408 223.55931 223.79715 223.65302 223.83527 225.22594 226.46103
 227.46255 229.51904 233.09082 237.74055 242.38786 246.67653 250.72458 254.50438
 257.94666 261.07553 263.96542 266.67407 269.25525 271.53513 273.30063 274.88943
 276.54019 278.08731 279.62000 280.99561 282.18982 283.25302 284.22574 285.11523
 285.92279 286.65305 287.29166 288.15329
 366.78100 356.34401 345.78502 334.66003 323.07204 311.27505 299.15406 286.96607
 274.68708 262.59309 250.61110 239.92111 230.05212 221.16513 213.35614 206.36715
 200.21016 195.15717 191.74818 189.79919 188.84520 188.91821 189.76222 191.07923
 192.81325 194.91726 197.18927 199.55728 202.01129 204.50030 206.59731 208.44832
 210.08333 211.23734 211.47535 211.71236 211.65837 211.37238 211.01439 210.65340
 210.27941 209.99842 209.81543 209.68844 209.62545 209.96546 210.36047 210.75848
 211.56049 212.74750 214.00651 215.79852 217.73553 219.78754 221.89155 223.98356
 226.05257 228.14558 230.25159 232.36660 234.50461 236.68562 238.95063 241.32964
 243.95965 246.21966 248.23067 250.00468 251.43069 252.56270 253.39371 253.71873
 253.76474 253.54775 252.91676 251.87377 250.48878 248.65879 246.57680 244.41881
 242.21882 240.03183 237.86084 235.70885 233.57786 231.45387 229.48888 227.65489
 225.94690 224.42791 223.06692 221.84793 220.73894 219.70795 218.82096 217.97097
 217.22198 216.41099 215.51800 214.89101 214.35002 214.92789 216.29312 218.05725
 220.16597 222.21194 223.56728 223.77869 223.57605 223.70381 225.02185 226.27699
 227.43236 229.62782 233.20554 237.84941 242.51596 246.81598 250.84280 254.58975
 257.99670 261.09412 263.96359 266.66455 269.23367 271.49905 273.26025 274.85648
 276.51328 278.08524 279.62234 280.99728 282.19302 283.25662 284.22955 285.11691
 285.92133 286.64896 287.28476 288.14395
 366.78100 356.34414 345.78527 334.66041 323.07255 311.27568 299.15482 286.96696
 274.68809 262.59423 250.61237 239.92251 230.05364 221.16678 213.35792 206.36905
 200.21219 195.15933 191.75046 189.80160 188.84774 188.92087 189.76501 191.08215
 192.81628 194.92042 197.19256 199.56070 202.01483 204.50397 206.60111 208.45224
 210.08738 211.24152 211.47965 211.71679 211.66293 211.37706 211.01920 210.65834
 210.28447 210.00361 209.82075 209.69389 209.63102 209.97116 210.36630 210.76443
 211.56657 212.75371 214.01284 215.80498 217.74212 219.79425 221.89839 223.99053
 226.05966 228.15280 230.25894 232.37407 234.51221 236.69335 238.95849 241.33762
 243.96776 246.22790 248.23903 250.01317 251.43931 252.57144 253.40258 253.72772
 253.77385 253.55699 252.92613 251.88326 250.49840 248.66854 246.58668 244.42881
 242.22895 240.04209 237.87122 235.71936 233.58850 231.46463 229.49977 227.66591
 225.95804 224.43918 223.07832 221.85945 220.75059 219.71973 218.83286 217.98300
 217.23414 216.42328 215.53041 214.90355 214.36269 214.94923 216.33504 218.05569
 220.10825 222.16460 223.56291 223.75775 223.50853 223.59647 224.83249 226.08406
 227.38071 229.71725 233.31853 237.96066 242.64282 246.95361 250.96449 254.68210
 258.05524 261.12375 263.97275 266.66354 269.21713 271.46512 273.22223 274.82547
 276.48633 278.08517 279.62418 280.99936 282.19507 283.25717 284.22998 285.11722
 285.92209 286.64499 287.28329 288.14343
 366.78100 356.34432 345.78563 334.66095 323.07327 311.27659 299.15590 286.96822
 274.68954 262.59586 250.61417 239.92449 230.05581 221.16913 213.36044 206.37176
 200.21508 195.16240 191.75371 189.80503 188.85135 188.92466 189.76898 191.08630
 192.82062 194.92493 197.19725 199.56557 202.01989 204.50920 206.60652 208.45784
 210.09316 211.24747 211.48579 211.72311 211.66943 211.38374 211.02606 210.66538
 210.29169 210.01101 209.82833 209.70165 209.63896 209.97928 210.37460 210.77292
 211.57523 212.76255 214.02187 215.81419 217.75150 219.80382 221.90814 224.00046
 226.06977 228.16309 230.26941 232.38473 234.52304 236.70436 238.96968 241.34899
 243.97931 246.23963 248.25095 250.02526 251.45158 252.58390 253.41522 253.74053
 253.78685 253.57017 252.93949 251.89680 250.51212 248.68244 246.60076 244.44307
 242.24339 240.05671 237.88602 235.73434 233.60366 231.47998 229.51529 227.68161
 225.97393 224.45525 223.09456 221.87588 220.76720 219.73652 218.84983 218.00015
 217.25147 216.44079 215.54810 214.92142 214.38074 214.97362 216.37433 218.06136
 220.04773 222.09819 223.53285 223.72221 223.45221 223.52737 224.67494 225.89479
 227.31212 229.78386 233.42377 238.07146 242.76257 247.08159 251.08153 254.77380
 258.11932 261.16199 263.99353 266.67239 269.20590 271.43323 273.18549 274.79633
 276.46326 278.08893 279.63190 281.00705 282.20309 283.26553 284.23721 285.12485
 285.92871 286.65683 287.29642 288.16125
 366.78100 356.34464 345.78628 334.66191 323.07455 311.27819 299.15783 286.97047
 274.69210 262.59874 250.61738 239.92802 230.05966 221.17330 213.36493 206.37657
 200.22021 195.16785 191.75949 189.81112 188.85776 188.93140 189.77604 191.09368
 192.82831 194.93295 197.20559 199.57423 202.02887 204.51851 206.61614 208.46778
 210.10342 211.25806 211.49670 211.73433 211.68097 211.39561 211.03825 210.67789
 210.30452 210.02416 209.84180 209.71544 209.65308 209.99372 210.38935 210.78799
 211.59063 212.77827 214.03791 215.83054 217.76818 219.82082 221.92546 224.01810
 226.08773 228.18137 230.28801 232.40365 234.54229 236.72392 238.98956 241.36920
 243.99984 246.26048 248.27212 250.04675 251.47339 252.60603 253.43767 253.76331
 253.80994 253.59358 252.96322 251.92086 250.53650 248.70713 246.62577 244.46841
 242.26905 240.08269 237.91233 235.76096 233.63060 231.50724 229.54288 227.70952
 226.00215 224.48379 223.12343 221.90507 220.79671 219.76634 218.87998 218.03062
 217.28226 216.47190 215.57954 214.95317 214.41281 215.00552 216.40590 218.06575
 219.99677 222.02238 223.47380 223.66386 223.39014 223.48024 224.54433 225.71599
 227.24182 229.84673 233.53204 238.18446 242.87410 247.19655 251.18796 254.85863
 258.18069 261.20682 264.02191 266.68903 269.20087 271.40533 273.15286 274.77063
 276.44507 278.09921 279.64572 281.02194 282.21634 283.27844 284.25009 285.13565
 285.94000 286.66794 287.30923 288.15753
 366.78100 356.34511 345.78721 334.66332 323.07642 311.28053 299.16063 286.97374
 274.69585 262.60295 250.62206 239.93316 230.06527 221.17938 213.37148 206.38359
 200.22769 195.17580 191.76790 189.82001 188.86712 188.94122 189.78633 191.10443
 192.83954 194.94464 197.21775 199.58686 202.04196 204.53207 206.63017 208.48228
 210.11839 211.27349 211.51260 211.75070 211.69781 211.41291 211.05602 210.69613
 210.32323 210.04334 209.86144 209.73555 209.67365 210.01476 210.41087 210.80997
 211.61308 212.80118 214.06129 215.85440 217.79250 219.84561 221.95071 224.04382
 226.11392 228.20803 230.31514 232.43124 234.57035 236.75245 239.01856 241.39867
 244.02977 246.29088 248.30298 250.07809 251.50519 252.63830 253.47041 253.79651
 253.84362 253.62772 252.99783 251.95593 250.57204 248.74315 246.66225 244.50536
 242.30646 240.12057 237.95068 235.79978 233.66989 231.54699 229.58310 227.75020
 226.04331 224.52542 223.16552 221.94763 220.83973 219.80984 218.92394 218.07505
 217.32716 216.51726 215.62537 214.99947 214.45958 215.04510 216.42845 218.06505
 219.95807 221.95721 223.39949 223.57909 223.30986 223.43300 224.42613 225.54712
 227.17093 229.91061 233.64940 238.30408 242.98399 247.30614 251.29208 254.94501
 258.25052 261.25757 264.05948 266.71207 269.19608 271.37247 273.11710 274.74570
 276.40714 278.12842 279.67798 281.04828 282.24091 283.30005 284.26923 285.15320
 285.95712 286.68707 287.32605 288.16837
 366.78100 356.34557 345.78814 334.66471 323.07828 311.28285 299.16342 286.97699
 274.69956 262.60713 250.62670 239.93826 230.07083 221.18540 213.37797 206.39054
 200.23511 195.18368 191.77625 189.82882 188.87639 188.95096 189.79653 191.11510
 192.85067 194.95624 197.22981 199.59938 202.05495 204.54552 206.64409 208.49665
 210.13322 211.28879 211.52836 211.76693 211.71450 211.43007 211.07364 210.71421
 210.34178 210.06235 209.88092 209.75549 209.69406 210.03563 210.43220 210.83177
 211.63534 212.82391 214.08448 215.87804 217.81661 219.87018 221.97575 224.06932
 226.13989 228.23446 230.34203 232.45860 234.59817 236.78074 239.04731 241.42788
 244.05945 246.32102 248.33359 250.10916 251.53673 252.67030 253.50287 253.82944
 253.87700 253.66157 253.03214 251.99071 250.60728 248.77885 246.69842 244.54199
 242.34356 240.15813 237.98870 235.83827 233.70884 231.58641 229.62298 227.79055
 226.08412 224.56669 223.20726 221.98983 220.88239 219.85296 218.96753 218.11910
 217.37167 216.56224 215.67081 215.04538 214.50595 215.08284 216.44580 218.06303
 219.92517 221.90096 223.32733 223.47903 223.19649 223.37125 224.31392 225.38907
 227.10393 229.97708 233.77357 238.42720 243.09181 247.41228 251.39732 255.03909
 258.32639 261.32288 264.10522 266.73987 269.19293 271.33728 273.08005 274.72269
 276.39636 278.14426 279.70102 281.07498 282.26685 283.32480 284.29092 285.17267
 285.97607 286.70609 287.33731 288.17731
 366.78100 356.34595 345.78890 334.66585 323.07979 311.28474 299.16569 286.97964
 274.70259 262.61054 250.63048 239.94243 230.07538 221.19033 213.38328 206.39623
 200.24117 195.19012 191.78307 189.83602 188.88397 188.95892 189.80486 191.12381
 192.85976 194.96571 197.23966 199.60961 202.06555 204.55650 206.65545 208.50840
 210.14535 211.30130 211.54125 211.78019 211.72814 211.44409 211.08804 210.72899
 210.35694 210.07788 209.89683 209.77178 209.71073 210.05268 210.44963 210.84957
 211.65352 212.84247 214.10342 215.89737 217.83632 219.89026 221.99621 224.09016
 226.16111 228.25606 230.36401 232.48095 234.62090 236.80385 239.07080 241.45175
 244.08370 246.34565 248.35859 250.13454 251.56249 252.69644 253.52939 253.85634
 253.90428 253.68923 253.06018 252.01913 250.63608 248.80803 246.72797 244.57192
 242.37387 240.18882 238.01977 235.86972 233.74066 231.61861 229.65556 227.82351
 226.11746 224.60041 223.24135 222.02430 220.91725 219.88820 219.00315 218.15510
 217.40804 216.59899 215.70794 215.08289 214.54384 215.11411 216.46143 218.06097
 219.90041 221.85745 223.24670 223.36255 223.06631 223.27606 224.19617 225.26041
 227.04904 230.03789 233.89925 238.55374 243.20123 247.52351 251.51488 255.15082
 258.42834 261.39877 264.16058 266.77298 269.18579 271.28851 273.02914 274.69284
 276.40146 278.15924 279.72171 281.09879 282.29239 283.34961 284.31464 285.19461
 285.99750 286.72720 287.35342 288.18756
 366.78100 356.34641 345.78982 334.66723 323.08164 311.28705 299.16846 286.98287
 274.70628 262.61469 250.63510 239.94751 230.08093 221.19634 213.38975 206.40316
 200.24857 195.19798 191.79139 189.84480 188.89321 188.96862 189.81503 191.13444
 192.87085 194.97726 197.25167 199.62208 202.07849 204.56990 206.66931 208.52272
 210.16013 211.31654 211.55695 211.79636 211.74478 211.46119 211.10560 210.74701
 210.37542 210.09683 209.91624 209.79165 209.73106 210.07347 210.47088 210.87129
 211.67570 212.86511 214.12652 215.92093 217.86034 219.91475 222.02116 224.11557
 226.18698 228.28239 230.39080 232.50821 234.64863 236.83204 239.09945 241.48086
 244.11327 246.37568 248.38909 250.16550 251.59391 252.72832 253.56173 253.88914
 253.93755 253.72296 253.09437 252.05378 250.67119 248.84360 246.76401 244.60842
 242.41083 240.22624 238.05765 235.90806 233.77948 231.65789 229.69530 227.86371
 226.15812 224.64153 223.28294 222.06635 220.95976 219.93117 219.04658 218.19899
 217.45240 216.64381 215.75322 215.12863 214.59004 215.15012 216.47333 218.05040
 219.87709 221.83438 223.19385 223.22795 222.88364 223.17647 224.06860 225.09093
 226.97997 230.09683 234.02531 238.68402 243.31956 247.64818 251.65630 255.29546
 258.55652 261.51715 264.24362 266.81955 269.18173 271.23709 272.97562 274.66193
 276.40543 278.17197 279.73608 281.11316 282.30637 283.36163 284.32126 285.20007
 286.00287 286.73508 287.35852 288.19440
 366.78100 356.34701 345.79103 334.66904 323.08405 311.29007 299.17208 286.98709
 274.71111 262.62012 250.64113 239.95415 230.08816 221.20417 213.39819 206.41220
 200.25821 195.20823 191.80224 189.85625 188.90527 188.98128 189.82829 191.14831
 192.88532 194.99233 197.26735 199.63836 202.09537 204.58739 206.68740 208.54141
 210.17943 211.33644 211.57745 211.81747 211.76648 211.48349 211.12851 210.77052
 210.39953 210.12155 209.94156 209.81757 209.75759 210.10060 210.49861 210.89962
 211.70464 212.89465 214.15666 215.95168 217.89169 219.94670 222.05372 224.14873
 226.22074 228.31676 230.42577 232.54378 234.68480 236.86881 239.13682 241.51884
 244.15185 246.41486 248.42888 250.20589 251.63490 252.76992 253.60393 253.93194
 253.98096 253.76697 253.13898 252.09900 250.71701 248.89002 246.81104 244.65605
 242.45906 240.27508 238.10709 235.95810 233.83012 231.70913 229.74714 227.91616
 226.21117 224.69518 223.33720 222.12121 221.01522 219.98724 219.10325 218.25626
 217.51028 216.70229 215.81230 215.18832 214.65033 215.19618 216.48584 218.02359
 219.83939 221.80188 223.15808 223.16409 222.75221 222.96280 223.89734 225.02199
 226.96165 230.13550 234.13820 238.80705 243.42322 247.76047 251.78363 255.42598
 258.69351 261.62860 264.33865 266.89032 269.20969 271.21860 272.94336 274.64566
 276.41019 278.18628 279.75140 281.13177 282.32730 283.38602 284.35922 285.24100
 286.03616 286.74384 287.36533 288.19568
 366.78100 356.34743 345.79187 334.67030 323.08573 311.29216 299.17460 286.99003
 274.71446 262.62389 250.64533 239.95876 230.09319 221.20962 213.40406 206.41849
 200.26492 195.21535 191.80979 189.86422 188.91365 188.99008 189.83752 191.15795
 192.89538 195.00282 197.27825 199.64968 202.10711 204.59955 206.69998 208.55441
 210.19284 211.35028 211.59171 211.83214 211.78157 211.49901 211.14444 210.78687
 210.41630 210.13874 209.95917 209.83560 209.77603 210.11947 210.51790 210.91933
 211.72477 212.91520 214.17763 215.97306 217.91350 219.96893 222.07636 224.17179
 226.24423 228.34066 230.45009 232.56852 234.70996 236.89439 239.16282 241.54525
 244.17869 246.44212 248.45655 250.23398 251.66342 252.79885 253.63328 253.96172
 254.01115 253.79758 253.17001 252.13045 250.74888 248.92231 246.84374 244.68918
 242.49261 240.30904 238.14147 235.99291 233.86534 231.74477 229.78320 227.95264
 226.24807 224.73250 223.37493 222.15937 221.05380 220.02623 219.14267 218.29610
 217.55053 216.74296 215.85340 215.22983 214.69226 215.23239 216.50850 218.00082
 219.78758 221.73843 223.10117 223.13400 222.68417 222.77180 223.73329 224.95860
 226.92233 230.15849 234.24905 238.92029 243.51802 247.85297 251.89189 255.53786
 258.79269 261.71796 264.42920 266.95605 269.23117 271.18930 272.90436 274.61594
 276.41623 278.19812 279.76129 281.13895 282.33163 283.38895 284.35690 285.23596
 286.02298 286.71964 287.34082 288.16074
 366.78100 356.34747 345.79194 334.67041 323.08588 311.29235 299.17482 286.99029
 274.71476 262.62423 250.64570 239.95917 230.09364 221.21011 213.40458 206.41905
 200.26552 195.21599 191.81046 189.86493 188.91440 188.99087 189.83834 191.15881
 192.89628 195.00375 197.27922 199.65069 202.10816 204.60063 206.70110 208.55557
 210.19403 211.35150 211.59297 211.83344 211.78291 211.50038 211.14585 210.78832
 210.41779 210.14026 209.96073 209.83720 209.77767 210.12114 210.51961 210.92108
 211.72655 212.91702 214.17949 215.97496 217.91543 219.97090 222.07837 224.17384
 226.24631 228.34278 230.45225 232.57072 234.71219 236.89666 239.16513 241.54760
 244.18107 246.44454 248.45901 250.23648 251.66595 252.80142 253.63589 253.96436
 254.01383 253.80030 253.17277 252.13324 250.75171 248.92518 246.84665 244.69212
 242.49559 240.31206 238.14453 235.99600 233.86847 231.74794 229.78641 227.95588
 226.25135 224.73582 223.37829 222.16276 221.05723 220.02970 219.14616 218.29963
 217.55410 216.74657 215.85704 215.23351 214.69598 215.24367 216.53766 217.99448
 219.73059 221.64601 223.00664 223.09506 222.65417 222.63100 223.57271 224.85347
 226.86084 230.17372 234.35660 239.02754 243.59906 247.93326 252.00430 255.65994
 258.93604 261.79883 264.49716 267.00244 269.23419 271.14139 272.85614 274.60117
 276.40543 278.20132 279.76260 281.13885 282.33020 283.38605 284.35068 285.22617
 286.01111 286.71109 287.33984 288.16019
 366.78100 356.34750 345.79201 334.67051 323.08602 311.29252 299.17502 286.99053
 274.71503 262.62454 250.64604 239.95954 230.09405 221.21055 213.40506 206.41956
 200.26606 195.21657 191.81107 189.86558 188.91508 188.99158 189.83909 191.15959
 192.89710 195.00460 197.28010 199.65161 202.10911 204.60162 206.70212 208.55662
 210.19513 211.35263 211.59414 211.83464 211.78414 211.50165 211.14715 210.78966
 210.41916 210.14166 209.96217 209.83867 209.77918 210.12268 210.52118 210.92269
 211.72819 212.91870 214.18120 215.97670 217.91721 219.97271 222.08022 224.17572
 226.24823 228.34473 230.45423 232.57274 234.71424 236.89875 239.16725 241.54975
 244.18326 246.44676 248.46127 250.23877 251.66827 252.80378 253.63828 253.96679
 254.01629 253.80279 253.17530 252.13580 250.75431 248.92781 246.84931 244.69482
 242.49832 240.31483 238.14733 235.99883 233.87134 231.75084 229.78935 227.95885
 226.25435 224.73886 223.38136 222.16587 221.06037 220.03287 219.14938 218.30288
 217.55739 216.74989 215.86039 215.23690 214.69940 215.25212 216.55800 217.98457
 219.68298 221.53838 222.88036 223.04559 222.63640 222.51152 223.41470 224.72284
 226.79193 230.19955 234.45862 239.11580 243.65469 248.01654 252.12131 255.78598
 258.89761 261.98685 264.67868 267.12436 269.29013 271.13052 272.84055 274.61945
 276.41434 278.17307 279.72250 281.07898 282.25323 283.28699 284.22852 285.07663
 285.82285 286.46616 287.01996 287.72556
 366.78100 356.34775 345.79249 334.67124 323.08698 311.29373 299.17647 286.99222
 274.71696 262.62671 250.64845 239.96220 230.09694 221.21369 213.40844 206.42318
 200.26993 195.22067 191.81542 189.87016 188.91991 188.99665 189.84440 191.16514
 192.90289 195.01064 197.28638 199.65813 202.11587 204.60862 206.70936 208.56411
 210.20285 211.36060 211.60234 211.84309 211.79283 211.51058 211.15633 210.79907
 210.42882 210.15156 209.97231 209.84905 209.78980 210.13354 210.53229 210.93403
 211.73978 212.93053 214.19327 215.98902 217.92976 219.98551 222.09325 224.18900
 226.26174 228.35849 230.46823 232.58698 234.72872 236.91347 239.18222 241.56496
 244.19871 246.46245 248.47720 250.25494 251.68469 252.82043 253.65518 253.98392
 254.03367 253.82042 253.19316 252.15391 250.77265 248.94640 246.86814 244.71389
 242.51763 240.33438 238.16712 236.01887 233.89161 231.77136 229.81011 227.97985
 226.27560 224.76034 223.40309 222.18783 221.08258 220.05532 219.17207 218.32581
 217.58056 216.77331 215.88405 215.26080 214.72354 215.27203 216.56790 217.96588
 219.61681 221.43164 222.74783 222.95183 222.57867 222.39136 223.27220 224.61061
 226.73048 230.23833 234.54298 239.19075 243.71974 248.11406 252.22386 255.90067
 259.06573 262.13269 264.79736 267.20901 269.32532 271.11829 272.81274 274.59412
 276.40442 278.11874 279.59711 280.92374 282.07117 283.07874 283.99536 284.81213
 285.54190 286.20569 286.78903 287.53244
 366.78100 356.34751 345.79201 334.67052 323.08602 311.29253 299.17503 286.99054
 274.71504 262.62455 250.64605 239.95956 230.09406 221.21057 213.40507 206.41958
 200.26608 195.21659 191.81109 189.86560 188.91510 188.99161 189.83912 191.15962
 192.89713 195.00463 197.28014 199.65164 202.10915 204.60165 206.70216 208.55666
 210.19517 211.35267 211.59418 211.83468 211.78419 211.50169 211.14720 210.78970
 210.41921 210.14171 209.96222 209.83873 209.77923 210.12274 210.52124 210.92275
 211.72825 212.91876 214.18126 215.97677 217.91727 219.97278 222.08028 224.17579
 226.24829 228.34480 230.45430 232.57281 234.71431 236.89882 239.16732 241.54983
 244.18334 246.44684 248.46135 250.23885 251.66836 252.80386 253.63837 253.96687
 254.01638 253.80288 253.17539 252.13589 250.75440 248.92790 246.84941 244.69491
 242.49842 240.31492 238.14743 235.99893 233.87144 231.75095 229.78945 227.95896
 226.25446 224.73897 223.38147 222.16598 221.06048 220.03299 219.14949 218.30300
 217.55750 216.75001 215.86051 215.23702 214.69952 215.26776 216.61101 217.92702
 219.53903 221.33745 222.60115 222.80618 222.46300 222.24585 223.13367 224.56099
 226.67804 230.29681 234.66537 239.28668 243.79950 248.17119 252.27367 255.93506
 259.13254 262.22562 264.89697 267.30444 269.40097 271.18042 272.87616 274.63864
 276.41696 278.08755 279.53381 280.82639 281.94827 282.94168 283.85345 284.69193
 285.45737 286.14191 286.73993 287.50201
 366.78100 356.34770 345.79240 334.67110 323.08680 311.29351 299.17621 286.99191
 274.71661 262.62631 250.64801 239.96171 230.09641 221.21311 213.40781 206.42252
 200.26922 195.21992 191.81462 189.86932 188.91902 188.99572 189.84342 191.16412
 192.90182 195.00953 197.28523 199.65693 202.11463 204.60733 206.70803 208.56273
 210.20143 211.35913 211.60083 211.84154 211.79124 211.50894 211.15464 210.79734
 210.42704 210.14974 209.97044 209.84714 209.78784 210.13155 210.53025 210.93195
 211.73765 212.92835 214.19105 215.98675 217.92745 219.98315 222.09085 224.18656
 226.25926 228.35596 230.46566 232.58436 234.72606 236.91076 239.17946 241.56216
 244.19586 246.45957 248.47427 250.25197 251.68167 252.81737 253.65207 253.98077
 254.03047 253.81717 253.18987 252.15058 250.76928 248.94298 246.86468 244.71038
 242.51408 240.33078 238.16348 236.01518 233.88788 231.76759 229.80629 227.97599
 226.27169 224.75639 223.39909 222.18379 221.07849 220.05119 219.16789 218.32160
 217.57630 216.76900 215.87970 215.25640 214.71910 215.28186 216.61707 217.93199
 219.46722 221.20390 222.50099 222.68228 222.28725 222.05394 222.97330 224.49519
 226.61368 230.36955 234.82388 239.39868 243.89760 248.25740 252.35936 256.02615
 259.27591 262.25620 264.95248 267.38605 269.46124 271.21399 272.89355 274.65237
 276.43628 278.06018 279.46188 280.72772 281.83167 282.82742 283.75391 284.60251
 285.36499 286.04401 286.63715 287.39307
 366.78100 356.34824 345.79348 334.67273 323.08897 311.29621 299.17945 286.99569
 274.72094 262.63118 250.65342 239.96766 230.10290 221.22015 213.41539 206.43063
 200.27787 195.22911 191.82435 189.87960 188.92984 189.00708 189.85532 191.17656
 192.91481 195.02305 197.29929 199.67153 202.12977 204.62302 206.72426 208.57950
 210.21874 211.37698 211.61923 211.86047 211.81071 211.52895 211.17519 210.81844
 210.44868 210.17192 209.99316 209.87040 209.81165 210.15589 210.55513 210.95737
 211.76361 212.95485 214.21810 216.01434 217.95558 220.01182 222.12006 224.21631
 226.28955 228.38679 230.49703 232.61627 234.75852 236.94376 239.21300 241.59624
 244.23048 246.49473 248.50997 250.28821 251.71845 252.85469 253.68994 254.01918
 254.06942 253.85666 253.22990 252.19115 250.81039 248.98463 246.90687 244.75311
 242.55735 240.37460 238.20784 236.06008 233.93332 231.81356 229.85281 228.02305
 226.31929 224.80453 223.44777 222.23302 221.12826 220.10150 219.21874 218.37298
 217.62823 216.82147 215.93271 215.30995 214.77319 215.30818 216.58022 217.96748
 219.40448 221.19916 222.44655 222.45940 222.05441 221.90622 222.86230 224.39534
 226.62363 230.45790 234.99265 239.53912 244.01404 248.34557 252.43813 256.08218
 259.33624 262.36084 265.05722 267.43820 269.50266 271.24933 272.92999 274.69382
 276.44507 278.01794 279.34949 280.60776 281.71497 282.70236 283.62857 284.49609
 285.28574 285.98889 286.60318 287.38602
 366.78100 356.34850 345.79399 334.67349 323.08999 311.29749 299.18098 286.99748
 274.72298 262.63347 250.65597 239.97047 230.10597 221.22346 213.41896 206.43446
 200.28196 195.23345 191.82895 189.88445 188.93494 189.01244 189.86094 191.18244
 192.92093 195.02943 197.30593 199.67842 202.13692 204.63042 206.73192 208.58741
 210.22691 211.38541 211.62791 211.86940 211.81990 211.53840 211.18489 210.82839
 210.45889 210.18239 210.00388 209.88138 209.82288 210.16737 210.56687 210.96937
 211.77587 212.96736 214.23086 216.02736 217.96886 220.02535 222.13385 224.23035
 226.30384 228.40134 230.51184 232.63134 234.77383 236.95933 239.22883 241.61232
 244.24682 246.51132 248.52682 250.30531 251.73581 252.87231 253.70780 254.03730
 254.08780 253.87530 253.24879 252.21029 250.82979 249.00429 246.92678 244.77328
 242.57778 240.39527 238.22877 236.08127 233.95477 231.83526 229.87476 228.04526
 226.34175 224.82725 223.47075 222.25625 221.15174 220.12524 219.24274 218.39724
 217.65273 216.84623 215.95773 215.33522 214.79872 215.32059 216.57159 218.00053
 219.34348 220.93437 222.35033 222.50233 221.96463 221.67586 222.63229 224.28511
 226.63651 230.54581 235.14490 239.71808 244.17171 248.47731 252.55276 256.17801
 259.41211 262.30136 265.04404 267.55261 269.57751 271.26306 272.93488 274.68750
 276.39157 277.91736 279.20465 280.39966 281.48761 282.49805 283.46365 284.35126
 285.14960 285.86047 286.48151 287.27295
 366.78100 356.34853 345.79406 334.67359 323.09012 311.29765 299.18118 286.99771
 274.72324 262.63377 250.65630 239.97083 230.10636 221.22389 213.41942 206.43495
 200.28248 195.23401 191.82954 189.88507 188.93560 189.01313 189.86166 191.18319
 192.92172 195.03025 197.30678 199.67931 202.13784 204.63137 206.73291 208.58844
 210.22797 211.38650 211.62903 211.87056 211.82109 211.53962 211.18615 210.82968
 210.46021 210.18374 210.00527 209.88280 209.82433 210.16886 210.56839 210.97092
 211.77745 212.96898 214.23251 216.02904 217.97057 220.02710 222.13563 224.23216
 226.30569 228.40322 230.51375 232.63328 234.77581 236.96134 239.23087 241.61440
 244.24893 246.51346 248.52899 250.30752 251.73805 252.87458 253.71011 254.03964
 254.09017 253.87770 253.25123 252.21276 250.83229 249.00682 246.92935 244.77588
 242.58041 240.39794 238.23147 236.08400 233.95753 231.83806 229.87759 228.04812
 226.34466 224.83019 223.47372 222.25925 221.15478 220.12831 219.24584 218.40037
 217.65590 216.84943 215.96096 215.33849 214.80202 215.33261 216.62004 217.96281
 219.43394 220.99281 222.44644 222.62520 221.93367 221.51833 222.38719 224.17256
 226.69624 230.66673 235.26350 239.88406 244.34381 248.65352 252.72903 256.33026
 259.52893 262.38095 265.04858 267.43576 269.51724 271.26068 272.96271 274.69772
 276.34845 277.72739 279.05930 280.41458 281.73038 282.90979 283.98581 284.96063
 285.83734 286.61807 287.30011 288.16928
 366.78100 356.34815 345.79329 334.67244 323.08858 311.29573 299.17887 286.99502
 274.72016 262.63031 250.65245 239.96660 230.10174 221.21889 213.41403 206.42918
 200.27633 195.22747 191.82262 189.87776 188.92791 189.00505 189.85320 191.17434
 192.91249 195.02063 197.29678 199.66892 202.12707 204.62022 206.72136 208.57651
 210.21565 211.37380 211.61594 211.85709 211.80723 211.52538 211.17152 210.81467
 210.44481 210.16796 209.98910 209.86625 209.80740 210.15154 210.55069 210.95283
 211.75898 212.95012 214.21327 216.00941 217.95056 220.00670 222.11485 224.21099
 226.28414 228.38128 230.49143 232.61058 234.75272 236.93787 239.20701 241.59016
 244.22430 246.48845 248.50359 250.28174 251.71188 252.84803 253.68317 254.01232
 254.06246 253.84961 253.22276 252.18390 250.80305 248.97719 246.89934 244.74548
 242.54963 240.36677 238.19992 236.05206 233.92521 231.80535 229.84450 228.01465
 226.31079 224.79594 223.43908 222.22423 221.11937 220.09252 219.20966 218.36381
 217.61895 216.81210 215.92324 215.30039 214.76353 215.32170 216.66183 217.90771
 219.47092 221.10562 222.48222 222.53064 221.69183 221.31587 222.26389 223.97438
 226.66402 230.74031 235.40991 240.06635 244.51944 248.78380 252.82564 256.44049
 259.62762 262.51575 265.08304 267.53262 269.56000 271.27551 272.97382 274.71317
 276.29251 277.75043 279.31674 280.89017 282.25354 283.45981 284.56030 285.55731
 286.45398 287.25250 287.95004 288.83899
 366.78100 356.34737 345.79173 334.67010 323.08546 311.29183 299.17419 286.98956
 274.71392 262.62329 250.64465 239.95802 230.09238 221.20875 213.40311 206.41748
 200.26384 195.21421 191.80857 189.86294 188.91230 188.98867 189.83603 191.15640
 192.89376 195.00113 197.27649 199.64786 202.10522 204.59759 206.69795 208.55232
 210.19069 211.34805 211.58942 211.82978 211.77915 211.49651 211.14188 210.78424
 210.41361 210.13597 209.95634 209.83270 209.77307 210.11643 210.51480 210.91616
 211.72153 212.91189 214.17426 215.96962 217.90999 219.96535 222.07272 224.16808
 226.24045 228.33681 230.44618 232.56454 234.70591 236.89027 239.15864 241.54101
 244.17437 246.43774 248.45210 250.22947 251.65883 252.79420 253.62856 253.95693
 254.00629 253.79266 253.16502 252.12539 250.74375 248.91712 246.83848 244.68385
 242.48721 240.30358 238.13594 235.98731 233.85967 231.73904 229.77740 227.94677
 226.24213 224.72650 223.36886 222.15323 221.04760 220.01996 219.13633 218.28969
 217.54406 216.73642 215.84679 215.22315 214.68552 215.28839 216.70821 217.86516
 219.47609 221.20407 222.48198 222.35172 221.40741 221.12230 222.10423 223.78191
 226.61346 230.78998 235.54642 240.22604 244.69209 248.92816 252.90343 256.51315
 259.71765 262.57278 265.17755 267.54947 269.54340 271.24323 272.93951 274.69711
 276.25742 277.98334 279.67667 281.22116 282.55780 283.74036 284.81931 285.79672
 286.67581 287.45865 288.14252 289.01404
 366.78100 356.34667 345.79033 334.66800 323.08266 311.28833 299.16999 286.98466
 274.70832 262.61699 250.63765 239.95032 230.08398 221.19965 213.39331 206.40698
 200.25264 195.20231 191.79597 189.84964 188.89830 188.97397 189.82064 191.14030
 192.87697 194.98363 197.25830 199.62896 202.08563 204.57729 206.67696 208.53062
 210.16829 211.32495 211.56562 211.80528 211.75395 211.47061 211.11528 210.75694
 210.38561 210.10727 209.92694 209.80261 209.74227 210.08494 210.48260 210.88327
 211.68793 212.87760 214.13926 215.93393 217.87359 219.92826 222.03492 224.12959
 226.20125 228.29692 230.40558 232.52325 234.66391 236.84758 239.11525 241.49691
 244.12958 246.39224 248.40591 250.18257 251.61124 252.74590 253.57957 253.90723
 253.95590 253.74156 253.11323 252.07289 250.69056 248.86322 246.78389 244.62855
 242.43122 240.24688 238.07855 235.92922 233.80088 231.67955 229.71721 227.88588
 226.18054 224.66421 223.30587 222.08954 220.98320 219.95487 219.07053 218.22320
 217.47686 216.66853 215.77819 215.15386 214.61552 215.25710 216.74306 217.83394
 219.44617 221.28577 222.52986 222.21397 221.12956 220.99800 221.87433 223.48059
 226.52840 230.85031 235.65773 240.36610 244.87210 249.11194 253.02827 256.59192
 259.80450 262.66357 265.26886 267.59613 269.54880 271.20883 272.91943 274.61658
 276.37912 278.20190 279.91733 281.42361 282.72717 283.88049 284.93271 285.88596
 286.74329 287.50677 288.17371 289.02365
 366.78100 356.34670 345.79040 334.66810 323.08280 311.28850 299.17020 286.98490
 274.70860 262.61730 250.63800 239.95070 230.08440 221.20010 213.39380 206.40750
 200.25320 195.20290 191.79660 189.85030 188.89900 188.97470 189.82140 191.14110
 192.87780 194.98450 197.25920 199.62990 202.08660 204.57830 206.67800 208.53170
 210.16940 211.32610 211.56680 211.80650 211.75520 211.47190 211.11660 210.75830
 210.38700 210.10870 209.92840 209.80410 209.74380 210.08650 210.48420 210.88490
 211.68960 212.87930 214.14100 215.93570 217.87540 219.93010 222.03680 224.13150
 226.20320 228.29890 230.40760 232.52530 234.66600 236.84970 239.11740 241.49910
 244.13180 246.39450 248.40820 250.18490 251.61360 252.74830 253.58200 253.90970
 253.95840 253.74410 253.11580 252.07550 250.69320 248.86590 246.78660 244.63130
 242.43400 240.24970 238.08140 235.93210 233.80380 231.68250 229.72020 227.88890
 226.18360 224.66730 223.30900 222.09270 220.98640 219.95810 219.07380 218.22650
 217.48020 216.67190 215.78160 215.15730 214.61900 215.25189 216.72961 217.83623
 219.38202 221.28024 222.54396 222.17093 220.99173 220.72189 221.51657 223.43555
 226.57980 230.94958 235.77608 240.50690 245.03537 249.29164 253.17569 256.67206
 259.86926 262.75174 265.34668 267.65698 269.61456 271.29663 272.98785 274.59885
 276.17648 277.93353 279.63235 281.12402 282.41495 283.55710 284.59912 285.54312
 286.39215 287.14822 287.80872 288.65042
 366.78100 356.34704 345.79109 334.66913 323.08418 311.29022 299.17227 286.98731
 274.71136 262.62040 250.64145 239.95449 230.08854 221.20458 213.39863 206.41267
 200.25872 195.20876 191.80281 189.85685 188.90590 188.98194 189.82899 191.14903
 192.88608 194.99312 197.26817 199.63921 202.09626 204.58830 206.68835 208.54239
 210.18044 211.33748 211.57853 211.81857 211.76762 211.48466 211.12971 210.77175
 210.40080 210.12284 209.94289 209.81893 209.75897 210.10202 210.50006 210.90111
 211.70615 212.89620 214.15824 215.95329 217.89333 219.94838 222.05542 224.15047
 226.22251 228.31856 230.42760 232.54565 234.68669 236.87074 239.13878 241.52083
 244.15387 246.41692 248.43096 250.20801 251.63705 252.77210 253.60614 253.93419
 253.98323 253.76928 253.14132 252.10137 250.71941 248.89246 246.81350 244.65855
 242.46159 240.27764 238.10968 235.96073 233.83277 231.71181 229.74986 227.91890
 226.21395 224.69799 223.34004 222.12408 221.01813 219.99017 219.10622 218.25926
 217.51331 216.70535 215.81540 215.19144 214.65349 215.25958 216.69725 217.85789
 219.32616 221.22182 222.51292 222.14841 220.89560 220.40636 221.17174 223.38666
 226.64996 231.05482 235.89120 240.64639 245.18738 249.45592 253.35686 256.82037
 259.96240 262.83603 265.41159 267.70193 269.66861 271.38287 273.05692 274.63104
 275.90225 277.43622 279.15823 280.67032 281.97888 283.13663 284.19287 285.14978
 286.01041 286.77679 287.44632 288.29953
 366.78100 356.34712 345.79124 334.66936 323.08448 311.29060 299.17272 286.98784
 274.71196 262.62109 250.64221 239.95533 230.08945 221.20557 213.39969 206.41381
 200.25993 195.21005 191.80417 189.85829 188.90741 188.98353 189.83065 191.15077
 192.88789 194.99501 197.27013 199.64126 202.09838 204.59050 206.69062 208.54474
 210.18286 211.33998 211.58110 211.82122 211.77034 211.48746 211.13258 210.77470
 210.40382 210.12594 209.94606 209.82218 209.76230 210.10543 210.50355 210.90467
 211.70979 212.89991 214.16203 215.95715 217.89727 219.95239 222.05951 224.15463
 226.22675 228.32287 230.43199 232.55011 234.69123 236.87535 239.14348 241.52560
 244.15872 246.42184 248.43596 250.21308 251.64220 252.77732 253.61144 253.93956
 253.98868 253.77480 253.14692 252.10704 250.72516 248.89828 246.81940 244.66452
 242.46765 240.28377 238.11589 235.96701 233.83913 231.71825 229.75637 227.92549
 226.22061 224.70473 223.34685 222.13097 221.02509 219.99721 219.11333 218.26645
 217.52057 216.71269 215.82282 215.19894 214.66106 215.25003 216.66068 217.86484
 219.25951 221.11804 222.34599 222.01489 220.81793 220.19347 220.95554 223.47012
 226.80130 231.18469 236.02048 240.81238 245.36168 249.62425 253.51651 256.95862
 260.03076 262.86493 265.44638 267.71634 269.68866 271.44699 273.22012 274.84229
 276.00278 276.91599 278.44519 279.94305 281.23932 282.38617 283.43253 284.38043
 285.23297 285.99216 286.65536 287.50058
 366.78100 356.34677 345.79054 334.66831 323.08308 311.28885 299.17062 286.98539
 274.70916 262.61793 250.63869 239.95146 230.08523 221.20100 213.39477 206.40854
 200.25431 195.20408 191.79785 189.85162 188.90039 188.97616 189.82293 191.14270
 192.87947 194.98624 197.26101 199.63178 202.08854 204.58031 206.68008 208.53385
 210.17162 211.32839 211.56916 211.80893 211.75770 211.47447 211.11924 210.76101
 210.38978 210.11155 209.93132 209.80709 209.74686 210.08963 210.48740 210.88816
 211.69293 212.88270 214.14447 215.93924 217.87901 219.93378 222.04055 224.13532
 226.20709 228.30286 230.41163 232.52940 234.67017 236.85394 239.12171 241.50348
 244.13625 246.39901 248.41278 250.18955 251.61832 252.75309 253.58686 253.91463
 253.96340 253.74917 253.12094 252.08071 250.69848 248.87125 246.79202 244.63679
 242.43956 240.25533 238.08710 235.93787 233.80963 231.68840 229.72617 227.89494
 226.18971 224.67348 223.31525 222.09902 220.99279 219.96456 219.08033 218.23310
 217.48687 216.67864 215.78841 215.16418 214.62595 215.21231 216.61615 217.88232
 219.14241 220.92358 222.13164 221.77531 220.60461 219.92596 220.92055 223.48241
 226.97343 231.31186 236.14180 240.94463 245.50485 249.76047 253.64093 257.07578
 260.10089 262.86469 265.42053 267.70181 269.71094 271.51382 273.24585 274.81039
 275.95575 276.76794 277.48053 278.46930 279.64310 280.74997 281.75980 282.67465
 283.49744 284.23016 284.87024 285.68594
 366.78100 356.34644 345.78988 334.66733 323.08177 311.28721 299.16865 286.98310
 274.70654 262.61498 250.63542 239.94787 230.08131 221.19675 213.39019 206.40363
 200.24908 195.19852 191.79196 189.84540 188.89385 188.96929 189.81573 191.13517
 192.87162 194.97806 197.25250 199.62294 202.07938 204.57083 206.67027 208.52371
 210.16115 211.31760 211.55804 211.79748 211.74592 211.46237 211.10681 210.74825
 210.37669 210.09813 209.91758 209.79302 209.73246 210.07490 210.47235 210.87279
 211.67723 212.86667 214.12812 215.92256 217.86200 219.91644 222.02288 224.11733
 226.18877 228.28421 230.39265 232.51010 234.65054 236.83398 239.10142 241.48287
 244.11531 246.37775 248.39119 250.16763 251.59608 252.73052 253.56396 253.89140
 253.93985 253.72529 253.09673 252.05617 250.67362 248.84606 246.76650 244.61094
 242.41338 240.22883 238.06027 235.91071 233.78215 231.66060 229.69804 227.86648
 226.16092 224.64437 223.28581 222.06925 220.96269 219.93414 219.04958 218.20202
 217.45546 216.64690 215.75635 215.13179 214.59323 215.17873 216.57381 217.91402
 219.08167 220.67741 222.00745 221.61761 220.27299 219.52728 220.79417 223.32790
 227.05179 231.39577 236.26062 241.07976 245.64714 249.89668 253.76784 257.20294
 260.21545 262.91422 265.41818 267.70471 269.71881 271.55487 273.29605 274.85281
 275.99918 276.73218 277.26572 277.74182 278.40454 279.34467 280.34653 281.26898
 282.09863 282.83746 283.48285 284.30536
 366.78100 356.34509 345.78719 334.66328 323.07637 311.28046 299.16056 286.97365
 274.69574 262.60283 250.62193 239.93302 230.06511 221.17920 213.37130 206.38339
 200.22748 195.17558 191.76767 189.81976 188.86685 188.94095 189.78604 191.10413
 192.83922 194.94432 197.21741 199.58650 202.04159 204.53169 206.62978 208.48187
 210.11797 211.27306 211.51215 211.75024 211.69734 211.41243 211.05552 210.69561
 210.32271 210.04280 209.86089 209.73498 209.67308 210.01417 210.41026 210.80936
 211.61245 212.80054 214.06063 215.85373 217.79182 219.84491 221.95000 224.04310
 226.11319 228.20728 230.31437 232.43047 234.56956 236.75165 239.01775 241.39784
 244.02893 246.29002 248.30212 250.07721 251.50430 252.63739 253.46949 253.79558
 253.84267 253.62677 252.99686 251.95495 250.57104 248.74214 246.66123 244.50432
 242.30541 240.11951 237.94960 235.79869 233.66878 231.54588 229.58197 227.74906
 226.04216 224.52425 223.16434 221.94643 220.83853 219.80862 218.92271 218.07380
 217.32590 216.51599 215.62408 214.99817 214.45827 215.10422 216.63354 217.85815
 219.12236 220.64575 221.93329 221.54286 220.03323 219.23323 220.58145 223.25758
 227.10631 231.49988 236.38197 241.22090 245.79898 250.04842 253.92943 257.39130
 260.42938 263.10239 265.48459 267.64560 269.64944 271.53091 273.31964 274.86810
 275.96832 276.68802 277.08679 277.35724 278.04419 278.86221 279.84128 280.76804
 281.60156 282.34381 282.99225 283.81857
 354.97500 345.04800 334.58700 324.11500 313.32600 302.53700 291.65000 280.76700
 269.93100 259.19300 248.62200 238.61700 229.08700 220.35500 212.54000 205.53500
 199.46400 194.49300 191.14300 189.19000 188.08900 188.01400 188.72400 189.90600
 191.46900 193.38200 195.40300 197.55600 199.80700 202.06000 204.28800 206.47900
 208.55200 210.37800 212.02500 213.65900 214.99800 216.11800 217.17200 218.25900
 219.49400 220.64500 221.67900 222.61400 223.54500 224.98200 226.57100 228.19000
 229.79700 231.81100 233.86500 235.97200 238.24200 240.55300 242.89900 245.25300
 247.48800 249.53500 251.36600 252.84800 254.09800 255.16700 256.02700 256.25300
 256.09500 255.54300 253.93500 252.56600 251.38400 250.24500 249.05200 247.70100
 246.01600 243.99600 241.78400 239.39300 236.81300 234.22300 231.65800 229.14400
 226.74000 224.47300 222.33500 220.32500 218.44000 216.67700 214.96200 213.47200
 212.20000 211.10800 210.26000 209.63900 209.24400 209.03100 209.05800 209.33300
 209.78400 210.62600 211.33100 212.39100 213.62500 214.84668 217.72949 219.47640
 220.32566 220.86828 220.88710 220.27371 219.43733 218.84250 219.04934 220.86203
 222.60583 225.72206 229.03064 232.61777 236.12270 239.51333 242.70767 245.68587
 248.41061 250.90679 253.19353 254.91714 256.48655 257.94920 259.39966 260.69384
 261.81714 262.77997 263.71679 264.54570 265.26305 265.89772 266.47676 267.00133
 267.47312 267.89325 268.26027 268.72800
