|-------------------------------------------------------------------------|
|   File Name : in_temp.dat
|   Subject   : temperature profiles used for initial guess atmosphere
|   File Type : input of gmtr
|   Data Type : atmospherical data
|   Author/s  : WRF-Chem
|   Date      : Fri Jul 26 15:39:24 2024
|-------------------------------------------------------------------------|

 WRF-Chem temperature
#
 values of T (K)    (8f10.5)
#
 354.97500 345.04800 334.58700 324.11500 313.32600 302.53700 291.65000 280.76700
 269.93100 259.19300 248.62200 238.61700 229.08700 220.35500 212.54000 205.53500
 199.46400 194.49300 191.14300 189.19000 188.08900 188.01400 188.72400 189.90600
 191.46900 193.38200 195.40300 197.55600 199.80700 202.06000 204.28800 206.47900
 208.55200 210.37800 212.02500 213.65900 214.99800 216.11800 217.17200 218.25900
 219.49400 220.64500 221.67900 222.61400 223.54500 224.98200 226.57100 228.19000
 229.79700 231.81100 233.86500 235.97200 238.24200 240.55300 242.89900 245.25300
 247.48800 249.53500 251.36600 252.84800 254.09800 255.16700 256.02700 256.25300
 256.09500 255.54300 253.93500 252.56600 251.38400 250.24500 249.05200 247.70100
 246.01600 243.99600 241.78400 239.39300 236.81300 234.22300 231.65800 229.14400
 226.74000 224.47300 222.33500 220.32500 218.44000 216.67700 214.96200 213.47200
 212.20000 211.10800 210.26000 209.63900 209.24400 209.03100 209.05800 209.33300
 209.78400 210.62600 211.33100 212.39100 213.62500 214.84668 217.72949 219.47640
 220.32566 220.86828 220.88710 220.27371 219.43733 218.84250 219.04934 220.86203
 222.60583 225.72206 229.03064 232.61777 236.12270 239.51333 242.70767 245.68587
 248.41061 250.90679 253.19353 254.91714 256.48655 257.94920 259.39966 260.69384
 261.81714 262.77997 263.71679 264.54570 265.26305 265.89772 266.47676 267.00133
 267.47312 267.89325 268.26027 268.72800
 366.78100 356.33500 345.76700 334.63300 323.03600 311.23000 299.10000 286.90300
 274.61500 262.51200 250.52100 239.82200 229.94400 221.04800 213.23000 206.23200
 200.06600 195.00400 191.58600 189.62800 188.66500 188.72900 189.56400 190.87200
 192.59700 194.69200 196.95500 199.31400 201.75900 204.23900 206.32700 208.16900
 209.79500 210.94000 211.16900 211.39700 211.33400 211.03900 210.67200 210.30200
 209.91900 209.62900 209.43700 209.30100 209.22900 209.56000 209.94600 210.33500
 211.12800 212.30600 213.55600 215.33900 217.26700 219.31000 221.40500 223.48800
 225.54800 227.63200 229.72900 231.83500 233.96400 236.13600 238.39200 240.76200
 243.38300 245.63400 247.63600 249.40100 250.81800 251.94100 252.76300 253.07900
 253.11600 252.89000 252.25000 251.19800 249.80400 247.96500 245.87400 243.70700
 241.49800 239.30200 237.12200 234.96100 232.82100 230.68800 228.71400 226.87100
 225.15400 223.62600 222.25600 221.02800 219.91000 218.87000 217.97400 217.11500
 216.35700 215.53700 214.63500 213.99900 213.44900 212.85855 212.01316 212.61654
 214.26826 216.08686 218.14273 220.53346 223.40855 226.78828 231.49734 235.90155
 239.42278 243.28576 247.23140 251.11907 254.80144 258.23331 261.38913 264.27520
 266.89312 269.26852 271.44504 273.08845 274.58484 275.98591 277.39845 278.65879
 279.75272 280.69038 281.56708 282.34086 283.01050 283.60295 284.14348 284.63317
 285.07358 285.46577 285.80838 286.24500
 381.81900 372.39900 361.20600 349.77600 337.62200 324.85300 311.81000 298.35300
 284.86000 271.32400 258.56100 246.30400 236.08700 226.79600 218.44800 211.29000
 205.52200 200.89400 197.38100 194.84800 193.01500 192.31500 192.25000 192.43100
 192.91200 193.53700 194.13600 194.71200 195.26200 195.83100 196.39300 196.97600
 197.60400 198.14900 198.58400 199.05700 199.69500 200.37800 201.05400 201.70800
 202.31300 202.85700 203.35500 203.86200 204.56900 205.29700 206.02600 206.98700
 208.19300 209.44100 210.96900 212.57600 214.46200 216.51300 218.63000 220.85300
 223.34100 225.96200 228.73900 231.69700 234.70600 237.70600 240.69200 243.65700
 246.73700 249.69900 252.52100 255.06300 257.29000 259.23300 260.63300 261.68000
 262.46100 262.79800 262.69100 262.22400 261.06900 259.52500 257.70700 255.50700
 253.00100 250.30200 247.39800 244.45200 241.65400 239.05400 236.73300 234.59000
 232.59500 230.72500 228.83400 226.82600 224.66600 222.38700 220.10400 217.71500
 215.45900 213.06600 210.54600 208.09300 205.35400 202.08130 196.05959 200.71215
 209.01611 216.90438 223.84126 229.78593 235.00632 240.20838 245.98943 250.68668
 254.32982 257.93487 261.55666 264.96801 268.15192 271.06452 273.76717 276.25691
 278.57680 280.74479 282.77456 284.60533 286.27232 287.81705 289.31715 290.65561
 291.81734 292.81312 293.70701 294.49387 295.17482 295.77730 296.32696 296.82492
 297.27278 297.67160 298.02000 298.46400
 399.33000 389.90700 379.81300 368.66800 357.52200 345.30100 333.07400 320.22700
 307.21600 293.84800 280.37600 267.29600 254.61000 242.98700 232.15100 221.97700
 212.67200 204.28600 197.66900 192.82100 189.48600 187.45200 186.81400 187.08900
 187.78100 189.05400 190.64800 192.54200 194.63000 196.75200 198.67100 200.15800
 201.53500 202.48700 202.97500 203.34000 203.53900 203.49700 203.38500 203.24700
 203.00500 202.78600 202.60300 202.43700 202.42600 202.88800 203.42000 203.95100
 204.89500 205.99200 207.30100 208.95800 210.73800 213.10000 215.56400 218.18000
 220.96600 223.91800 226.96100 230.09200 233.29300 236.55700 239.95500 243.53700
 246.84500 249.39000 251.54200 253.47400 255.19500 256.48400 257.43100 258.05900
 258.21200 258.04000 257.58200 256.64300 255.23900 253.50700 251.40800 249.05600
 246.57600 243.99400 241.38900 238.83000 236.34400 233.98600 231.96900 230.11800
 228.42300 226.89900 225.54800 224.29700 223.10500 221.96500 220.95800 220.11300
 219.49000 218.92000 218.32500 217.88100 217.42300 216.96366 216.35568 216.80261
 217.73415 218.28582 218.64258 219.10077 220.44626 222.53987 226.38451 230.35736
 233.59734 237.39164 241.29814 245.22796 248.98002 252.51130 255.78595 258.80109
 261.54781 264.05210 266.34239 268.04198 269.58951 271.01303 272.35754 273.55718
 274.59842 275.49092 276.28989 276.99307 277.60161 278.14001 278.63122 279.07623
 279.47646 279.83287 280.14422 280.54100
 399.73800 389.78500 379.66200 368.15100 356.64100 344.35000 331.79200 318.88800
 305.72600 292.49300 279.20900 266.73800 254.69600 244.21100 234.45700 225.43300
 217.56900 210.45100 204.30000 199.30600 195.45800 192.57600 191.02700 190.38600
 190.23900 190.53400 191.16600 191.92500 192.79500 193.76600 194.73200 195.31200
 195.80000 196.05200 196.11500 196.11500 196.03900 195.72300 195.34000 194.98900
 194.75100 194.79200 195.13300 195.59800 196.50600 198.13600 199.85800 201.56600
 204.17900 206.82300 209.89300 213.28400 216.82800 220.60500 224.38700 228.20900
 232.03200 235.82500 239.56000 243.25800 246.84500 250.20100 253.70900 257.46800
 261.53000 264.22100 266.60100 268.68100 270.32900 271.74100 272.83600 273.47400
 273.89800 274.00200 273.75700 273.28800 272.37100 271.10000 269.58900 267.77900
 265.81600 263.72100 261.39300 258.91600 256.29800 253.42300 250.33100 247.11400
 243.83700 240.52900 237.24900 233.99900 230.72800 227.51500 224.25400 220.95200
 217.62700 213.65600 210.12100 206.78900 204.01000 201.99491 199.07309 198.76551
 199.40006 200.48994 201.46112 202.31912 203.45100 204.96110 207.47502 210.85391
 213.70530 217.29629 220.99574 224.72316 228.28753 231.64854 234.68024 237.40893
 239.70644 241.60899 243.46854 245.67368 247.68154 249.52395 251.24767 252.78566
 254.12057 255.26479 256.23740 257.09036 257.82852 258.48160 259.07744 259.61723
 260.10271 260.53504 260.91270 261.39400
 399.73800 389.78500 379.66200 368.15100 356.64100 344.35000 331.79200 318.88800
 305.72600 292.49300 279.20900 266.73800 254.69600 244.21100 234.45700 225.43300
 217.56900 210.45100 204.30000 199.30600 195.45800 192.57600 191.02700 190.38600
 190.23900 190.53400 191.16600 191.92500 192.79500 193.76600 194.73200 195.31200
 195.80000 196.05200 196.11500 196.11500 196.03900 195.72300 195.34000 194.98900
 194.75100 194.79200 195.13300 195.59800 196.50600 198.13600 199.85800 201.56600
 204.17900 206.82300 209.89300 213.28400 216.82800 220.60500 224.38700 228.20900
 232.03200 235.82500 239.56000 243.25800 246.84500 250.20100 253.70900 257.46800
 261.53000 264.22100 266.60100 268.68100 270.32900 271.74100 272.83600 273.47400
 273.89800 274.00200 273.75700 273.28800 272.37100 271.10000 269.58900 267.77900
 265.81600 263.72100 261.39300 258.91600 256.29800 253.42300 250.33100 247.11400
 243.83700 240.52900 237.24900 233.99900 230.72800 227.51500 224.25400 220.95200
 217.62700 213.65600 210.12100 206.78900 204.01000 201.99491 199.07309 198.76551
 199.40006 200.48994 201.46112 202.31912 203.45100 204.96110 207.47502 210.85391
 213.70530 217.29629 220.99574 224.72316 228.28753 231.64854 234.68024 237.40893
 239.70644 241.60899 243.46854 245.67368 247.68154 249.52395 251.24767 252.78566
 254.12057 255.26479 256.23740 257.09036 257.82852 258.48160 259.07744 259.61723
 260.10271 260.53504 260.91270 261.39400
 399.33000 389.90700 379.81300 368.66800 357.52200 345.30100 333.07400 320.22700
 307.21600 293.84800 280.37600 267.29600 254.61000 242.98700 232.15100 221.97700
 212.67200 204.28600 197.66900 192.82100 189.48600 187.45200 186.81400 187.08900
 187.78100 189.05400 190.64800 192.54200 194.63000 196.75200 198.67100 200.15800
 201.53500 202.48700 202.97500 203.34000 203.53900 203.49700 203.38500 203.24700
 203.00500 202.78600 202.60300 202.43700 202.42600 202.88800 203.42000 203.95100
 204.89500 205.99200 207.30100 208.95800 210.73800 213.10000 215.56400 218.18000
 220.96600 223.91800 226.96100 230.09200 233.29300 236.55700 239.95500 243.53700
 246.84500 249.39000 251.54200 253.47400 255.19500 256.48400 257.43100 258.05900
 258.21200 258.04000 257.58200 256.64300 255.23900 253.50700 251.40800 249.05600
 246.57600 243.99400 241.38900 238.83000 236.34400 233.98600 231.96900 230.11800
 228.42300 226.89900 225.54800 224.29700 223.10500 221.96500 220.95800 220.11300
 219.49000 218.92000 218.32500 217.88100 217.42300 216.96366 216.35568 216.80261
 217.73415 218.28582 218.64258 219.10077 220.44626 222.53987 226.38451 230.35736
 233.59734 237.39164 241.29814 245.22796 248.98002 252.51130 255.78595 258.80109
 261.54781 264.05210 266.34239 268.04198 269.58951 271.01303 272.35754 273.55718
 274.59842 275.49092 276.28989 276.99307 277.60161 278.14001 278.63122 279.07623
 279.47646 279.83287 280.14422 280.54100
 381.81900 372.39900 361.20600 349.77600 337.62200 324.85300 311.81000 298.35300
 284.86000 271.32400 258.56100 246.30400 236.08700 226.79600 218.44800 211.29000
 205.52200 200.89400 197.38100 194.84800 193.01500 192.31500 192.25000 192.43100
 192.91200 193.53700 194.13600 194.71200 195.26200 195.83100 196.39300 196.97600
 197.60400 198.14900 198.58400 199.05700 199.69500 200.37800 201.05400 201.70800
 202.31300 202.85700 203.35500 203.86200 204.56900 205.29700 206.02600 206.98700
 208.19300 209.44100 210.96900 212.57600 214.46200 216.51300 218.63000 220.85300
 223.34100 225.96200 228.73900 231.69700 234.70600 237.70600 240.69200 243.65700
 246.73700 249.69900 252.52100 255.06300 257.29000 259.23300 260.63300 261.68000
 262.46100 262.79800 262.69100 262.22400 261.06900 259.52500 257.70700 255.50700
 253.00100 250.30200 247.39800 244.45200 241.65400 239.05400 236.73300 234.59000
 232.59500 230.72500 228.83400 226.82600 224.66600 222.38700 220.10400 217.71500
 215.45900 213.06600 210.54600 208.09300 205.35400 202.08130 196.05959 200.71215
 209.01611 216.90438 223.84126 229.78593 235.00632 240.20838 245.98943 250.68668
 254.32982 257.93487 261.55666 264.96801 268.15192 271.06452 273.76717 276.25691
 278.57680 280.74479 282.77456 284.60533 286.27232 287.81705 289.31715 290.65561
 291.81734 292.81312 293.70701 294.49387 295.17482 295.77730 296.32696 296.82492
 297.27278 297.67160 298.02000 298.46400
 366.78100 356.33881 345.77463 334.64444 323.05125 311.24906 299.12288 286.92969
 274.64550 262.54631 250.55913 239.86394 229.98975 221.09757 213.28338 206.28919
 200.12700 195.06882 191.65463 189.70044 188.74126 188.80907 189.64788 190.95969
 192.68851 194.78732 197.05413 199.41694 201.86576 204.34957 206.44138 208.28720
 209.91701 211.06582 211.29863 211.53045 211.47126 211.18007 210.81689 210.45070
 210.07151 209.78532 209.59714 209.46495 209.39676 209.73157 210.12139 210.51420
 211.31101 212.49283 213.74664 215.53345 217.46526 219.51208 221.61089 223.69770
 225.76151 227.84933 229.95014 232.05995 234.19277 236.36858 238.62839 241.00220
 243.62702 245.88183 247.88764 249.65646 251.07727 252.20408 253.02989 253.34971
 253.39052 253.16833 252.53214 251.48396 250.09377 248.25858 246.17140 244.00821
 241.80302 239.61083 237.43465 235.27746 233.14127 231.01209 229.04190 227.20271
 225.48952 223.96534 222.59915 221.37496 220.26077 219.22459 218.33240 217.47721
 216.72303 215.90684 215.00865 214.37646 213.83028 212.92087 210.78131 209.97324
 210.34177 210.49773 211.77078 215.19141 219.53389 224.30417 230.05222 235.05698
 238.91042 242.91345 247.15541 251.31863 255.06516 258.49588 261.28333 263.62622
 266.42508 269.14169 271.70740 274.23474 276.35403 278.03900 279.36444 280.88324
 282.73456 284.50266 286.04605 287.40515 288.58237 289.62424 290.57358 291.43396
 292.20752 292.89148 293.49042 294.24707
 366.78100 356.33896 345.77493 334.64489 323.05186 311.24982 299.12378 286.93075
 274.64671 262.54768 250.56064 239.86560 229.99157 221.09953 213.28550 206.29146
 200.12942 195.07139 191.65735 189.70332 188.74428 188.81224 189.65121 190.96317
 192.69214 194.79110 197.05806 199.42103 201.86999 204.35396 206.44592 208.29188
 209.92185 211.07081 211.30378 211.53574 211.47670 211.18567 210.82263 210.45660
 210.07756 209.79152 209.60349 209.47145 209.40342 209.73838 210.12834 210.52131
 211.31827 212.50023 213.75420 215.54116 217.47313 219.52009 221.61905 223.70602
 225.76998 227.85795 229.95891 232.06887 234.20184 236.37780 238.63777 241.01173
 243.63669 245.89166 247.89762 249.66659 251.08755 252.21451 253.04048 253.36044
 253.40141 253.17937 252.54333 251.49530 250.10526 248.27023 246.18319 244.02015
 241.81512 239.62308 237.44705 235.29001 233.15397 231.02494 229.05490 227.21587
 225.50283 223.97879 222.61276 221.38872 220.27469 219.23865 218.34661 217.49158
 216.73754 215.92151 215.02347 214.39143 213.84540 212.95451 210.85820 210.07124
 210.34100 210.55641 211.80167 215.12930 219.48755 224.24850 229.96101 234.95941
 238.80919 242.81131 247.06311 251.23579 254.99153 258.45700 261.27435 263.62366
 266.41858 269.11963 271.65729 274.15237 276.26480 277.96460 279.31110 280.83545
 282.67407 284.42010 285.95883 287.31741 288.49551 289.53833 290.48831 291.34888
 292.12094 292.80951 293.40839 294.17175
 366.78100 356.33916 345.77532 334.64548 323.05264 311.25080 299.12496 286.93212
 274.64827 262.54943 250.56259 239.86775 229.99391 221.10207 213.28823 206.29439
 200.13255 195.07471 191.66087 189.70703 188.74819 188.81635 189.65550 190.96766
 192.69682 194.79598 197.06314 199.42630 201.87546 204.35962 206.45178 208.29794
 209.92810 211.07726 211.31042 211.54258 211.48373 211.19289 210.83005 210.46421
 210.08537 209.79953 209.61169 209.47985 209.41201 209.74717 210.13733 210.53049
 211.32765 212.50981 213.76396 215.55112 217.48328 219.53044 221.62960 223.71676
 225.78092 227.86908 229.97024 232.08040 234.21356 236.38972 238.64988 241.02404
 243.64919 245.90435 247.91051 249.67967 251.10083 252.22799 253.05415 253.37431
 253.41547 253.19363 252.55779 251.50995 250.12011 248.28527 246.19842 244.03558
 241.83074 239.63890 237.46306 235.30622 233.17038 231.04154 229.07170 227.23286
 225.52002 223.99618 222.63034 221.40650 220.29265 219.25681 218.36497 217.51013
 216.75629 215.94045 215.04261 214.41077 213.86493 212.98909 210.92795 210.17029
 210.35388 210.60976 211.84624 215.07985 219.41672 224.17648 229.87256 234.87086
 238.71877 242.71765 246.97485 251.15242 254.91513 258.41257 261.25726 263.61496
 266.40924 269.09628 271.60638 274.07040 276.17783 277.89545 279.26352 280.79242
 282.61792 284.33987 285.87158 287.23090 288.40945 289.45193 290.40344 291.26407
 292.03802 292.72617 293.32712 294.09647
 366.78100 356.33924 345.77548 334.64572 323.05296 311.25120 299.12544 286.93268
 274.64892 262.55016 250.56340 239.86864 229.99487 221.10311 213.28935 206.29559
 200.13383 195.07607 191.66231 189.70855 188.74979 188.81803 189.65727 190.96951
 192.69875 194.79799 197.06523 199.42847 201.87771 204.36195 206.45419 208.30043
 209.93067 211.07991 211.31314 211.54538 211.48662 211.19586 210.83310 210.46734
 210.08858 209.80282 209.61506 209.48330 209.41554 209.75078 210.14102 210.53426
 211.33150 212.51374 213.76798 215.55522 217.48746 219.53470 221.63394 223.72118
 225.78541 227.87365 229.97489 232.08513 234.21837 236.39461 238.65485 241.02909
 243.65433 245.90957 247.91581 249.68505 251.10629 252.23353 253.05977 253.38001
 253.42125 253.19949 252.56373 251.51597 250.12621 248.29145 246.20469 244.04192
 241.83716 239.64540 237.46964 235.31288 233.17712 231.04836 229.07860 227.23984
 225.52708 224.00332 222.63756 221.41380 220.30004 219.26428 218.37252 217.51776
 216.76400 215.94824 215.05048 214.41872 213.87296 213.01659 211.00087 210.26163
 210.38202 210.66138 211.88985 215.04167 219.33408 224.09982 229.78960 234.78664
 238.63020 242.62445 246.88492 251.06631 254.83696 258.36444 261.23474 263.60141
 266.39618 269.06976 271.55408 273.98758 276.09290 277.83057 279.22025 280.75311
 282.56476 284.26404 285.78964 287.14871 288.32663 289.36993 290.32324 291.18344
 291.95850 292.64664 293.24908 294.02176
 366.78100 356.33927 345.77553 334.64580 323.05307 311.25134 299.12560 286.93287
 274.64914 262.55041 250.56367 239.86894 229.99521 221.10348 213.28974 206.29601
 200.13428 195.07654 191.66281 189.70908 188.75035 188.81861 189.65788 190.97015
 192.69942 194.79868 197.06595 199.42922 201.87849 204.36275 206.45502 208.30129
 209.93155 211.08082 211.31409 211.54636 211.48762 211.19689 210.83416 210.46843
 210.08969 209.80396 209.61623 209.48449 209.41676 209.75203 210.14230 210.53556
 211.33283 212.51510 213.76937 215.55663 217.48890 219.53617 221.63544 223.72270
 225.78697 227.87524 229.97650 232.08677 234.22004 236.39631 238.65657 241.03084
 243.65611 245.91138 247.91764 249.68691 251.10818 252.23545 253.06171 253.38198
 253.42325 253.20151 252.56578 251.51805 250.12832 248.29358 246.20685 244.04412
 241.83939 239.64765 237.47192 235.31519 233.17946 231.05072 229.08099 227.24226
 225.52952 224.00579 222.64006 221.41633 220.30259 219.26686 218.37513 217.52040
 216.76666 215.95093 215.05320 214.42147 213.87573 213.04010 211.07280 210.35007
 210.42368 210.71373 211.92671 215.01189 219.24841 224.02019 229.71185 234.70280
 238.53937 242.52878 246.79327 250.97934 254.75912 258.31534 261.20731 263.58151
 266.37790 269.03967 271.49933 273.90424 276.01083 277.77048 279.18179 280.71692
 282.51456 284.19360 285.71268 287.07068 288.24896 289.29309 290.24561 291.10815
 291.88409 292.57077 293.17792 293.95071
 366.78100 356.33935 345.77569 334.64604 323.05338 311.25173 299.12607 286.93342
 274.64976 262.55111 250.56445 239.86980 229.99615 221.10449 213.29084 206.29718
 200.13553 195.07787 191.66422 189.71056 188.75191 188.82025 189.65960 190.97195
 192.70129 194.80064 197.06798 199.43133 201.88067 204.36502 206.45736 208.30371
 209.93405 211.08340 211.31675 211.54909 211.49044 211.19978 210.83713 210.47147
 210.09282 209.80716 209.61951 209.48785 209.42020 209.75555 210.14589 210.53924
 211.33658 212.51893 213.77327 215.56062 217.49296 219.54031 221.63965 223.72700
 225.79135 227.87969 229.98104 232.09138 234.22473 236.40107 238.66142 241.03576
 243.66111 245.91645 247.92280 249.69215 251.11349 252.24084 253.06718 253.38753
 253.42887 253.20722 252.57156 251.52391 250.13425 248.29960 246.21295 244.05029
 241.84564 239.65398 237.47833 235.32167 233.18602 231.05736 229.08771 227.24905
 225.53640 224.01274 222.64709 221.42344 220.30978 219.27413 218.38247 217.52782
 216.77416 215.95851 215.06085 214.42920 213.88354 213.06480 211.13696 210.44359
 210.47327 210.76665 211.95975 214.99028 219.16177 223.93575 229.63708 234.61890
 238.44673 242.43243 246.70146 250.89302 254.68338 258.26498 261.17349 263.55380
 266.35306 269.00449 271.44202 273.82040 275.93161 277.71475 279.14658 280.68369
 282.46844 284.13083 285.64273 287.00058 288.17886 289.22372 290.17749 291.03961
 291.81506 292.50510 293.10898 293.88870
 366.78100 356.33947 345.77594 334.64641 323.05389 311.25236 299.12683 286.93430
 274.65077 262.55224 250.56571 239.87119 229.99766 221.10613 213.29260 206.29907
 200.13754 195.08002 191.66649 189.71296 188.75443 188.82290 189.66237 190.97484
 192.70432 194.80379 197.07126 199.43473 201.88420 204.36867 206.46114 208.30762
 209.93809 211.08756 211.32103 211.55350 211.49497 211.20445 210.84192 210.47639
 210.09786 209.81233 209.62480 209.49327 209.42575 209.76122 210.15169 210.54516
 211.34263 212.52510 213.77957 215.56705 217.49952 219.54699 221.64646 223.73393
 225.79840 227.88687 229.98835 232.09882 234.23229 236.40876 238.66923 241.04370
 243.66918 245.92465 247.93112 249.70059 251.12206 252.24953 253.07600 253.39648
 253.43795 253.21642 252.58089 251.53336 250.14383 248.30930 246.22278 244.06025
 241.85572 239.66419 237.48866 235.33213 233.19660 231.06808 229.09855 227.26002
 225.54749 224.02396 222.65843 221.43491 220.32138 219.28585 218.39432 217.53979
 216.78626 215.97073 215.07321 214.44168 213.89615 213.09061 211.19376 210.54094
 210.53180 210.82239 211.99118 214.97359 219.07330 223.84862 229.56386 234.53357
 238.35370 242.33690 246.60985 250.80684 254.60934 258.21359 261.13455 263.51953
 266.32324 268.96500 271.38162 273.73740 275.85498 277.66406 279.11441 280.65414
 282.42685 284.07419 285.58179 286.93964 288.11832 289.16214 290.11560 290.97919
 291.75473 292.44461 293.05005 293.82843
 366.78100 356.33969 345.77638 334.64707 323.05476 311.25346 299.12815 286.93584
 274.65253 262.55422 250.56791 239.87360 230.00029 221.10899 213.29568 206.30237
 200.14106 195.08375 191.67044 189.71713 188.75882 188.82752 189.66721 190.97990
 192.70959 194.80928 197.07697 199.44066 201.89035 204.37505 206.46774 208.31443
 209.94512 211.09481 211.32850 211.56119 211.50288 211.21257 210.85027 210.48496
 210.10665 209.82134 209.63403 209.50272 209.43541 209.77110 210.16180 210.55549
 211.35318 212.53587 213.79056 215.57825 217.51094 219.55863 221.65833 223.74602
 225.81071 227.89940 230.00109 232.11178 234.24547 236.42216 238.68286 241.05755
 243.68324 245.93893 247.94562 249.71531 251.13700 252.26469 253.09138 253.41208
 253.45377 253.23246 252.59715 251.54984 250.16053 248.32622 246.23991 244.07761
 241.87330 239.68199 237.50668 235.35037 233.21506 231.08675 229.11744 227.27914
 225.56683 224.04352 222.67821 221.45490 220.34159 219.30628 218.41497 217.56067
 216.80736 215.99205 215.09474 214.46343 213.91812 213.12001 211.24066 210.63805
 210.60448 210.88132 212.02112 214.96252 218.98274 223.75554 229.48843 234.44479
 238.25948 242.24168 246.51833 250.72047 254.53616 258.16046 261.09067 263.47791
 266.28833 268.92239 271.31915 273.65454 275.78125 277.61703 279.08557 280.62689
 282.38943 284.02454 285.52884 286.88690 288.06583 289.10999 290.06320 290.92633
 291.70227 292.39264 292.99713 293.77475
 366.78100 356.34027 345.77753 334.64880 323.05706 311.25633 299.13159 286.93986
 274.65712 262.55939 250.57365 239.87992 230.00718 221.11645 213.30372 206.31098
 200.15025 195.09351 191.68078 189.72804 188.77031 188.83957 189.67984 190.99310
 192.72337 194.82364 197.09190 199.45617 201.90643 204.39170 206.48496 208.33223
 209.96349 211.11376 211.34802 211.58129 211.52355 211.23382 210.87209 210.50735
 210.12962 209.84488 209.65815 209.52741 209.46068 209.79694 210.18821 210.58247
 211.38074 212.56400 213.81927 215.60754 217.54080 219.58907 221.68933 223.77760
 225.84286 227.93213 230.03439 232.14566 234.27992 236.45719 238.71845 241.09372
 243.71999 245.97625 247.98352 249.75378 251.17605 252.30431 253.13158 253.45284
 253.49511 253.27437 252.63964 251.59291 250.20417 248.37044 246.28470 244.12297
 241.91923 239.72850 237.55376 235.39803 233.26329 231.13556 229.16682 227.32909
 225.61736 224.09462 222.72989 221.50715 220.39442 219.35968 218.46895 217.61521
 216.86248 216.04774 215.15101 214.52027 213.97554 213.16629 211.26108 210.74840
 210.68733 210.94112 212.05655 214.94777 218.89478 223.65520 229.41165 234.35391
 238.16464 242.14818 246.42763 250.63411 254.46329 258.10568 261.04169 263.43060
 266.25000 268.87729 271.25443 273.57120 275.71106 277.57336 279.05881 280.60135
 282.35498 283.98160 285.48337 286.84186 288.02063 289.06482 290.01752 290.88031
 291.65637 292.34723 292.95200 293.73273
 366.78100 356.34063 345.77826 334.64989 323.05852 311.25815 299.13378 286.94240
 274.66003 262.56266 250.57729 239.88392 230.01155 221.12118 213.30881 206.31644
 200.15607 195.09970 191.68733 189.73495 188.77758 188.84721 189.68784 191.00147
 192.73210 194.83273 197.10136 199.46599 201.91662 204.40225 206.49588 208.34350
 209.97513 211.12576 211.36039 211.59402 211.53665 211.24728 210.88591 210.52154
 210.14417 209.85980 209.67343 209.54305 209.47668 209.81331 210.20494 210.59957
 211.39820 212.58183 213.83746 215.62609 217.55972 219.60835 221.70898 223.79760
 225.86323 227.95286 230.05549 232.16712 234.30175 236.47938 238.74101 241.11664
 243.74327 245.99990 248.00753 249.77815 251.20078 252.32941 253.15704 253.47867
 253.52130 253.30093 252.66656 251.62019 250.23182 248.39845 246.31308 244.15170
 241.94833 239.75796 237.58359 235.42822 233.29385 231.16648 229.19811 227.36074
 225.64937 224.12700 222.76263 221.54025 220.42788 219.39351 218.50314 217.64977
 216.89740 216.08303 215.18666 214.55629 214.01192 213.20164 211.29390 210.83412
 210.79698 211.01709 212.07420 214.93948 218.81749 223.54657 229.32811 234.25626
 238.06561 242.05260 246.33530 250.54706 254.39342 258.05411 260.99600 263.38303
 266.21085 268.83093 271.18683 273.48566 275.63974 277.52805 279.02747 280.57425
 282.32233 283.94034 285.44525 286.80377 287.98251 289.02634 289.97910 290.84174
 291.61761 292.30853 292.91541 293.69284
 366.78100 356.34169 345.78038 334.65308 323.06277 311.26346 299.14015 286.94984
 274.66854 262.57223 250.58792 239.89561 230.02431 221.13500 213.32369 206.33238
 200.17307 195.11777 191.70646 189.75515 188.79884 188.86953 189.71123 191.02592
 192.75761 194.85930 197.12899 199.49469 201.94638 204.43307 206.52776 208.37646
 210.00915 211.16084 211.39653 211.63122 211.57492 211.28661 210.92630 210.56299
 210.18668 209.90338 209.71807 209.58876 209.52345 209.86114 210.25384 210.64953
 211.44922 212.63391 213.89060 215.68030 217.61499 219.66468 221.76637 223.85607
 225.92276 228.01345 230.11714 232.22983 234.36553 236.54422 238.80691 241.18360
 243.81129 246.06899 248.07768 249.84937 251.27306 252.40275 253.23145 253.55414
 253.59783 253.37852 252.74522 251.69991 250.31260 248.48029 246.39598 244.23568
 242.03337 239.84406 237.67075 235.51644 233.38314 231.25683 229.28952 227.45321
 225.74290 224.22160 222.85829 221.63698 220.52567 219.49237 218.60306 217.75075
 216.99944 216.18613 215.29083 214.66152 214.11821 213.27080 211.27614 210.95189
 210.92339 211.08600 212.12987 214.90605 218.69359 223.42601 229.24687 234.16048
 237.96931 241.96179 246.24867 250.46817 254.33260 258.00998 260.95444 263.33313
 266.16769 268.77722 271.11240 273.39471 275.56506 277.48004 278.99203 280.54614
 282.29028 283.90393 285.41190 286.77042 287.94885 288.99292 289.94299 290.80670
 291.58188 292.27197 292.87662 293.65701
 366.78100 356.34355 345.78410 334.65864 323.07019 311.27274 299.15129 286.96284
 274.68339 262.58893 250.60648 239.91603 230.04658 221.15913 213.34967 206.36022
 200.20277 195.14932 191.73987 189.79042 188.83596 188.90851 189.75206 191.06861
 192.80216 194.90570 197.17725 199.54480 201.99835 204.48690 206.58345 208.43399
 210.06854 211.22209 211.45964 211.69619 211.64173 211.35528 210.99683 210.63538
 210.26093 209.97948 209.79602 209.66857 209.60512 209.94467 210.33922 210.73676
 211.53831 212.72486 213.98341 215.77496 217.71151 219.76305 221.86660 223.95815
 226.02670 228.11925 230.22479 232.33934 234.47689 236.65744 238.92199 241.30054
 243.93008 246.18963 248.20018 249.97373 251.39928 252.53082 253.36137 253.68592
 253.73147 253.51402 252.88257 251.83911 250.45366 248.62321 246.54076 244.38231
 242.18185 239.99440 237.82295 235.67050 233.53905 231.41460 229.44914 227.61469
 225.90624 224.38679 223.02534 221.80588 220.69643 219.66498 218.77753 217.92708
 217.17763 216.36617 215.47272 214.84527 214.30382 213.38177 211.21179 211.03307
 211.19295 211.17844 212.01154 214.84509 218.63368 223.31810 229.16740 234.06798
 237.88095 241.88066 246.17068 250.39682 254.27769 257.96649 260.90598 263.27408
 266.11520 268.71469 271.03079 273.30096 275.49200 277.43253 278.95691 280.51852
 282.26080 283.86905 285.38382 286.74100 287.92020 288.96063 289.91351 290.77463
 291.54953 292.23865 292.84216 293.62338
 366.78100 356.34445 345.78590 334.66135 323.07380 311.27725 299.15670 286.96915
 274.69060 262.59705 250.61550 239.92595 230.05740 221.17085 213.36230 206.37375
 200.21720 195.16465 191.75610 189.80755 188.85400 188.92745 189.77190 191.08935
 192.82380 194.92825 197.20070 199.56915 202.02360 204.51305 206.61050 208.46195
 210.09740 211.25185 211.49030 211.72775 211.67420 211.38865 211.03110 210.67055
 210.29700 210.01646 209.83391 209.70736 209.64481 209.98526 210.38071 210.77916
 211.58161 212.76906 214.02851 215.82096 217.75841 219.81086 221.91531 224.00776
 226.07721 228.17066 230.27711 232.39256 234.53101 236.71246 238.97791 241.35736
 243.98781 246.24826 248.25971 250.03416 251.46061 252.59306 253.42451 253.74996
 253.79641 253.57986 252.94931 251.90676 250.52221 248.69266 246.61111 244.45356
 242.25401 240.06746 237.89691 235.74536 233.61481 231.49126 229.52671 227.69316
 225.98561 224.46706 223.10651 221.88796 220.77941 219.74886 218.86231 218.01276
 217.26421 216.45366 215.56111 214.93456 214.39401 213.44856 211.22258 211.03107
 211.36435 211.34933 212.06500 214.76921 218.48325 223.20749 229.08902 233.98987
 237.80952 241.81389 246.10060 250.32886 254.22131 257.91476 260.84372 263.20374
 266.05444 268.64734 270.94852 273.21121 275.42511 277.39175 278.92706 280.49387
 282.23300 283.83627 285.35785 286.71646 287.89380 288.93555 289.88721 290.75037
 291.52649 292.21915 292.82401 293.59488
 366.78100 356.34483 345.78667 334.66250 323.07533 311.27916 299.15900 286.97183
 274.69366 262.60049 250.61933 239.93016 230.06199 221.17582 213.36766 206.37949
 200.22332 195.17115 191.76299 189.81482 188.86165 188.93548 189.78032 191.09815
 192.83298 194.93781 197.21065 199.57948 202.03431 204.52414 206.62198 208.47381
 210.10964 211.26447 211.50331 211.74114 211.68797 211.40280 211.04564 210.68547
 210.31230 210.03213 209.84997 209.72380 209.66163 210.00246 210.39830 210.79713
 211.59996 212.78779 214.04763 215.84046 217.77829 219.83112 221.93596 224.02879
 226.09862 228.19245 230.29929 232.41512 234.55395 236.73578 239.00162 241.38145
 244.01228 246.27311 248.28495 250.05978 251.48661 252.61944 253.45128 253.77711
 253.82394 253.60777 252.97761 251.93544 250.55127 248.72210 246.64094 244.48377
 242.28460 240.09843 237.92827 235.77710 233.64693 231.52376 229.55960 227.72643
 226.01926 224.50109 223.14093 221.92276 220.81459 219.78442 218.89826 218.04909
 217.30092 216.49075 215.59859 214.97242 214.43225 213.48790 211.26353 211.04088
 211.44365 211.45645 212.18925 214.73718 218.34779 223.12405 229.03464 233.93744
 237.75375 241.75282 246.02939 250.25511 254.15886 257.85388 260.77203 263.12878
 265.99149 268.57986 270.86786 273.12500 275.36377 277.35678 278.90155 280.47150
 282.20740 283.80286 285.33621 286.69440 287.87000 288.91217 289.86310 290.72543
 291.50238 292.19461 292.80017 293.56613
 366.78100 356.34540 345.78781 334.66421 323.07761 311.28201 299.16242 286.97582
 274.69822 262.60562 250.62503 239.93643 230.06883 221.18324 213.37564 206.38804
 200.23244 195.18085 191.77325 189.82565 188.87305 188.94746 189.79286 191.11126
 192.84667 194.95207 197.22547 199.59487 202.05028 204.54068 206.63908 208.49148
 210.12789 211.28329 211.52269 211.76110 211.70850 211.42390 211.06730 210.70771
 210.33511 210.05551 209.87391 209.74832 209.68672 210.02812 210.42453 210.82393
 211.62733 212.81573 214.07614 215.86954 217.80794 219.86134 221.96675 224.06015
 226.13055 228.22496 230.33236 232.44876 234.58816 236.77057 239.03697 241.41737
 244.04877 246.31018 248.32258 250.09798 251.52539 252.65879 253.49119 253.81759
 253.86500 253.64940 253.01980 251.97820 250.59461 248.76601 246.68541 244.52882
 242.33022 240.14462 237.97502 235.82443 233.69483 231.57223 229.60863 227.77604
 226.06944 224.55184 223.19225 221.97465 220.86705 219.83745 218.95186 218.10326
 217.35566 216.54606 215.65447 215.02887 214.48927 213.53566 211.28868 211.06441
 211.52910 211.53279 212.28221 214.72867 218.26506 223.05502 228.99359 233.88345
 237.68825 241.67990 245.94781 250.17297 254.09239 257.79074 260.70206 263.05765
 265.93134 268.51324 270.78717 273.04044 275.30322 277.32184 278.87424 280.44885
 282.18091 283.77225 285.31512 286.67334 287.84811 288.88895 289.83981 290.69974
 291.47870 292.16934 292.77390 293.53647
 366.78100 356.34605 345.78909 334.66614 323.08018 311.28523 299.16628 286.98032
 274.70337 262.61141 250.63146 239.94351 230.07655 221.19160 213.38464 206.39769
 200.24274 195.19178 191.78483 189.83787 188.88592 188.96097 189.80701 191.12606
 192.86210 194.96815 197.24220 199.61224 202.06829 204.55934 206.65838 208.51143
 210.14847 211.30452 211.54457 211.78361 211.73166 211.44770 211.09175 210.73280
 210.36084 210.08189 209.90093 209.77598 209.71503 210.05707 210.45412 210.85416
 211.65821 212.84726 214.10830 215.90235 217.84139 219.89544 222.00149 224.09553
 226.16658 228.26162 230.36967 232.48672 234.62676 236.80981 239.07685 241.45790
 244.08995 246.35199 248.36504 250.14108 251.56913 252.70318 253.53622 253.86327
 253.91131 253.69636 253.06741 252.02645 250.64350 248.81555 246.73559 244.57964
 242.38168 240.19673 238.02778 235.87782 233.74887 231.62691 229.66396 227.83201
 226.12605 224.60910 223.25014 222.03319 220.92624 219.89728 219.01233 218.16437
 217.41742 216.60847 215.71751 215.09256 214.55360 213.58710 211.30891 211.07785
 211.62091 211.62956 212.34720 214.72778 218.21768 222.98477 228.94928 233.81677
 237.60953 241.59946 245.86288 250.09157 254.02925 257.73251 260.63928 262.99197
 265.87198 268.44525 270.70587 272.95599 275.24246 277.28174 278.84146 280.42267
 282.15375 283.74405 285.29099 286.64981 287.82281 288.86362 289.81427 290.67249
 291.44934 292.13995 292.74402 293.50089
 366.78100 356.34668 345.79036 334.66804 323.08272 311.28840 299.17007 286.98475
 274.70843 262.61711 250.63779 239.95047 230.08415 221.19983 213.39351 206.40719
 200.25287 195.20255 191.79622 189.84990 188.89858 188.97426 189.82094 191.14062
 192.87730 194.98398 197.25866 199.62934 202.08602 204.57769 206.67737 208.53105
 210.16873 211.32541 211.56609 211.80577 211.75445 211.47113 211.11581 210.75749
 210.38617 210.10784 209.92752 209.80320 209.74288 210.08556 210.48324 210.88392
 211.68860 212.87828 214.13996 215.93464 217.87431 219.92899 222.03567 224.13035
 226.20203 228.29771 230.40639 232.52407 234.66475 236.84843 239.11611 241.49779
 244.13046 246.39314 248.40682 250.18350 251.61218 252.74686 253.58054 253.90822
 253.95690 253.74258 253.11426 252.07393 250.69161 248.86429 246.78497 244.62965
 242.43233 240.24801 238.07969 235.93037 233.80205 231.68073 229.71841 227.88708
 226.18176 224.66544 223.30712 222.09080 220.98448 219.95616 219.07184 218.22452
 217.47820 216.66988 215.77955 215.15523 214.61691 213.63791 211.32948 211.08446
 211.70378 211.74136 212.41220 214.73718 218.17639 222.91414 228.89742 233.74413
 237.52800 241.51985 245.78156 250.01556 253.97163 257.67804 260.58063 262.92850
 265.81091 268.37231 270.61954 272.87112 275.18130 277.23822 278.80569 280.39484
 282.12476 283.71722 285.26627 286.62515 287.79849 288.83926 289.78763 290.64764
 291.42496 292.11685 292.71848 293.47034
 366.78100 356.34737 345.79175 334.67012 323.08550 311.29187 299.17424 286.98962
 274.71399 262.62337 250.64474 239.95812 230.09249 221.20886 213.40324 206.41761
 200.26399 195.21436 191.80873 189.86311 188.91248 188.98886 189.83623 191.15661
 192.89398 195.00135 197.27673 199.64810 202.10548 204.59785 206.69822 208.55260
 210.19097 211.34835 211.58972 211.83010 211.77947 211.49684 211.14222 210.78459
 210.41397 210.13634 209.95671 209.83309 209.77346 210.11684 210.51521 210.91659
 211.72196 212.91233 214.17471 215.97008 217.91046 219.96583 222.07320 224.16858
 226.24095 228.33733 230.44670 232.56508 234.70645 236.89082 239.15920 241.54157
 244.17495 246.43832 248.45269 250.23007 251.65944 252.79482 253.62919 253.95757
 254.00694 253.79331 253.16569 252.12606 250.74444 248.91781 246.83918 244.68456
 242.48793 240.30431 238.13668 235.98806 233.86043 231.73980 229.77818 227.94755
 226.24293 224.72730 223.36967 222.15405 221.04842 220.02080 219.13717 218.29055
 217.54492 216.73729 215.84767 215.22404 214.68642 213.69176 211.34564 211.09038
 211.78215 211.85049 212.48816 214.75706 218.12842 222.84904 228.84123 233.67201
 237.44865 241.44319 245.70381 249.94403 253.91742 257.62570 260.52222 262.86682
 265.74759 268.29678 270.53299 272.78711 275.11826 277.19238 278.76660 280.36572
 282.09454 283.68942 285.24011 286.59897 287.77316 288.81229 289.75995 290.62231
 291.39767 292.08920 292.69058 293.43378
 366.78100 356.34815 345.79331 334.67246 323.08862 311.29577 299.17893 286.99508
 274.72024 262.63039 250.65255 239.96670 230.10186 221.21901 213.41417 206.42932
 200.27648 195.22763 191.82279 189.87794 188.92810 189.00525 189.85341 191.17456
 192.91272 195.02087 197.29703 199.66918 202.12734 204.62049 206.72165 208.57680
 210.21596 211.37411 211.61627 211.85742 211.80758 211.52573 211.17189 210.81504
 210.44520 210.16835 209.98951 209.86666 209.80782 210.15197 210.55113 210.95328
 211.75944 212.95059 214.21375 216.00990 217.95106 220.00721 222.11537 224.21152
 226.28468 228.38183 230.49199 232.61114 234.75330 236.93845 239.20761 241.59076
 244.22492 246.48907 248.50423 250.28238 251.71254 252.84869 253.68385 254.01300
 254.06316 253.85031 253.22347 252.18462 250.80378 248.97793 246.90009 244.74624
 242.55040 240.36755 238.20071 236.05286 233.92602 231.80617 229.84533 228.01548
 226.31164 224.79679 223.43995 222.22510 221.12026 220.09341 219.21057 218.36472
 217.61988 216.81303 215.92419 215.30134 214.76450 213.74960 211.35498 211.09811
 211.85545 211.95517 212.57732 214.78061 218.07373 222.79205 228.78500 233.59995
 237.37077 241.36818 245.62846 249.87567 253.86592 257.57379 260.46695 262.80707
 265.68402 268.21964 270.44690 272.70609 275.05722 277.14514 278.72998 280.33856
 282.06494 283.66025 285.21161 286.57001 287.74268 288.78073 289.72903 290.58771
 291.36453 292.05646 292.65326 293.39432
 366.78100 356.34895 345.79491 334.67486 323.09181 311.29976 299.18372 287.00067
 274.72662 262.63758 250.66053 239.97548 230.11143 221.22939 213.42534 206.44129
 200.28925 195.24120 191.83715 189.89310 188.94406 189.02201 189.87096 191.19292
 192.93187 195.04082 197.31777 199.69073 202.14968 204.64363 206.74559 208.60154
 210.24149 211.40044 211.64340 211.88535 211.83630 211.55526 211.20221 210.84616
 210.47711 210.20107 210.02302 209.90097 209.84292 210.18788 210.58783 210.99078
 211.79774 212.98969 214.25364 216.05059 217.99255 220.04950 222.15845 224.25541
 226.32936 228.42731 230.53826 232.65822 234.80117 236.98712 239.25708 241.64103
 244.27598 246.54093 248.55689 250.33584 251.76679 252.90375 253.73970 254.06965
 254.12060 253.90856 253.28251 252.24446 250.86442 249.03937 246.96232 244.80927
 242.61423 240.43218 238.26613 236.11909 233.99304 231.87399 229.91394 228.08490
 226.38185 224.86780 223.51176 222.29771 221.19366 220.16761 219.28557 218.44052
 217.69647 216.89043 216.00238 215.38033 214.84428 213.80794 211.36191 211.10820
 211.91783 212.06168 212.67357 214.79965 218.02370 222.74098 228.73001 233.52841
 237.29349 241.29337 245.55423 249.81058 253.81729 257.52380 260.41498 262.75391
 265.62186 268.14255 270.36267 272.62881 274.99756 277.09564 278.69083 280.30997
 282.03308 283.62982 285.17871 286.53723 287.70834 288.74390 289.69193 290.55051
 291.32559 292.01611 292.61307 293.34171
 366.78100 356.34971 345.79643 334.67714 323.09485 311.30357 299.18828 287.00599
 274.73270 262.64442 250.66813 239.98384 230.12056 221.23927 213.43598 206.45270
 200.30141 195.25412 191.85083 189.90755 188.95926 189.03797 189.88769 191.21040
 192.95011 195.05983 197.33754 199.71125 202.17096 204.66568 206.76839 208.62510
 210.26582 211.42553 211.66924 211.91196 211.86367 211.58338 211.23110 210.87581
 210.50752 210.23223 210.05495 209.93366 209.87637 210.22209 210.62280 211.02651
 211.83423 213.02694 214.29165 216.08936 218.03208 220.08979 222.19950 224.29722
 226.37193 228.47064 230.58236 232.70307 234.84678 237.03350 239.30421 241.68892
 244.32463 246.59035 248.60706 250.38677 251.81849 252.95620 253.79291 254.12363
 254.17534 253.96405 253.33876 252.30148 250.92219 249.09790 247.02162 244.86933
 242.67504 240.49376 238.32847 236.18218 234.05689 231.93861 229.97932 228.15103
 226.44875 224.93546 223.58017 222.36689 221.26360 220.23831 219.35703 218.51274
 217.76945 216.96416 216.07688 215.45559 214.92030 213.86414 211.37056 211.11993
 211.97292 212.16234 212.76842 214.81779 217.98019 222.69510 228.67754 233.45578
 237.21603 241.22192 245.48569 249.75317 253.77589 257.47992 260.36829 262.70639
 265.55884 268.06357 270.27914 272.55331 274.93680 277.04218 278.65063 280.28079
 282.00092 283.59717 285.14603 286.50076 287.66766 288.70197 289.64999 290.50711
 291.28479 291.97641 292.57718 293.30707
 366.78100 356.35039 345.79779 334.67918 323.09757 311.30697 299.19236 287.01076
 274.73815 262.65054 250.67494 239.99133 230.12872 221.24812 213.44551 206.46291
 200.31230 195.26569 191.86309 189.92048 188.97287 189.05227 189.90266 191.22606
 192.96645 195.07684 197.35524 199.72963 202.19002 204.68542 206.78881 208.64621
 210.28760 211.44799 211.69239 211.93578 211.88817 211.60857 211.25696 210.90236
 210.53475 210.26014 210.08354 209.96293 209.90632 210.25272 210.65411 211.05851
 211.86690 213.06029 214.32569 216.12408 218.06747 220.12587 222.23626 224.33466
 226.41005 228.50944 230.62184 232.74323 234.88762 237.07502 239.34641 241.73180
 244.36820 246.63459 248.65199 250.43238 251.86477 253.00317 253.84056 254.17195
 254.22435 254.01374 253.38914 252.35253 250.97392 249.15032 247.07471 244.92310
 242.72950 240.54889 238.38429 236.23868 234.11407 231.99647 230.03786 228.21025
 226.50865 224.99604 223.64144 222.42883 221.32622 220.30162 219.42101 218.57740
 217.83480 217.03019 216.14359 215.52298 214.98837 213.91629 211.38437 211.13350
 212.01845 212.25897 212.85803 214.82922 217.95557 222.65079 228.62317 233.38481
 237.14273 241.15347 245.42200 249.70213 253.73984 257.43903 260.32559 262.66287
 265.49466 267.98056 270.19482 272.48032 274.87637 276.99039 278.61551 280.25757
 281.97128 283.56543 285.10690 286.45950 287.62454 288.65829 289.60590 290.46677
 291.24664 291.94360 292.54919 293.28854
 366.78100 356.35089 345.79878 334.68067 323.09956 311.30945 299.19534 287.01423
 274.74212 262.65501 250.67990 239.99679 230.13468 221.25457 213.45246 206.47035
 200.32024 195.27413 191.87202 189.92991 188.98280 189.06269 189.91358 191.23747
 192.97835 195.08924 197.36813 199.74302 202.20391 204.69980 206.80369 208.66158
 210.30347 211.46436 211.70925 211.95314 211.90603 211.62692 211.27581 210.92170
 210.55459 210.28048 210.10437 209.98426 209.92815 210.27504 210.67693 211.08182
 211.89071 213.08460 214.35049 216.14938 218.09327 220.15216 222.26305 224.36194
 226.43783 228.53772 230.65061 232.77250 234.91739 237.10528 239.37717 241.76306
 244.39995 246.66684 248.68473 250.46562 251.89851 253.03740 253.87529 254.20718
 254.26006 254.04995 253.42584 252.38973 251.01162 249.18851 247.11340 244.96229
 242.76918 240.58907 238.42496 236.27985 234.15574 232.03863 230.08052 228.25341
 226.55230 225.04019 223.68608 222.47397 221.37186 220.34775 219.46764 218.62453
 217.88242 217.07831 216.19220 215.57209 215.03798 213.95860 211.40868 211.14311
 212.06508 212.34868 212.94360 214.84111 217.92599 222.60255 228.56828 233.31775
 237.07019 241.08421 245.35909 249.65369 253.70700 257.39911 260.28891 262.62537
 265.43341 267.89734 270.11215 272.41028 274.81833 276.94269 278.58926 280.24072
 281.94537 283.53680 285.06595 286.41537 287.57443 288.60818 289.55600 290.41730
 291.19757 291.89050 292.47739 293.19388
 366.78100 356.35140 345.79980 334.68220 323.10160 311.31200 299.19840 287.01780
 274.74620 262.65960 250.68500 240.00240 230.14080 221.26120 213.45960 206.47800
 200.32840 195.28280 191.88120 189.93960 188.99299 189.07339 189.92479 191.24919
 192.99059 195.10199 197.38139 199.75679 202.21819 204.71459 206.81899 208.67739
 210.31979 211.48119 211.72659 211.97099 211.92439 211.64579 211.29519 210.94159
 210.57499 210.30139 210.12579 210.00619 209.95059 210.29799 210.70039 211.10579
 211.91519 213.10959 214.37599 216.17539 218.11979 220.17919 222.29059 224.38999
 226.46639 228.56679 230.68018 232.80258 234.94798 237.13638 239.40878 241.79518
 244.43258 246.69998 248.71838 250.49978 251.93318 253.07258 253.91098 254.24338
 254.29678 254.08718 253.46358 252.42798 251.05038 249.22778 247.15318 245.00258
 242.80998 240.63038 238.46678 236.32218 234.19858 232.08198 230.12438 228.29778
 226.59718 225.08558 223.73198 222.52038 221.41878 220.39518 219.51558 218.67298
 217.93138 217.12777 216.24217 215.62257 215.08897 214.00058 211.42915 211.15614
 212.12582 212.43065 213.00076 214.85219 217.89790 222.55763 228.51331 233.24832
 236.99702 241.01590 245.29996 249.61197 253.68054 257.36514 260.25729 262.59622
 265.37143 267.80972 270.02841 272.34183 274.76001 276.89340 278.56476 280.22751
 281.92130 283.50693 285.02267 286.36948 287.52133 288.55359 289.50070 290.36267
 291.14526 291.83850 292.41888 293.12680
 366.78100 356.35179 345.80057 334.68336 323.10314 311.31393 299.20071 287.02050
 274.74928 262.66307 250.68885 240.00664 230.14542 221.26621 213.46499 206.48378
 200.33456 195.28935 191.88813 189.94692 189.00070 189.08149 189.93327 191.25806
 192.99984 195.11163 197.39141 199.76720 202.22898 204.72577 206.83056 208.68934
 210.33213 211.49391 211.73970 211.98448 211.93827 211.66005 211.30984 210.95662
 210.59041 210.31719 210.14198 210.02276 209.96755 210.31533 210.71812 211.12390
 211.93369 213.12847 214.39526 216.19504 218.13983 220.19961 222.31140 224.41118
 226.48797 228.58876 230.70254 232.82533 234.97111 237.15990 239.43268 241.81947
 244.45725 246.72504 248.74382 250.52561 251.95939 253.09918 253.93796 254.27075
 254.32453 254.11532 253.49210 252.45689 251.07967 249.25746 247.18324 245.03303
 242.84081 240.66160 238.49838 236.35417 234.23095 232.11474 230.15753 228.33131
 226.63110 225.11988 223.76667 222.55545 221.45424 220.43102 219.55181 218.70959
 217.96838 217.16516 216.27995 215.66073 215.12752 214.03413 211.45090 211.18202
 212.17279 212.50047 213.07776 214.84930 217.85284 222.50217 228.46988 233.19618
 236.93454 240.95705 245.24892 249.57852 253.66064 257.33279 260.22559 262.56836
 265.30643 267.72098 269.94388 272.27301 274.70111 276.83939 278.53415 280.20868
 281.89188 283.47351 284.97964 286.32016 287.46875 288.50116 289.44855 290.31351
 291.09641 291.79248 292.36288 293.07761
 366.78100 356.35157 345.80015 334.68272 323.10230 311.31287 299.19945 287.01902
 274.74760 262.66117 250.68675 240.00432 230.14290 221.26347 213.46205 206.48062
 200.33120 195.28577 191.88435 189.94292 188.99650 189.07707 189.92864 191.25322
 192.99479 195.10637 197.38594 199.76152 202.22309 204.71967 206.82424 208.68282
 210.32539 211.48697 211.73254 211.97712 211.93069 211.65227 211.30184 210.94842
 210.58199 210.30857 210.13314 210.01371 209.95829 210.30586 210.70844 211.11401
 211.92359 213.11816 214.38474 216.18431 218.12889 220.18846 222.30004 224.39961
 226.47619 228.57676 230.69034 232.81291 234.95849 237.14706 239.41964 241.80621
 244.44378 246.71136 248.72993 250.51151 251.94508 253.08466 253.92323 254.25581
 254.30938 254.09996 253.47653 252.44111 251.06368 249.24126 247.16683 245.01641
 242.82398 240.64456 238.48113 236.33670 234.21328 232.09685 230.13943 228.31300
 226.61258 225.10115 223.74773 222.53630 221.43488 220.41145 219.53203 218.68960
 217.94818 217.14475 216.25933 215.63990 215.10648 214.03613 211.50731 211.17990
 212.23911 212.56241 213.08524 214.84518 217.85240 222.49713 228.43213 233.15083
 236.87903 240.90298 245.20172 249.54874 253.64339 257.29932 260.18695 262.54068
 265.23318 267.62390 269.85715 272.20331 274.64023 276.78647 278.51038 280.19971
 281.86859 283.43723 284.92993 286.26620 287.41058 288.44064 289.38913 290.25366
 291.04160 291.73340 292.31125 293.03455
 366.78100 356.35161 345.80022 334.68283 323.10244 311.31304 299.19965 287.01926
 274.74787 262.66148 250.68709 240.00470 230.14331 221.26392 213.46253 206.48113
 200.33174 195.28635 191.88496 189.94357 188.99718 189.07779 189.92940 191.25401
 192.99561 195.10722 197.38683 199.76244 202.22405 204.72066 206.82527 208.68388
 210.32649 211.48809 211.73370 211.97831 211.93192 211.65353 211.30314 210.94975
 210.58336 210.30997 210.13458 210.01518 209.95979 210.30740 210.71001 211.11562
 211.92523 213.11984 214.38645 216.18606 218.13066 220.19027 222.30188 224.40149
 226.47810 228.57871 230.69232 232.81493 234.96054 237.14915 239.42175 241.80836
 244.44597 246.71358 248.73219 250.51380 251.94741 253.08702 253.92563 254.25823
 254.31184 254.10245 253.47906 252.44367 251.06628 249.24389 247.16950 245.01911
 242.82672 240.64732 238.48393 236.33954 234.21615 232.09976 230.14237 228.31598
 226.61559 225.10420 223.75080 222.53941 221.43802 220.41463 219.53524 218.69285
 217.95146 217.14807 216.26268 215.64328 215.10989 214.05107 211.54950 211.16763
 212.28989 212.61328 213.13011 214.94028 217.83751 222.42223 228.40569 233.11755
 236.82056 240.84387 245.15143 249.51752 253.62593 257.26950 260.14670 262.51062
 265.16068 267.53027 269.76953 272.13474 274.57690 276.72424 278.47308 280.17270
 281.83334 283.39841 284.88394 286.21506 287.36136 288.39459 289.34311 290.20575
 290.99377 291.67999 292.25250 292.98279
 366.78100 356.35231 345.80162 334.68492 323.10523 311.31654 299.20385 287.02415
 274.75346 262.66777 250.69408 240.01238 230.15169 221.27300 213.47231 206.49161
 200.34292 195.29823 191.89754 189.95685 189.01115 189.09246 189.94477 191.27008
 193.01238 195.12469 197.40500 199.78131 202.24361 204.74092 206.84623 208.70554
 210.34884 211.51115 211.75746 212.00277 211.95707 211.67938 211.32969 210.97700
 210.61131 210.33861 210.16392 210.04523 209.99054 210.33884 210.74215 211.14846
 211.95877 213.15407 214.42138 216.22169 218.16700 220.22730 222.33961 224.43992
 226.51723 228.61854 230.73284 232.85615 235.00246 237.19177 239.46507 241.85238
 244.49069 246.75900 248.77830 250.56061 251.99492 253.13523 253.97453 254.30784
 254.36215 254.15346 253.53077 252.49607 251.11938 249.29769 247.22400 245.07430
 242.88261 240.70392 238.54123 236.39753 234.27484 232.15915 230.20246 228.37676
 226.67707 225.16638 223.81369 222.60300 221.50230 220.47961 219.60092 218.75923
 218.01853 217.21584 216.33115 215.71246 215.17976 214.10069 211.55128 211.18138
 212.35165 212.66527 213.19249 215.01711 217.81352 222.32181 228.37729 233.07259
 236.75252 240.78020 245.10313 249.49391 253.61507 257.22336 260.12350 262.48938
 265.09055 267.43179 269.68954 272.06766 274.51025 276.66104 278.44406 280.16324
 281.80530 283.34912 284.82153 286.14700 287.28775 288.30054 289.24564 290.11081
 290.90143 291.58484 292.15668 292.89545
 366.78100 356.35201 345.80102 334.68403 323.10404 311.31505 299.20205 287.02206
 274.75107 262.66508 250.69109 240.00910 230.14811 221.26912 213.46813 206.48714
 200.33814 195.29315 191.89216 189.95117 189.00518 189.08619 189.93820 191.26321
 193.00522 195.11723 197.39723 199.77324 202.23525 204.73226 206.83727 208.69628
 210.33929 211.50130 211.74731 211.99232 211.94632 211.66833 211.31834 210.96535
 210.59936 210.32637 210.15138 210.03239 209.97740 210.32541 210.72842 211.13442
 211.94443 213.13944 214.40645 216.20646 218.15147 220.21148 222.32349 224.42350
 226.50051 228.60151 230.71552 232.83853 234.98454 237.17355 239.44656 241.83357
 244.47158 246.73959 248.75860 250.54060 251.97461 253.11462 253.95363 254.28664
 254.34065 254.13166 253.50867 252.47368 251.09669 249.27469 247.20070 245.05071
 242.85872 240.67973 238.51674 236.37275 234.24976 232.13377 230.17678 228.35079
 226.65079 225.13980 223.78681 222.57582 221.47483 220.45184 219.57285 218.73086
 217.98987 217.18688 216.30188 215.68289 215.14990 214.09605 211.60651 211.23277
 212.41336 212.69319 213.19716 215.02780 217.82162 222.22816 228.32162 233.00381
 236.67076 240.71315 245.05756 249.47197 253.62050 257.27063 260.09100 262.50943
 265.04916 267.37277 269.62372 272.01508 274.45163 276.60306 278.41458 280.13181
 281.76147 283.31635 284.78540 286.10629 287.24054 288.25522 289.20117 290.06940
 290.85889 291.54782 292.14020 292.90637
 366.78100 356.35045 345.79790 334.67935 323.09780 311.30725 299.19270 287.01115
 274.73860 262.65105 250.67550 239.99195 230.12940 221.24885 213.44630 206.46376
 200.31321 195.26666 191.86411 189.92156 188.97401 189.05346 189.90391 191.22736
 192.96781 195.07826 197.35671 199.73116 202.19161 204.68706 206.79051 208.64796
 210.28941 211.44986 211.69431 211.93776 211.89021 211.61066 211.25911 210.90456
 210.53701 210.26246 210.08591 209.96536 209.90881 210.25527 210.65672 211.06117
 211.86962 213.06307 214.32852 216.12697 218.07042 220.12887 222.23932 224.33777
 226.41322 228.51267 230.62512 232.74657 234.89102 237.07847 239.34992 241.73537
 244.37182 246.63827 248.65572 250.43617 251.86862 253.00707 253.84452 254.17597
 254.22842 254.01787 253.39333 252.35678 250.97823 249.15468 247.07913 244.92758
 242.73403 240.55348 238.38893 236.24338 234.11883 232.00128 230.04273 228.21518
 226.51363 225.00108 223.64653 222.43398 221.33143 220.30688 219.42633 218.58278
 217.84023 217.03568 216.14913 215.52858 214.99403 214.02177 211.73055 211.32140
 212.42253 212.70901 213.18394 215.01378 217.83986 222.16110 228.23175 232.91570
 236.57111 240.63283 244.99886 249.44113 253.58934 257.16922 260.18744 262.62350
 265.09961 267.39789 269.65866 272.01599 274.42529 276.56662 278.39581 280.10953
 281.71933 283.22717 284.67139 285.96588 287.07837 288.06946 288.99918 289.87726
 290.66333 291.31335 291.81564 292.42401
 366.78100 356.34973 345.79647 334.67720 323.09493 311.30367 299.18840 287.00613
 274.73287 262.64460 250.66833 239.98407 230.12080 221.23954 213.43627 206.45300
 200.30174 195.25447 191.85120 189.90794 188.95967 189.03840 189.88814 191.21087
 192.95060 195.06034 197.33807 199.71180 202.17154 204.66627 206.76900 208.62574
 210.26647 211.42620 211.66994 211.91267 211.86441 211.58414 211.23187 210.87661
 210.50834 210.23307 210.05581 209.93454 209.87727 210.22301 210.62374 211.02747
 211.83521 213.02794 214.29267 216.09041 218.03314 220.09087 222.20061 224.29834
 226.37307 228.47181 230.58354 232.70428 234.84801 237.03474 239.30548 241.69021
 244.32594 246.59168 248.60841 250.38814 251.81988 252.95761 253.79434 254.12508
 254.17681 253.96554 253.34028 252.30301 250.92374 249.09948 247.02321 244.87094
 242.67668 240.49541 238.33015 236.18388 234.05861 231.94035 229.98108 228.15281
 226.45055 224.93728 223.58201 222.36875 221.26548 220.24021 219.35895 218.51468
 217.77141 216.96615 216.07888 215.45761 214.92235 213.98769 211.78787 211.41267
 212.43082 212.76749 213.22621 215.03650 217.85968 222.11809 228.14359 232.82825
 236.47311 240.54704 244.92976 249.38531 253.52411 257.00140 260.22568 262.74994
 265.17242 267.43506 269.68323 272.01300 274.38120 276.49554 278.33112 280.04654
 281.61826 283.10251 284.52698 285.79416 286.89618 287.90561 288.85114 289.70392
 290.42944 291.01395 291.47552 292.05365
 366.78100 356.35019 345.79738 334.67857 323.09675 311.30594 299.19113 287.00932
 274.73651 262.64870 250.67289 239.98908 230.12626 221.24545 213.44264 206.45983
 200.30902 195.26221 191.85940 189.91658 188.96877 189.04796 189.89815 191.22134
 192.96153 195.07172 197.34990 199.72409 202.18428 204.67947 206.78266 208.63985
 210.28104 211.44123 211.68541 211.92860 211.88079 211.60098 211.24917 210.89436
 210.52655 210.25173 210.07492 209.95411 209.89730 210.24349 210.64468 211.04887
 211.85706 213.05024 214.31543 216.11362 218.05681 220.11500 222.22519 224.32338
 226.39856 228.49775 230.60994 232.73113 234.87532 237.06251 239.33370 241.71888
 244.35507 246.62126 248.63845 250.41864 251.85083 252.98902 253.82621 254.15739
 254.20958 253.99877 253.37396 252.33715 250.95834 249.13453 247.05871 244.90690
 242.71309 240.53228 238.36747 236.22166 234.09685 231.97904 230.02022 228.19241
 226.49060 224.97779 223.62298 222.41017 221.30736 220.28254 219.40173 218.55792
 217.81511 217.01030 216.12349 215.50268 214.96786 214.01439 211.77042 211.49083
 212.45914 212.84235 213.30493 215.07114 217.86841 222.09966 228.09256 232.78520
 236.41318 240.49112 244.87767 249.32343 253.45232 256.88495 260.19553 262.77066
 265.15009 267.40396 269.64514 271.97238 274.31885 276.41989 278.26965 279.99493
 281.53561 282.98846 284.39197 285.63556 286.73227 287.74762 288.68707 289.52054
 290.22321 290.81241 291.31454 291.95236
 366.78100 356.35032 345.79764 334.67895 323.09727 311.30659 299.19191 287.01022
 274.73754 262.64986 250.67418 239.99049 230.12781 221.24713 213.44445 206.46176
 200.31108 195.26440 191.86172 189.91903 188.97135 189.05067 189.90099 191.22430
 192.96462 195.07494 197.35326 199.72757 202.18789 204.68321 206.78653 208.64385
 210.28516 211.44548 211.68980 211.93312 211.88543 211.60575 211.25407 210.89939
 210.53170 210.25702 210.08034 209.95966 209.90297 210.24929 210.65061 211.05493
 211.86324 213.05656 214.32188 216.12020 218.06351 220.12183 222.23215 224.33047
 226.40578 228.50510 230.61742 232.73874 234.88306 237.07037 239.34169 241.72701
 244.36333 246.62964 248.64696 250.42728 251.85960 252.99791 253.83523 254.16655
 254.21887 254.00818 253.38350 252.34682 250.96814 249.14445 247.06877 244.91709
 242.72341 240.54272 238.37804 236.23236 234.10768 231.98999 230.03131 228.20363
 226.50195 224.98927 223.63458 222.42190 221.31922 220.29454 219.41385 218.57017
 217.82749 217.02281 216.13612 215.51544 214.98076 214.02481 211.77078 211.56834
 212.53391 212.91382 213.34137 215.01703 217.80560 222.06532 228.06458 232.75235
 236.37035 240.45613 244.85410 249.32646 253.46960 256.87405 260.13052 262.77060
 265.10663 267.32492 269.56586 271.89948 274.24347 276.34900 278.21375 279.93680
 281.46616 282.90491 284.29779 285.53223 286.62250 287.63074 288.56470 289.38544
 290.07529 290.65399 291.14432 291.76031
 366.78100 356.34962 345.79623 334.67685 323.09446 311.30308 299.18769 287.00531
 274.73192 262.64354 250.66716 239.98277 230.11939 221.23800 213.43462 206.45123
 200.29985 195.25246 191.84908 189.90570 188.95731 189.03593 189.88554 191.20816
 192.94777 195.05739 197.33500 199.70862 202.16823 204.66285 206.76547 208.62208
 210.26270 211.42231 211.66593 211.90854 211.86016 211.57977 211.22739 210.87201
 210.50362 210.22824 210.05085 209.92947 209.87208 210.21770 210.61831 211.02193
 211.82955 213.02216 214.28678 216.08439 218.02701 220.08462 222.19424 224.29185
 226.36647 228.46509 230.57670 232.69732 234.84093 237.02755 239.29816 241.68278
 244.31839 246.58401 248.60062 250.38024 251.81186 252.94947 253.78609 254.11670
 254.16832 253.95693 253.33155 252.29416 250.91478 249.09040 247.01401 244.86163
 242.66724 240.48586 238.32047 236.17409 234.04870 231.93032 229.97094 228.14255
 226.44017 224.92678 223.57140 222.35801 221.25463 220.22924 219.34786 218.50348
 217.76009 216.95471 216.06732 215.44594 214.91055 213.99295 211.82503 211.61110
 212.61824 213.00642 213.37721 214.94026 217.71660 222.00716 228.02930 232.67400
 236.29822 240.39749 244.81924 249.33011 253.50084 256.89450 260.10608 262.78668
 265.07034 267.24112 269.47449 271.81622 274.16629 276.28592 278.16623 279.87555
 281.40591 282.82919 284.21436 285.43372 286.49805 287.49112 288.41946 289.23074
 289.89551 290.46027 290.93918 291.53217
 366.78100 356.34819 345.79337 334.67256 323.08874 311.29593 299.17911 286.99530
 274.72049 262.63067 250.65286 239.96704 230.10223 221.21942 213.41460 206.42979
 200.27697 195.22816 191.82334 189.87853 188.92872 189.00590 189.85409 191.17527
 192.91346 195.02164 197.29783 199.67002 202.12820 204.62139 206.72257 208.57776
 210.21694 211.37513 211.61732 211.85850 211.80869 211.52687 211.17306 210.81625
 210.44643 210.16962 209.99080 209.86799 209.80917 210.15336 210.55255 210.95473
 211.76092 212.95210 214.21529 216.01147 217.95266 220.00885 222.11703 224.21322
 226.28640 228.38359 230.49378 232.61296 234.75515 236.94033 239.20952 241.59270
 244.22689 246.49108 248.50626 250.28445 251.71463 252.85082 253.68600 254.01519
 254.06538 253.85256 253.22575 252.18693 250.80612 248.98031 246.90249 244.74868
 242.55286 240.37005 238.20323 236.05542 233.92861 231.80879 229.84798 228.01816
 226.31435 224.79953 223.44272 222.22791 221.12309 220.09628 219.21346 218.36765
 217.62283 216.81602 215.92721 215.30439 214.76758 213.92581 211.93707 211.62688
 212.62312 213.07156 213.44749 214.96056 217.69429 221.96587 227.98145 232.56726
 236.20172 240.31522 244.76616 249.30453 253.50713 257.00717 260.04697 262.70096
 264.96786 267.12302 269.36716 271.72830 274.08801 276.22406 278.13379 279.84470
 281.38010 282.83218 284.21570 285.42374 286.47723 287.48245 288.42261 289.25562
 289.89960 290.44431 290.97736 291.72009
 366.78100 356.34715 345.79130 334.66946 323.08461 311.29076 299.17291 286.98806
 274.71221 262.62137 250.64252 239.95567 230.08982 221.20597 213.40013 206.41428
 200.26043 195.21058 191.80473 189.85889 188.90804 188.98419 189.83134 191.15149
 192.88864 194.99580 197.27095 199.64210 202.09925 204.59140 206.69156 208.54571
 210.18386 211.34101 211.58216 211.82231 211.77147 211.48862 211.13377 210.77592
 210.40507 210.12723 209.94738 209.82353 209.76368 210.10683 210.50498 210.90614
 211.71129 212.90144 214.16359 215.95874 217.89890 219.95405 222.06120 224.15635
 226.22850 228.32466 230.43381 232.55196 234.69311 236.87726 239.14541 241.52757
 244.16072 246.42387 248.43802 250.21517 251.64433 252.77948 253.61363 253.94178
 253.99093 253.77708 253.14924 252.10939 250.72754 248.90069 246.82184 244.66700
 242.47015 240.28630 238.11845 235.96960 233.84176 231.72091 229.75906 227.92821
 226.22336 224.70751 223.34967 222.13382 221.02797 220.00012 219.11627 218.26943
 217.52358 216.71573 215.82588 215.20203 214.66418 213.87894 212.02373 211.67903
 212.58992 213.11102 213.55486 215.02628 217.69324 221.93425 227.91997 232.46170
 236.09749 240.22211 244.69566 249.24586 253.46823 257.01999 259.96307 262.58603
 264.87997 267.06320 269.33508 271.70248 274.05914 276.20264 278.09424 279.79175
 281.33652 282.83118 284.20157 285.40436 286.47394 287.49759 288.43115 289.19565
 289.79446 290.37164 290.95071 291.71896
 366.78100 356.34639 345.78978 334.66717 323.08156 311.28695 299.16834 286.98273
 274.70612 262.61452 250.63491 239.94730 230.08069 221.19608 213.38947 206.40286
 200.24825 195.19764 191.79103 189.84442 188.89281 188.96820 189.81459 191.13398
 192.87037 194.97676 197.25116 199.62155 202.07794 204.56933 206.66872 208.52211
 210.15950 211.31589 211.55628 211.79567 211.74406 211.46045 211.10484 210.74623
 210.37462 210.09601 209.91540 209.79080 209.73019 210.07258 210.46997 210.87036
 211.67475 212.86414 214.12553 215.91992 217.85931 219.91370 222.02009 224.11448
 226.18587 228.28126 230.38965 232.50704 234.64744 236.83083 239.09822 241.47961
 244.11200 246.37439 248.38778 250.16417 251.59256 252.72695 253.56034 253.88773
 253.93612 253.72151 253.09290 252.05229 250.66968 248.84208 246.76247 244.60686
 242.40925 240.22464 238.05603 235.90642 233.77781 231.65620 229.69359 227.86198
 226.15637 224.63976 223.28115 222.06454 220.95793 219.92932 219.04471 218.19711
 217.45050 216.64189 215.75128 215.12667 214.58806 213.84511 212.08978 211.78438
 212.52849 213.10732 213.67282 215.09509 217.71204 221.92546 227.88100 232.40005
 236.01581 240.13840 244.62280 249.18277 253.38957 256.94897 259.85638 262.45349
 264.74966 266.95941 269.27277 271.65326 273.99979 276.13196 278.08292 279.80597
 281.35660 282.79373 284.13464 285.32639 286.40060 287.42804 288.36398 289.07324
 289.64072 290.20184 290.77875 291.53391
 366.78100 356.34538 345.78777 334.66415 323.07754 311.28192 299.16231 286.97569
 274.69808 262.60546 250.62485 239.93623 230.06862 221.18300 213.37539 206.38777
 200.23216 195.18054 191.77293 189.82531 188.87270 188.94708 189.79247 191.11085
 192.84624 194.95162 197.22501 199.59439 202.04978 204.54016 206.63855 208.49093
 210.12732 211.28270 211.52209 211.76047 211.70786 211.42324 211.06663 210.70701
 210.33440 210.05478 209.87316 209.74755 209.68593 210.02732 210.42370 210.82309
 211.62647 212.81486 214.07524 215.86863 217.80701 219.86040 221.96578 224.05917
 226.12955 228.22394 230.33132 232.44771 234.58709 236.76948 239.03586 241.41625
 244.04763 246.30902 248.32140 250.09679 251.52417 252.65756 253.48994 253.81633
 253.86371 253.64810 253.01848 251.97687 250.59325 248.76464 246.68402 244.52741
 242.32879 240.14318 237.97356 235.82294 233.69333 231.57071 229.60710 227.77448
 226.06787 224.55025 223.19064 221.97302 220.86541 219.83579 218.95018 218.10156
 217.35395 216.54433 215.65272 215.02710 214.48749 213.80150 212.18077 211.90550
 212.51845 213.05260 213.66623 215.04648 217.68616 221.92116 227.84320 232.42693
 236.00519 240.13135 244.61638 249.17677 253.42245 256.96118 259.87894 262.43475
 264.74982 266.98782 269.28854 271.63464 273.96234 276.11014 277.94003 279.62195
 281.14438 282.71112 284.07315 285.27451 286.36243 287.36938 288.22818 288.83856
 289.39017 289.99200 290.55841 291.30414
 366.78100 356.34754 345.79207 334.67061 323.08615 311.29268 299.17522 286.99076
 274.71529 262.62483 250.64637 239.95990 230.09444 221.21098 213.40551 206.42005
 200.26659 195.21712 191.81166 189.86620 188.91573 188.99227 189.83981 191.16034
 192.89788 195.00542 197.28095 199.65249 202.11003 204.60256 206.70310 208.55764
 210.19617 211.35371 211.59525 211.83578 211.78532 211.50286 211.14839 210.79093
 210.42047 210.14300 209.96354 209.84008 209.78061 210.12415 210.52269 210.92422
 211.72976 212.92030 214.18283 215.97837 217.91891 219.97444 222.08198 224.17752
 226.25005 228.34659 230.45613 232.57466 234.71620 236.90074 239.16927 241.55181
 244.18535 246.44888 248.46342 250.24096 251.67049 252.80603 253.64057 253.96910
 254.01864 253.80518 253.17771 252.13825 250.75679 248.93032 246.85186 244.69740
 242.50093 240.31747 238.15001 236.00154 233.87408 231.75362 229.79215 227.96169
 226.25723 224.74176 223.38430 222.16884 221.06337 220.03591 219.15245 218.30598
 217.56052 216.75306 215.86359 215.24013 214.70267 213.94279 212.18065 211.92119
 212.63643 213.12007 213.66351 214.95674 217.64621 221.90321 227.66721 232.30876
 235.88745 240.03542 244.52443 249.06569 253.26918 256.90485 259.95297 262.56686
 264.90210 267.18030 269.48917 271.74628 273.88519 276.02066 278.04709 279.74545
 281.07983 282.42047 283.70126 284.86942 285.89362 286.65674 287.34177 288.01898
 288.58365 289.07867 289.51111 290.06219
 366.78100 356.35051 345.79801 334.67952 323.09802 311.30753 299.19303 287.01154
 274.73904 262.65155 250.67605 239.99256 230.13006 221.24957 213.44707 206.46458
 200.31408 195.26759 191.86509 189.92260 188.97510 189.05461 189.90511 191.22862
 192.96912 195.07963 197.35813 199.73264 202.19314 204.68865 206.79215 208.64966
 210.29116 211.45167 211.69617 211.93968 211.89218 211.61269 211.26119 210.90670
 210.53920 210.26471 210.08821 209.96772 209.91123 210.25773 210.65924 211.06374
 211.87225 213.06575 214.33126 216.12976 218.07327 220.13177 222.24228 224.34078
 226.41629 228.51579 230.62830 232.74980 234.89431 237.08181 239.35332 241.73882
 244.37533 246.64183 248.65934 250.43984 251.87235 253.01085 253.84836 254.17986
 254.23237 254.02187 253.39738 252.36088 250.98239 249.15889 247.08340 244.93190
 242.73841 240.55791 238.39342 236.24792 234.12343 232.00593 230.04744 228.21995
 226.51845 225.00596 223.65146 222.43897 221.33647 220.31198 219.43148 218.58799
 217.84549 217.04100 216.15450 215.53401 214.99951 214.12885 212.12303 211.79457
 212.72955 213.38269 213.94589 215.05824 217.59596 221.80391 227.51247 232.10501
 235.70743 239.89938 244.41840 248.94089 253.08144 256.75119 259.91467 262.53336
 264.86243 267.18210 269.50931 271.73819 273.83472 276.02731 278.07501 279.69586
 281.02142 282.35257 283.60010 284.72473 285.61777 286.39795 287.24063 288.03793
 288.75687 289.39709 289.95636 290.66910
 366.78100 356.35029 345.79758 334.67888 323.09717 311.30646 299.19175 287.01004
 274.73734 262.64963 250.67392 239.99021 230.12750 221.24680 213.44409 206.46138
 200.31067 195.26396 191.86126 189.91855 188.97084 189.05013 189.90042 191.22371
 192.96401 195.07430 197.35259 199.72688 202.18717 204.68247 206.78576 208.64305
 210.28434 211.44463 211.68893 211.93222 211.88451 211.60480 211.25309 210.89839
 210.53068 210.25597 210.07926 209.95855 209.90185 210.24814 210.64943 211.05372
 211.86201 213.05531 214.32060 216.11889 218.06218 220.12047 222.23077 224.32906
 226.40435 228.50364 230.61593 232.73723 234.88152 237.06881 239.34010 241.72539
 244.36168 246.62798 248.64527 250.42556 251.85785 252.99614 253.83344 254.16473
 254.21702 254.00631 253.38160 252.34490 250.96619 249.14248 247.06677 244.91506
 242.72136 240.54065 238.37594 236.23023 234.10552 231.98782 230.02911 228.20140
 226.49969 224.98698 223.63228 222.41957 221.31686 220.29215 219.41144 218.56774
 217.82503 217.02032 216.13361 215.51290 214.97820 214.12801 212.13879 211.76195
 212.80830 213.60715 214.25392 215.27231 217.57080 221.69154 227.46227 231.97382
 235.58910 239.80153 244.33955 248.86195 252.97420 256.57007 259.80630 262.35211
 264.71936 267.07614 269.43353 271.68558 273.87161 275.98062 277.95923 279.65887
 281.11694 282.46274 283.68411 284.78055 285.74768 286.60428 287.40445 288.17407
 288.91302 289.58670 290.17538 290.92560
 366.78100 356.34956 345.79612 334.67669 323.09425 311.30281 299.18737 287.00493
 274.73150 262.64306 250.66662 239.98218 230.11875 221.23731 213.43387 206.45043
 200.29899 195.25156 191.84812 189.90468 188.95624 189.03480 189.88437 191.20693
 192.94649 195.05605 197.33362 199.70718 202.16674 204.66130 206.76386 208.62043
 210.26099 211.42055 211.66411 211.90667 211.85824 211.57780 211.22536 210.86992
 210.50148 210.22605 210.04861 209.92717 209.86973 210.21530 210.61586 211.01942
 211.82698 213.01954 214.28411 216.08167 218.02423 220.08179 222.19135 224.28892
 226.36348 228.46204 230.57360 232.69417 234.83773 237.02429 239.29485 241.67941
 244.31498 246.58054 248.59710 250.37666 251.80822 252.94579 253.78235 254.11291
 254.16447 253.95304 253.32760 252.29016 250.91072 249.08628 247.00985 244.85741
 242.66297 240.48153 238.31609 236.16966 234.04422 231.92578 229.96634 228.13790
 226.43547 224.92203 223.56659 222.35315 221.24972 220.22428 219.34284 218.49840
 217.75496 216.94953 216.06209 215.44065 214.90521 214.11331 212.26131 211.76643
 212.85289 213.66922 214.33812 215.37451 217.58496 221.66620 227.39171 231.89040
 235.47670 239.70790 244.25743 248.78380 252.89172 256.42856 259.60410 262.26767
 264.61761 267.00217 269.38943 271.62195 273.80536 275.96899 277.96283 279.60333
 280.91937 282.27393 283.50070 284.56042 285.48770 286.33511 287.13776 287.88156
 288.50214 289.03171 289.49432 290.08389
 366.78100 356.34729 345.79158 334.66987 323.08515 311.29144 299.17373 286.98902
 274.71331 262.62260 250.64388 239.95717 230.09146 221.20775 213.40204 206.41633
 200.26261 195.21290 191.80719 189.86148 188.91077 188.98706 189.83435 191.15463
 192.89192 194.99921 197.27450 199.64579 202.10308 204.59536 206.69565 208.54994
 210.18823 211.34552 211.58681 211.82709 211.77638 211.49367 211.13896 210.78125
 210.41054 210.13282 209.95311 209.82940 209.76969 210.11298 210.51127 210.91256
 211.71784 212.90813 214.17042 215.96571 217.90600 219.96129 222.06857 224.16386
 226.23615 228.33244 230.44173 232.56002 234.70130 236.88559 239.15388 241.53617
 244.16946 246.43275 248.44704 250.22432 251.65361 252.78890 253.62319 253.95148
 254.00077 253.78705 253.15934 252.11963 250.73792 248.91121 246.83250 244.67778
 242.48107 240.29736 238.12965 235.98094 233.85323 231.73252 229.77080 227.94009
 226.23538 224.71967 223.36196 222.14625 221.04053 220.01282 219.12911 218.28240
 217.53669 216.72898 215.83926 215.21555 214.67784 214.03526 212.52623 211.75951
 212.65109 213.41878 214.29633 215.53215 217.78664 221.75690 227.32852 231.87691
 235.46275 239.66895 244.19519 248.69949 252.76361 256.34662 259.52536 262.25674
 264.72672 267.18631 269.57715 271.77798 273.77554 275.95575 277.93188 279.52826
 280.82761 282.10577 283.25586 284.28033 285.21591 286.08649 286.94452 287.73975
 288.45499 289.09192 289.64832 290.35739
 366.78100 356.34446 345.78592 334.66138 323.07384 311.27729 299.15675 286.96921
 274.69067 262.59713 250.61559 239.92605 230.05751 221.17096 213.36242 206.37388
 200.21734 195.16480 191.75626 189.80772 188.85418 188.92764 189.77209 191.08955
 192.82401 194.92847 197.20093 199.56939 202.02385 204.51331 206.61076 208.46222
 210.09768 211.25214 211.49060 211.72806 211.67452 211.38898 211.03144 210.67089
 210.29735 210.01681 209.83427 209.70773 209.64519 209.98565 210.38111 210.77956
 211.58202 212.76948 214.02894 215.82140 217.75886 219.81132 221.91578 224.00824
 226.07769 228.17115 230.27761 232.39307 234.53153 236.71299 238.97845 241.35791
 243.98836 246.24882 248.26028 250.03474 251.46120 252.59366 253.42512 253.75058
 253.79704 253.58049 252.94995 251.90741 250.52287 248.69333 246.61179 244.45425
 242.25471 240.06816 237.89762 235.74608 233.61554 231.49200 229.52746 227.69392
 225.98638 224.46784 223.10729 221.88875 220.78021 219.74967 218.86313 218.01359
 217.26505 216.45451 215.56196 214.93542 214.39488 213.91330 212.75371 211.83624
 212.39418 213.25247 214.38152 215.77196 218.00900 221.86198 227.34184 231.87953
 235.47037 239.66725 244.18182 248.67705 252.71660 256.32263 259.44580 262.27087
 264.83578 267.34183 269.75516 271.88843 273.82687 275.94321 277.88977 279.49713
 280.76254 282.02722 283.16232 284.19275 285.19699 286.19196 287.14081 288.00043
 288.77353 289.46201 290.06342 290.82990
 366.78100 356.34377 345.78454 334.65931 323.07108 311.27385 299.15262 286.96439
 274.68516 262.59093 250.60870 239.91847 230.04924 221.16201 213.35278 206.36355
 200.20632 195.15309 191.74386 189.79463 188.84040 188.91317 189.75694 191.07371
 192.80748 194.91125 197.18302 199.55079 202.00456 204.49333 206.59010 208.44087
 210.07564 211.22941 211.46718 211.70395 211.64972 211.36349 211.00526 210.64403
 210.26980 209.98857 209.80534 209.67811 209.61488 209.95464 210.34941 210.74718
 211.54895 212.73572 213.99449 215.78626 217.72303 219.77480 221.87857 223.97034
 226.03911 228.13188 230.23765 232.35242 234.49019 236.67096 238.93573 241.31450
 243.94427 246.20404 248.21481 249.98858 251.41435 252.54612 253.37689 253.70166
 253.74743 253.53020 252.89897 251.85574 250.47051 248.64028 246.55805 244.39982
 242.19959 240.01236 237.84113 235.68890 233.55767 231.43344 229.46821 227.63398
 225.92575 224.40652 223.04529 221.82606 220.71683 219.68560 218.79837 217.94814
 217.19891 216.38768 215.49445 214.86722 214.32599 213.88794 212.83699 211.99428
 212.18761 213.11333 214.41728 215.90858 218.15469 221.93141 227.32751 231.84816
 235.44727 239.65117 244.16374 248.62996 252.64034 256.20041 259.26736 262.11710
 264.78793 267.40784 269.84244 271.97989 273.84082 275.93738 277.83392 279.45715
 280.77130 282.01779 283.12781 284.15210 285.20657 286.25101 287.25702 288.16840
 288.98810 289.71805 290.35571 291.16833
 366.78100 356.34424 345.78547 334.66071 323.07295 311.27619 299.15542 286.96766
 274.68890 262.59513 250.61337 239.92361 230.05485 221.16808 213.35932 206.37056
 200.21379 195.16103 191.75227 189.80351 188.84974 188.92298 189.76722 191.08445
 192.81869 194.92293 197.19516 199.56340 202.01764 204.50688 206.60411 208.45535
 210.09059 211.24482 211.48306 211.72030 211.66654 211.38077 211.02301 210.66225
 210.28848 210.00772 209.82496 209.69820 209.63543 209.97567 210.37091 210.76914
 211.57138 212.75862 214.01786 215.81009 217.74733 219.79957 221.90380 223.99604
 226.06528 228.15852 230.26475 232.37999 234.51823 236.69946 238.96470 241.34394
 243.97418 246.23441 248.24565 250.01989 251.44612 252.57836 253.40960 253.73483
 253.78107 253.56431 252.93355 251.89078 250.50602 248.67626 246.59449 244.43673
 242.23697 240.05021 237.87944 235.72768 233.59692 231.47315 229.50839 227.67463
 225.96687 224.44810 223.08734 221.86858 220.75981 219.72905 218.84229 217.99253
 217.24376 216.43300 215.54024 214.91347 214.37271 213.93335 212.88065 212.05199
 212.19972 213.10040 214.40605 215.95222 218.24368 221.99020 227.33736 231.85213
 235.44493 239.63763 244.14207 248.57443 252.55890 256.02484 259.04596 261.85666
 264.62082 267.28864 269.76144 271.92346 273.80194 275.93796 277.76593 279.41187
 280.80908 282.02820 283.11774 284.13516 285.16898 286.18329 287.12521 287.97852
 288.74597 289.42938 290.02643 290.78726
 366.78100 356.34349 345.78399 334.65848 323.06997 311.27246 299.15096 286.96245
 274.68294 262.58844 250.60593 239.91542 230.04592 221.15841 213.34890 206.35939
 200.20189 195.14838 191.73887 189.78937 188.83486 188.90735 189.75084 191.06734
 192.80083 194.90432 197.17582 199.54331 201.99680 204.48530 206.58179 208.43228
 210.06677 211.22027 211.45776 211.69425 211.63975 211.35324 210.99473 210.63322
 210.25872 209.97721 209.79370 209.66620 209.60269 209.94218 210.33668 210.73417
 211.53566 212.72215 213.98065 215.77214 217.70863 219.76013 221.86362 223.95511
 226.02360 228.11610 230.22159 232.33608 234.47358 236.65407 238.91856 241.29706
 243.92655 246.18604 248.19653 249.97003 251.39552 252.52701 253.35751 253.68200
 253.72749 253.50998 252.87848 251.83497 250.44946 248.61896 246.53645 244.37794
 242.17744 239.98993 237.81842 235.66591 233.53441 231.40990 229.44439 227.60989
 225.90138 224.38187 223.02036 221.80086 220.69135 219.65984 218.77234 217.92183
 217.17232 216.36082 215.46731 214.83980 214.29829 213.92859 213.01190 212.06062
 212.25987 213.09866 214.35593 215.95815 218.31226 222.06345 227.39517 231.90897
 235.48689 239.65157 244.13315 248.53610 252.50722 255.90036 258.88467 261.65393
 264.47766 267.24713 269.71793 271.81973 273.81613 275.95959 277.72205 279.33112
 280.66211 281.93338 282.99194 284.03760 285.06982 286.03436 286.91434 287.71152
 288.42853 289.06702 289.62479 290.33560
 366.78100 356.34285 345.78269 334.65654 323.06739 311.26924 299.14708 286.95793
 274.67778 262.58263 250.59947 239.90832 230.03817 221.15002 213.33986 206.34971
 200.19156 195.13740 191.72725 189.77710 188.82195 188.89379 189.73664 191.05249
 192.78534 194.88818 197.15903 199.52588 201.97873 204.46657 206.56242 208.41227
 210.04611 211.19896 211.43581 211.67166 211.61650 211.32935 210.97020 210.60805
 210.23289 209.95074 209.76659 209.63844 209.57428 209.91313 210.30698 210.70383
 211.50467 212.69052 213.94837 215.73921 217.67506 219.72591 221.82876 223.91960
 225.98745 228.07930 230.18415 232.29799 234.43484 236.61469 238.87854 241.25638
 243.88523 246.14408 248.15392 249.92677 251.35162 252.48247 253.31231 253.63616
 253.68101 253.46286 252.83070 251.78655 250.40040 248.56925 246.48609 244.32694
 242.12579 239.93763 237.76548 235.61233 233.48018 231.35502 229.38887 227.55372
 225.84457 224.32441 222.96226 221.74211 220.63196 219.59980 218.71165 217.86050
 217.11034 216.29819 215.40404 214.77589 214.23373 213.93445 213.13368 212.09589
 212.35526 213.18381 214.38696 215.98355 218.34157 222.09944 227.45976 231.92128
 235.47272 239.63229 244.11734 248.51004 252.44122 255.71350 258.63016 261.57944
 264.50143 267.18851 269.63400 271.61673 273.90308 275.94171 277.75143 279.17813
 280.33160 281.57932 282.67957 283.85928 284.94556 285.90668 286.78354 287.57791
 288.29236 288.92856 289.48434 290.19266
 366.78100 356.34240 345.78179 334.65519 323.06558 311.26698 299.14438 286.95477
 274.67417 262.57856 250.59496 239.90335 230.03275 221.14415 213.33354 206.34294
 200.18433 195.12973 191.71913 189.76852 188.81292 188.88431 189.72671 191.04210
 192.77450 194.87690 197.14729 199.51369 201.96608 204.45348 206.54888 208.39827
 210.03167 211.18406 211.42046 211.65585 211.60025 211.31265 210.95304 210.59044
 210.21483 209.93223 209.74763 209.61902 209.55442 209.89281 210.28621 210.68260
 211.48300 212.66840 213.92579 215.71619 217.65158 219.70198 221.80438 223.89477
 225.96217 228.05356 230.15796 232.27135 234.40775 236.58715 238.85054 241.22794
 243.85633 246.11473 248.12413 249.89652 251.32092 252.45131 253.28071 253.60410
 253.64850 253.42990 252.79729 251.75269 250.36608 248.53448 246.45088 244.29127
 242.08967 239.90106 237.72846 235.57485 233.44225 231.31665 229.35004 227.51444
 225.80483 224.28423 222.92163 221.70102 220.59042 219.55781 218.66921 217.81760
 217.06700 216.25440 215.35979 214.73119 214.18858 213.97009 213.24188 212.05528
 212.41579 213.40977 214.57237 216.05812 218.26945 221.96460 227.40475 231.85918
 235.45363 239.61539 244.06731 248.42102 252.31262 255.58264 258.49567 261.56378
 264.50293 267.11163 269.38351 271.59320 274.05923 275.93085 277.60367 278.99673
 280.16318 281.41193 282.88846 284.18497 285.30698 286.29965 287.20535 288.02582
 288.76376 289.42090 289.99496 290.72653
 366.78100 356.33919 345.77537 334.64556 323.05274 311.25093 299.12512 286.93230
 274.64849 262.54968 250.56286 239.86805 229.99423 221.10242 213.28861 206.29479
 200.13298 195.07516 191.66135 189.70754 188.74872 188.81691 189.65610 190.96828
 192.69747 194.79665 197.06384 199.42703 201.87621 204.36040 206.45258 208.29877
 209.92896 211.07814 211.31133 211.54352 211.48470 211.19389 210.83107 210.46526
 210.08645 209.80063 209.61282 209.48100 209.41319 209.74838 210.13856 210.53175
 211.32894 212.51112 213.76531 215.55249 217.48468 219.53187 221.63105 223.71824
 225.78242 227.87061 229.97180 232.08198 234.21517 236.39135 238.65154 241.02573
 243.65091 245.90610 247.91229 249.68147 251.10266 252.22984 253.05603 253.37622
 253.41740 253.19559 252.55977 251.51196 250.12215 248.28733 246.20052 244.03771
 241.83289 239.64108 237.46526 235.30845 233.17264 231.04382 229.07401 227.23519
 225.52238 223.99857 222.63275 221.40894 220.29513 219.25931 218.36750 217.51268
 216.75887 215.94306 215.04524 214.41343 213.86761 213.86685 213.45546 211.95963
 212.16470 213.39731 214.75407 216.38327 218.57251 221.99997 227.35551 231.81750
 235.45032 239.63364 244.08131 248.44945 252.39262 255.72429 258.50162 261.44861
 264.25189 266.84695 269.26495 271.72241 274.04523 275.88388 277.51666 278.98859
 280.19861 281.40674 282.45221 283.37018 284.16461 284.86749 285.50876 286.08969
 286.61218 287.07745 287.48392 288.00189
 366.78100 356.33551 345.76802 334.63453 323.03804 311.23255 299.10306 286.90657
 274.61908 262.51660 250.52611 239.82762 229.95013 221.05464 213.23715 206.23966
 200.07417 195.01268 191.59519 189.63770 188.67521 188.73972 189.57523 190.88374
 192.60925 194.70477 196.96828 199.32779 201.77330 204.25381 206.34232 208.18483
 209.81134 210.95685 211.18636 211.41487 211.35238 211.05789 210.69140 210.32191
 209.93942 209.64994 209.45845 209.32296 209.25147 209.58298 209.96949 210.35900
 211.15251 212.33102 213.58153 215.36504 217.29355 219.33706 221.43257 223.51608
 225.57659 227.66110 229.75862 231.86513 233.99464 236.16715 238.42366 240.79417
 243.41568 245.66719 247.66970 249.43521 250.85272 251.97623 252.79874 253.11525
 253.15276 252.92727 252.28779 251.23630 249.84281 248.00432 245.91383 243.74734
 241.53885 239.34336 237.16387 235.00338 232.86389 230.73140 228.75791 226.91542
 225.19893 223.67144 222.30195 221.07447 219.95698 218.91749 218.02200 217.16351
 216.40602 215.58653 214.68504 214.04955 213.50006 213.70187 213.69841 212.04060
 211.74098 212.96335 214.62292 216.57124 218.87677 222.21727 227.50902 231.94174
 235.54256 239.70326 244.15022 248.54083 252.54964 255.97598 258.81799 261.53546
 264.31345 266.94650 269.35217 271.65002 273.95444 275.80621 277.42389 278.91367
 280.52866 282.46024 284.13171 285.59937 286.86951 287.99326 289.01852 289.94733
 290.78268 291.52658 292.17642 293.00458
 366.78100 356.33832 345.77363 334.64295 323.04926 311.24658 299.11990 286.92621
 274.64153 262.54185 250.55416 239.85848 229.98379 221.09111 213.27643 206.28174
 200.11906 195.06038 191.64569 189.69101 188.73132 188.79864 189.63696 190.94827
 192.67659 194.77491 197.04122 199.40354 201.85185 204.33517 206.42649 208.27180
 209.90112 211.04944 211.28175 211.51307 211.45338 211.16170 210.79802 210.43133
 210.05165 209.76497 209.57628 209.44360 209.37491 209.70923 210.09855 210.49086
 211.28718 212.46850 213.72181 215.50813 217.43944 219.48576 221.58408 223.67039
 225.73371 227.82103 229.92134 232.03066 234.16297 236.33829 238.59761 240.97092
 243.59524 245.84956 247.85487 249.62319 251.04350 252.16982 252.99514 253.31445
 253.35477 253.13209 252.49540 251.44672 250.05603 248.22035 246.13267 243.96898
 241.76330 239.57062 237.39393 235.23625 233.09956 230.96988 228.99920 227.15951
 225.44583 223.92115 222.55446 221.32978 220.21509 219.17841 218.28573 217.43004
 216.67536 215.85868 214.95999 214.32731 213.78062 213.81822 213.63062 212.36086
 211.77264 212.51279 214.29080 216.39694 218.83994 222.29562 227.59381 232.01106
 235.58801 239.72243 244.15944 248.54488 252.57228 256.05478 258.93701 261.61057
 264.40189 267.07703 269.44485 271.59573 273.87173 275.72336 277.31168 278.78473
 280.59302 282.59222 284.37039 285.93176 287.28299 288.47845 289.56915 290.55725
 291.44595 292.23730 292.92865 293.80966
 366.78100 356.34394 345.78488 334.65981 323.07175 311.27469 299.15363 286.96557
 274.68651 262.59244 250.61038 239.92032 230.05126 221.16420 213.35513 206.36607
 200.20901 195.15595 191.74689 189.79783 188.84376 188.91670 189.76064 191.07758
 192.81152 194.91545 197.18739 199.55533 202.00927 204.49821 206.59515 208.44608
 210.08102 211.23496 211.47290 211.70984 211.65577 211.36971 211.01165 210.65059
 210.27653 209.99547 209.81240 209.68534 209.62228 209.96222 210.35716 210.75510
 211.55703 212.74397 214.00291 215.79485 217.73179 219.78372 221.88766 223.97960
 226.04854 228.14148 230.24742 232.36235 234.50029 236.68123 238.94617 241.32511
 243.95504 246.21498 248.22592 249.99986 251.42580 252.55774 253.38867 253.71361
 253.75955 253.54249 252.91143 251.86836 250.48330 248.65324 246.57118 244.41312
 242.21306 240.02599 237.85493 235.70287 233.57181 231.44775 229.48268 227.64862
 225.94056 224.42150 223.06044 221.84138 220.73231 219.70125 218.81419 217.96413
 217.21507 216.40400 215.51094 214.88388 214.34282 214.09186 213.40480 212.53909
 212.12074 212.58261 214.16299 216.12776 218.60789 222.30492 227.49438 231.94530
 235.53799 239.67787 244.10809 248.47076 252.45805 255.87578 258.74039 261.44687
 264.26160 266.90240 269.31119 271.61389 273.83273 275.65259 277.22504 278.84964
 280.69144 282.54080 284.23007 285.71338 286.99704 288.13275 289.16891 290.10760
 290.95184 291.70367 292.36044 293.19742
 366.78100 356.34652 345.79005 334.66757 323.08209 311.28762 299.16914 286.98366
 274.70719 262.61571 250.63623 239.94876 230.08228 221.19780 213.39133 206.40485
 200.25037 195.19990 191.79342 189.84694 188.89547 188.97099 189.81751 191.13704
 192.87356 194.98008 197.25461 199.62513 202.08165 204.57318 206.67270 208.52622
 210.16375 211.32027 211.56079 211.80032 211.74884 211.46536 211.10989 210.75141
 210.37993 210.10146 209.92098 209.79650 209.73603 210.07855 210.47607 210.87660
 211.68112 212.87064 214.13217 215.92669 217.86621 219.92074 222.02726 224.12178
 226.19331 228.28883 230.39735 232.51488 234.65540 236.83892 239.10645 241.48797
 244.12049 246.38302 248.39654 250.17306 251.60159 252.73611 253.56963 253.89716
 253.94568 253.73120 253.10273 252.06225 250.67977 248.85230 246.77282 244.61734
 242.41987 240.23539 238.06691 235.91744 233.78896 231.66748 229.70501 227.87353
 226.16805 224.65158 223.29310 222.07662 220.97015 219.94167 219.05719 218.20972
 217.46324 216.65476 215.76429 215.13981 214.60133 214.24072 213.33725 212.54686
 212.29195 212.75641 214.21217 216.08484 218.52104 222.23486 227.34209 231.85925
 235.49292 239.65709 244.08492 248.42868 252.38515 255.76308 258.62350 261.37421
 264.17514 266.83530 269.35266 271.72345 273.83313 275.59964 277.16840 278.70007
 280.58679 282.31720 283.85989 285.21451 286.38681 287.42401 288.37027 289.22754
 289.99854 290.68512 291.28491 292.04929
 366.78100 356.34644 345.78987 334.66731 323.08174 311.28718 299.16861 286.98305
 274.70648 262.61492 250.63535 239.94779 230.08123 221.19666 213.39010 206.40353
 200.24897 195.19840 191.79184 189.84527 188.89371 188.96914 189.81558 191.13502
 192.87145 194.97789 197.25232 199.62276 202.07919 204.57063 206.67006 208.52350
 210.16093 211.31737 211.55781 211.79724 211.74568 211.46211 211.10655 210.74798
 210.37642 210.09785 209.91729 209.79272 209.73216 210.07460 210.47203 210.87247
 211.67690 212.86634 214.12777 215.92221 217.86164 219.91608 222.02251 224.11695
 226.18838 228.28382 230.39226 232.50969 234.65013 236.83356 239.10100 241.48243
 244.11487 246.37730 248.39074 250.16717 251.59561 252.73005 253.56348 253.89092
 253.93935 253.72479 253.09622 252.05566 250.67309 248.84553 246.76596 244.61040
 242.41284 240.22827 238.05971 235.91014 233.78158 231.66001 229.69745 227.86588
 226.16032 224.64375 223.28519 222.06863 220.96206 219.93350 219.04893 218.20137
 217.45480 216.64624 215.75567 215.13111 214.59254 214.24390 213.38124 212.59068
 212.27657 212.74706 214.19928 216.10399 218.55363 222.27292 227.19992 231.80144
 235.44203 239.64151 244.09439 248.44366 252.39581 255.78654 258.70819 261.49103
 264.24719 266.87125 269.42734 271.77811 273.80399 275.54123 277.06372 278.63345
 280.28769 281.71857 283.17810 284.54315 285.72446 286.76962 287.72321 288.58707
 289.36401 290.05588 290.66028 291.43054
 366.78100 356.34485 345.78669 334.66254 323.07539 311.27923 299.15908 286.97193
 274.69377 262.60062 250.61947 239.93031 230.06216 221.17601 213.36785 206.37970
 200.22355 195.17139 191.76324 189.81509 188.86193 188.93578 189.78063 191.09847
 192.83332 194.93817 197.21101 199.57986 202.03471 204.52455 206.62240 208.47425
 210.11009 211.26494 211.50379 211.74163 211.68848 211.40333 211.04617 210.68602
 210.31287 210.03271 209.85056 209.72441 209.66225 210.00310 210.39895 210.79779
 211.60064 212.78849 214.04834 215.84118 217.77903 219.83188 221.93672 224.02957
 226.09942 228.19326 230.30011 232.41596 234.55480 236.73665 239.00250 241.38234
 244.01319 246.27404 248.28588 250.06073 251.48758 252.62042 253.45227 253.77812
 253.82496 253.60881 252.97866 251.93650 250.55235 248.72320 246.64204 244.48489
 242.28574 240.09958 237.92943 235.77828 233.64812 231.52497 229.56082 227.72766
 226.02051 224.50236 223.14220 221.92405 220.81590 219.78574 218.89959 218.05044
 217.30228 216.49213 215.59998 214.97382 214.43367 214.15634 213.46970 212.69429
 212.22881 212.67265 214.09831 216.06601 218.56610 222.22469 227.08875 231.65256
 235.33826 239.55110 243.98953 248.31187 252.25732 255.69547 258.67606 261.49216
 264.26675 266.92767 269.46475 271.78204 273.74707 275.45212 277.06177 278.77701
 280.29538 281.62527 282.61487 283.76712 284.97833 286.06924 287.06451 287.96619
 288.77713 289.49927 290.13013 290.93408
 366.78100 356.34306 345.78312 334.65718 323.06823 311.27029 299.14835 286.95941
 274.67947 262.58453 250.60159 239.91065 230.04070 221.15276 213.34282 206.35288
 200.19494 195.14100 191.73106 189.78111 188.82617 188.89823 189.74129 191.05735
 192.79041 194.89347 197.16453 199.53158 201.98464 204.47270 206.56876 208.41882
 210.05288 211.20594 211.44299 211.67905 211.62411 211.33717 210.97823 210.61629
 210.24135 209.95941 209.77546 209.64752 209.58358 209.92264 210.31670 210.71376
 211.51482 212.70088 213.95893 215.74999 217.68605 219.73711 221.84017 223.93123
 225.99929 228.09134 230.19640 232.31046 234.44752 236.62758 238.89164 241.26970
 243.89876 246.15781 248.16787 249.94093 251.36599 252.49705 253.32711 253.65117
 253.69622 253.47828 252.84634 251.80240 250.41646 248.58552 246.50258 244.34364
 242.14269 239.95475 237.78281 235.62987 233.49793 231.37299 229.40705 227.57210
 225.86316 224.34322 222.98128 221.76134 220.65140 219.61946 218.73152 217.88057
 217.13063 216.31869 215.42475 214.79681 214.25487 214.06267 213.57753 212.80446
 212.09444 212.53275 214.06654 216.11732 218.60950 222.20319 227.05690 231.54036
 235.26320 239.44957 243.85695 248.12822 252.02869 255.46634 258.50821 261.37643
 264.18558 266.93356 269.51508 271.80026 273.69916 275.32806 276.97751 278.75586
 280.41525 281.68066 282.60156 283.59012 284.64618 285.68460 286.65427 287.53271
 288.32278 289.02634 289.64096 290.42419
 366.78100 356.34300 345.78300 334.65701 323.06801 311.27001 299.14801 286.95901
 274.67901 262.58402 250.60102 239.91002 230.04002 221.15202 213.34202 206.35203
 200.19403 195.14003 191.73003 189.78003 188.82504 188.89704 189.74004 191.05604
 192.78904 194.89204 197.16305 199.53005 201.98305 204.47105 206.56705 208.41705
 210.05106 211.20406 211.44106 211.67706 211.62206 211.33507 210.97607 210.61407
 210.23907 209.95707 209.77307 209.64508 209.58108 209.92008 210.31408 210.71108
 211.51208 212.69809 213.95609 215.74709 217.68309 219.73409 221.83710 223.92810
 225.99610 228.08810 230.19310 232.30710 234.44411 236.62411 238.88811 241.26611
 243.89511 246.15411 248.16412 249.93712 251.36212 252.49312 253.32312 253.64712
 253.69213 253.47413 252.84213 251.79813 250.41213 248.58114 246.49814 244.33914
 242.13814 239.95014 237.77814 235.62515 233.49315 231.36815 229.40215 227.56715
 225.85815 224.33816 222.97616 221.75616 220.64616 219.61416 218.72617 217.87517
 217.12517 216.31317 215.41917 214.79117 214.24918 214.06580 213.60765 212.91699
 212.00899 212.33224 214.03505 216.24677 218.77258 222.33888 227.13875 231.58780
 235.28142 239.46335 243.84882 248.09958 251.98491 255.42316 258.47549 261.36786
 264.18033 266.94678 269.55496 271.80405 273.61765 275.18335 276.78082 278.65540
 280.36465 281.46271 282.24686 283.54260 284.64743 285.66840 286.60303 287.44974
 288.21124 288.88937 289.48178 290.23676
 366.78100 356.34347 345.78393 334.65840 323.06986 311.27233 299.15079 286.96226
 274.68272 262.58819 250.60565 239.91512 230.04558 221.15805 213.34851 206.35898
 200.20144 195.14791 191.73837 189.78884 188.83430 188.90677 189.75023 191.06670
 192.80016 194.90363 197.17509 199.54256 201.99602 204.48449 206.58095 208.43142
 210.06588 211.21935 211.45681 211.69328 211.63874 211.35221 210.99367 210.63214
 210.25760 209.97607 209.79253 209.66500 209.60146 209.94093 210.33539 210.73286
 211.53432 212.72079 213.97925 215.77072 217.70718 219.75865 221.86211 223.95358
 226.02204 228.11451 230.21997 232.33444 234.47190 236.65237 238.91683 241.29530
 243.92476 246.18423 248.19469 249.96816 251.39362 252.52509 253.35555 253.68002
 253.72548 253.50795 252.87641 251.83288 250.44734 248.61681 246.53427 244.37574
 242.17520 239.98767 237.81613 235.66360 233.53206 231.40753 229.44199 227.60746
 225.89892 224.37939 223.01785 221.79832 220.68878 219.65725 218.76971 217.91918
 217.16964 216.35811 215.46457 214.83704 214.29550 214.09789 213.61597 213.00932
 212.05453 212.23741 213.93784 216.21423 218.79759 222.40431 227.17987 231.64438
 235.31357 239.49686 243.87877 248.12646 252.01503 255.47049 258.55249 261.47528
 264.30069 266.96991 269.56183 271.79636 273.53839 275.05560 276.73279 278.58319
 280.10645 281.10339 282.27148 283.62589 284.80344 285.86151 286.82681 287.70132
 288.48785 289.18826 289.80014 290.57986
 366.78100 356.34177 345.78054 334.65332 323.06309 311.26386 299.14063 286.95040
 274.66917 262.57295 250.58872 239.89649 230.02526 221.13603 213.32480 206.33358
 200.17435 195.11912 191.70789 189.75666 188.80043 188.87121 189.71298 191.02775
 192.75952 194.86129 197.13107 199.49684 201.94861 204.43538 206.53015 208.37892
 210.01170 211.16347 211.39924 211.63401 211.57778 211.28955 210.92933 210.56610
 210.18987 209.90664 209.72141 209.59219 209.52696 209.86473 210.25750 210.65327
 211.45304 212.63782 213.89459 215.68436 217.61913 219.66890 221.77067 223.86045
 225.92722 228.01799 230.12176 232.23453 234.37030 236.54908 238.81185 241.18862
 243.81639 246.07416 248.08294 249.85471 251.27848 252.40825 253.23702 253.55979
 253.60357 253.38434 252.75111 251.70588 250.31865 248.48642 246.40220 244.24197
 242.03974 239.85051 237.67728 235.52306 233.38983 231.26360 229.29637 227.46014
 225.74991 224.22869 222.86546 221.64423 220.53300 219.49977 218.61054 217.75832
 217.00709 216.19386 215.29863 214.66940 214.12617 214.02171 213.73166 213.03482
 212.12766 212.26529 213.85788 216.11043 218.72154 222.36555 227.14204 231.62529
 235.28755 239.47330 243.84334 248.06668 251.93642 255.39854 258.51703 261.49594
 264.35410 267.00885 269.56589 271.77713 273.48090 274.97021 276.77728 278.56720
 280.05624 281.16461 282.36829 283.69461 284.87494 285.92841 286.88956 287.76028
 288.54340 289.24078 289.84998 290.62634
 366.78100 356.33917 345.77534 334.64551 323.05268 311.25085 299.12502 286.93218
 274.64835 262.54952 250.56269 239.86786 229.99403 221.10220 213.28837 206.29454
 200.13271 195.07488 191.66105 189.70721 188.74838 188.81655 189.65572 190.96789
 192.69706 194.79623 197.06340 199.42657 201.87574 204.35991 206.45208 208.29825
 209.92841 211.07758 211.31075 211.54292 211.48409 211.19326 210.83043 210.46460
 210.08577 209.79994 209.61211 209.48028 209.41245 209.74761 210.13778 210.53095
 211.32812 212.51029 213.76446 215.55163 217.48380 219.53097 221.63014 223.71731
 225.78148 227.86964 229.97081 232.08098 234.21415 236.39032 238.65049 241.02466
 243.64983 245.90500 247.91117 249.68034 251.10151 252.22868 253.05484 253.37501
 253.41618 253.19435 252.55852 251.51069 250.12086 248.28603 246.19920 244.03637
 241.83154 239.63971 237.46388 235.30704 233.17121 231.04238 229.07255 227.23372
 225.52089 223.99706 222.63123 221.40740 220.29357 219.25774 218.36591 217.51107
 216.75724 215.94141 215.04358 214.41175 213.86592 213.90028 213.89279 213.03644
 212.11418 212.29189 213.87857 216.12450 218.71994 222.35379 227.12022 231.58661
 235.25296 239.43661 243.78841 247.98085 251.81833 255.26546 258.39505 261.41962
 264.31161 267.01227 269.56528 271.75891 273.42169 274.93695 276.81207 278.55038
 280.03220 281.19800 282.49173 283.84778 285.07809 286.17593 287.17752 288.08490
 288.90100 289.62772 290.26257 291.07162
 366.78100 356.33836 345.77372 334.64308 323.04944 311.24680 299.12016 286.92652
 274.64188 262.54223 250.55459 239.85895 229.98431 221.09167 213.27703 206.28239
 200.11975 195.06111 191.64647 189.69183 188.73219 188.79955 189.63791 190.94927
 192.67763 194.77599 197.04235 199.40470 201.85306 204.33642 206.42778 208.27314
 209.90250 211.05086 211.28322 211.51458 211.45494 211.16330 210.79966 210.43302
 210.05338 209.76674 209.57810 209.44546 209.37681 209.71117 210.10053 210.49289
 211.28925 212.47061 213.72397 215.51033 217.44169 219.48805 221.58641 223.67277
 225.73613 227.82349 229.92385 232.03321 234.16557 236.34093 238.60028 240.97364
 243.59800 245.85236 247.85772 249.62608 251.04644 252.17280 252.99816 253.31752
 253.35788 253.13524 252.49860 251.44996 250.05932 248.22368 246.13604 243.97239
 241.76675 239.57411 237.39747 235.23983 233.10319 230.97355 229.00291 227.16327
 225.44963 223.92499 222.55835 221.33371 220.21907 219.18243 218.28979 217.43415
 216.67950 215.86286 214.96422 214.33158 213.78494 213.87239 213.95857 213.06471
 212.10976 212.28735 213.94339 216.20767 218.76241 222.37393 227.14026 231.55183
 235.23087 239.41760 243.76176 247.93497 251.74182 255.16679 258.31738 261.36679
 264.27560 267.03232 269.56412 271.74548 273.39780 275.02194 276.84296 278.51419
 279.93250 281.15436 282.65530 284.07907 285.33078 286.43823 287.44861 288.36395
 289.18716 289.92029 290.56070 291.37683
 366.78100 356.33990 345.77680 334.64770 323.05560 311.25450 299.12941 286.93731
 274.65421 262.55611 250.57001 239.87591 230.00281 221.11171 213.29861 206.30551
 200.14441 195.08731 191.67422 189.72112 188.76302 188.83192 189.67182 190.98472
 192.71462 194.81452 197.08242 199.44632 201.89622 204.38113 206.47403 208.32093
 209.95183 211.10173 211.33563 211.56853 211.51043 211.22033 210.85823 210.49313
 210.11503 209.82994 209.64284 209.51174 209.44464 209.78054 210.17144 210.56534
 211.36324 212.54614 213.80104 215.58894 217.52185 219.56975 221.66965 223.75755
 225.82245 227.91135 230.01325 232.12415 234.25805 236.43495 238.69585 241.07075
 243.69666 245.95256 247.95946 249.72936 251.15126 252.27916 253.10606 253.42696
 253.46886 253.24776 252.61266 251.56557 250.17647 248.34237 246.25627 244.09417
 241.89007 239.69897 237.52387 235.36777 233.23267 231.10457 229.13547 227.29738
 225.58528 224.06218 222.69708 221.47398 220.36088 219.32578 218.43468 217.58058
 216.82748 216.01238 215.11529 214.48419 213.93909 213.96527 213.91260 213.09489
 212.13992 212.32141 214.03995 216.26669 218.74722 222.34566 227.15163 231.53148
 235.22601 239.39754 243.70886 247.86014 251.66486 255.09801 258.28723 261.36331
 264.26144 267.04279 269.56894 271.67813 273.33591 275.05768 276.88126 278.47516
 279.82062 281.43387 283.07062 284.52640 285.78625 286.90091 287.91788 288.83917
 289.66776 290.40564 291.05023 291.87167
 366.78100 356.34241 345.78182 334.65523 323.06563 311.26704 299.14445 286.95486
 274.67427 262.57868 250.59509 239.90350 230.03290 221.14431 213.33372 206.34313
 200.18454 195.12995 191.71936 189.76876 188.81317 188.88458 189.72699 191.04240
 192.77481 194.87722 197.14762 199.51403 201.96644 204.45385 206.54926 208.39867
 210.03208 211.18449 211.42089 211.65630 211.60071 211.31312 210.95353 210.59094
 210.21535 209.93275 209.74816 209.61957 209.55498 209.89339 210.28680 210.68321
 211.48362 212.66902 213.92643 215.71684 217.65225 219.70266 221.80507 223.89548
 225.96288 228.05429 230.15870 232.27211 234.40852 236.58793 238.85134 241.22875
 243.85715 246.11556 248.12497 249.89738 251.32179 252.45220 253.28161 253.60501
 253.64942 253.43083 252.79824 251.75365 250.36706 248.53547 246.45187 244.29228
 242.09069 239.90210 237.72951 235.57592 233.44333 231.31774 229.35114 227.51555
 225.80596 224.28537 222.92278 221.70219 220.59160 219.55900 218.67041 217.81882
 217.06823 216.25564 215.36105 214.73246 214.18987 214.10104 213.82596 213.13594
 212.20720 212.31839 214.06061 216.30186 218.72787 222.29788 227.16466 231.51512
 235.21027 239.37695 243.67601 247.81779 251.62521 255.07510 258.29825 261.40988
 264.31348 267.01385 269.55057 271.65842 273.27765 275.04111 276.81464 278.37491
 279.92847 281.76334 283.43069 284.89478 286.16180 287.28281 288.30554 289.23209
 290.06540 290.80746 291.45572 292.28186
 366.78100 356.34336 345.78372 334.65808 323.06944 311.27180 299.15016 286.96152
 274.68188 262.58724 250.60460 239.91396 230.04432 221.15668 213.34704 206.35740
 200.19976 195.14612 191.73648 189.78684 188.83220 188.90456 189.74792 191.06428
 192.79764 194.90100 197.17236 199.53973 201.99309 204.48145 206.57781 208.42817
 210.06253 211.21589 211.45325 211.68961 211.63497 211.34833 210.98969 210.62805
 210.25341 209.97177 209.78813 209.66049 209.59685 209.93621 210.33057 210.72793
 211.52929 212.71565 213.97401 215.76537 217.70173 219.75309 221.85645 223.94781
 226.01617 228.10853 230.21389 232.32825 234.46561 236.64597 238.91033 241.28869
 243.91805 246.17741 248.18777 249.96113 251.38649 252.51785 253.34821 253.67257
 253.71793 253.50029 252.86865 251.82501 250.43937 248.60873 246.52609 244.36745
 242.16682 239.97918 237.80754 235.65490 233.52326 231.39862 229.43298 227.59834
 225.88970 224.37006 223.00842 221.78878 220.67914 219.64750 218.75986 217.90922
 217.15958 216.34794 215.45430 214.82666 214.28502 214.16154 213.80963 213.17621
 212.33066 212.26144 213.93361 216.26031 218.74449 222.28970 227.16029 231.49435
 235.18430 239.34616 243.63397 247.76405 251.57083 255.04639 258.31161 261.45648
 264.38345 267.05621 269.52856 271.58609 273.20184 274.96588 276.76001 278.34180
 279.95862 281.89145 283.62921 285.15509 286.47559 287.64392 288.70981 289.67548
 290.54395 291.31735 291.99298 292.85397
 366.78100 356.34274 345.78248 334.65622 323.06695 311.26869 299.14643 286.95717
 274.67691 262.58165 250.59838 239.90712 230.03686 221.14860 213.33834 206.34808
 200.18981 195.13555 191.72529 189.77503 188.81977 188.89151 189.73424 191.04998
 192.78272 194.88546 197.15620 199.52294 201.97568 204.46341 206.55915 208.40889
 210.04263 211.19537 211.43211 211.66784 211.61258 211.32532 210.96606 210.60380
 210.22854 209.94627 209.76201 209.63375 209.56949 209.90823 210.30197 210.69870
 211.49944 212.68518 213.94292 215.73366 217.66940 219.72013 221.82287 223.91361
 225.98135 228.07309 230.17783 232.29157 234.42830 236.60804 238.87178 241.24952
 243.87826 246.13700 248.14673 249.91947 251.34421 252.47495 253.30469 253.62843
 253.67316 253.45490 252.82264 251.77838 250.39212 248.56086 246.47759 244.31833
 242.11707 239.92881 237.75655 235.60329 233.47103 231.34576 229.37950 227.54424
 225.83498 224.31472 222.95246 221.73219 220.62193 219.58967 218.70141 217.85015
 217.09989 216.28762 215.39336 214.76510 214.22284 214.13770 213.85248 213.19745
 212.46861 212.27461 213.76839 216.11290 218.69023 222.33144 227.09174 231.46201
 235.15063 239.31578 243.59676 247.70541 251.50296 255.02295 258.35886 261.54620
 264.51617 267.16373 269.51306 271.56360 273.23544 275.08765 276.91144 278.52896
 279.89954 281.74655 283.56927 285.16977 286.55487 287.78030 288.89835 289.91122
 290.82217 291.63339 292.34204 293.24515
 366.78100 356.34197 345.78093 334.65390 323.06386 311.26483 299.14180 286.95176
 274.67073 262.57469 250.59066 239.89862 230.02759 221.13856 213.32752 206.33649
 200.17745 195.12242 191.71139 189.76035 188.80432 188.87528 189.71725 191.03221
 192.76418 194.86615 197.13611 199.50208 201.95404 204.44101 206.53598 208.38494
 210.01791 211.16987 211.40584 211.64080 211.58477 211.29674 210.93670 210.57367
 210.19763 209.91460 209.72957 209.60053 209.53550 209.87346 210.26643 210.66239
 211.46236 212.64733 213.90429 215.69426 217.62922 219.67919 221.78116 223.87112
 225.93809 228.02905 230.13302 232.24598 234.38195 236.56092 238.82388 241.20085
 243.82881 246.08678 248.09575 249.86771 251.29168 252.42164 253.25061 253.57357
 253.61754 253.39851 252.76547 251.72044 250.33340 248.50137 246.41734 244.25730
 242.05527 239.86623 237.69320 235.53916 233.40613 231.28010 229.31306 227.47703
 225.76699 224.24596 222.88293 221.66189 220.55086 219.51782 218.62879 217.77675
 217.02572 216.21269 215.31765 214.68862 214.14558 214.08624 213.88992 213.27994
 212.53812 212.33516 213.59349 215.88770 218.63454 222.33081 227.00610 231.41351
 235.09686 239.25908 243.52423 247.60144 251.39330 254.95795 258.34338 261.53970
 264.51508 267.19391 269.50143 271.49637 273.35849 275.23325 277.11273 278.77902
 280.18405 281.44791 283.00262 284.57025 285.98035 287.22794 288.36618 289.39734
 290.32477 291.15063 291.87210 292.79150
 366.78100 356.34212 345.78124 334.65436 323.06448 311.26560 299.14272 286.95285
 274.67197 262.57609 250.59221 239.90033 230.02945 221.14057 213.32969 206.33881
 200.17993 195.12505 191.71417 189.76329 188.80741 188.87854 189.72066 191.03578
 192.76790 194.87002 197.14014 199.50626 201.95838 204.44550 206.54062 208.38974
 210.02286 211.17498 211.41110 211.64623 211.59035 211.30247 210.94259 210.57971
 210.20383 209.92095 209.73607 209.60719 209.54231 209.88043 210.27355 210.66967
 211.46979 212.65492 213.91204 215.70216 217.63728 219.68740 221.78952 223.87964
 225.94676 228.03788 230.14200 232.25512 234.39124 236.57036 238.83348 241.21061
 243.83873 246.09685 248.10597 249.87809 251.30221 252.43233 253.26145 253.58457
 253.62869 253.40981 252.77693 251.73205 250.34517 248.51330 246.42942 244.26954
 242.06766 239.87878 237.70590 235.55202 233.41914 231.29326 229.32638 227.49050
 225.78062 224.25974 222.89686 221.67599 220.56511 219.53223 218.64335 217.79147
 217.04059 216.22771 215.33283 214.70395 214.16107 214.08360 213.87915 213.41797
 212.53610 212.32480 213.48804 215.70532 218.51151 222.25404 226.98987 231.39075
 235.07838 239.19960 243.41483 247.45647 251.23814 254.83163 258.24573 261.44348
 264.41608 267.10303 269.42880 271.38968 273.25146 275.21637 277.17575 278.86655
 280.27783 281.54858 282.96786 284.35452 285.63196 286.80582 287.87680 288.84705
 289.71967 290.49673 291.17560 292.04068
 366.78100 356.34304 345.78308 334.65712 323.06816 311.27020 299.14825 286.95929
 274.67933 262.58437 250.60141 239.91045 230.04049 221.15253 213.34257 206.35261
 200.19466 195.14070 191.73074 189.78078 188.82582 188.89786 189.74090 191.05694
 192.78998 194.89302 197.16407 199.53111 201.98415 204.47219 206.56823 208.41827
 210.05231 211.20535 211.44239 211.67843 211.62348 211.33652 210.97756 210.61560
 210.24064 209.95868 209.77472 209.64676 209.58280 209.92184 210.31588 210.71293
 211.51397 212.70001 213.95805 215.74909 217.68513 219.73617 221.83921 223.93025
 225.99829 228.09034 230.19538 232.30942 234.44646 236.62650 238.89054 241.26858
 243.89762 246.15666 248.16670 249.93975 251.36479 252.49583 253.32587 253.64991
 253.69495 253.47699 252.84503 251.80107 250.41511 248.58416 246.50120 244.34224
 242.14128 239.95332 237.78136 235.62840 233.49644 231.37148 229.40552 227.57056
 225.86161 224.34165 222.97969 221.75973 220.64977 219.61781 218.72985 217.87889
 217.12893 216.31697 215.42302 214.79506 214.25310 214.13515 213.84785 213.44934
 212.56981 212.31012 213.49644 215.65707 218.45432 222.23418 227.02591 231.42967
 235.10857 239.20605 243.39529 247.41248 251.17958 254.79221 258.22855 261.42148
 264.38739 267.05145 269.36179 271.29526 273.12170 275.19193 277.14050 278.77283
 280.14996 281.43301 282.85220 284.20911 285.44562 286.58755 287.62939 288.57324
 289.42212 290.17804 290.83841 291.67996
 366.78100 356.34226 345.78152 334.65478 323.06503 311.26629 299.14355 286.95381
 274.67307 262.57733 250.59359 239.90184 230.03110 221.14236 213.33162 206.34088
 200.18214 195.12739 191.71665 189.76591 188.81017 188.88143 189.72369 191.03895
 192.77120 194.87346 197.14372 199.50998 201.96224 204.44950 206.54476 208.39401
 210.02727 211.17953 211.41579 211.65105 211.59531 211.30756 210.94782 210.58508
 210.20934 209.92660 209.74186 209.61312 209.54837 209.88663 210.27989 210.67615
 211.47641 212.66167 213.91893 215.70918 217.64444 219.69470 221.79696 223.88722
 225.95448 228.04573 230.14999 232.26325 234.39951 236.57877 238.84203 241.21929
 243.84754 246.10580 248.11506 249.88732 251.31158 252.44184 253.27110 253.59435
 253.63861 253.41987 252.78713 251.74239 250.35565 248.52390 246.44016 244.28042
 242.07868 239.88994 237.71720 235.56346 233.43071 231.30497 229.33823 227.50249
 225.79275 224.27201 222.90927 221.68852 220.57778 219.54504 218.65630 217.80456
 217.05382 216.24107 215.34633 214.71759 214.17485 214.11281 213.92764 213.38844
 212.61172 212.43195 213.58800 215.63115 218.39215 222.20830 227.02850 231.45572
 235.13011 239.22429 243.40636 247.41248 251.16803 254.80360 258.27063 261.48038
 264.44894 267.09604 269.31662 271.19269 272.94659 274.95963 276.81052 278.37335
 279.77136 281.26920 282.80487 284.21863 285.52011 286.67157 287.72211 288.67383
 289.52979 290.29202 290.95789 291.80649
 366.78100 356.34040 345.77779 334.64919 323.05759 311.25698 299.13238 286.94078
 274.65818 262.56057 250.57497 239.88137 230.00876 221.11816 213.30556 206.31295
 200.15235 195.09575 191.68314 189.73054 188.77294 188.84234 189.68273 190.99613
 192.72653 194.82692 197.09532 199.45972 201.91011 204.39551 206.48891 208.33630
 209.96770 211.11810 211.35250 211.58589 211.52829 211.23869 210.87708 210.51248
 210.13488 209.85027 209.66367 209.53307 209.46647 209.80286 210.19426 210.58866
 211.38705 212.57045 213.82585 215.61424 217.54764 219.59604 221.69643 223.78483
 225.85023 227.93963 230.04202 232.15342 234.28782 236.46521 238.72661 241.10201
 243.72840 245.98480 247.99220 249.76259 251.18499 252.31339 253.14079 253.46218
 253.50458 253.28398 252.64937 251.60277 250.21417 248.38056 246.29496 244.13336
 241.92975 239.73915 237.56455 235.40895 233.27434 231.14674 229.17814 227.34053
 225.62893 224.10633 222.74172 221.51912 220.40652 219.37191 218.48131 217.62771
 216.87511 216.06050 215.16390 214.53330 213.98869 214.04227 214.06148 213.36427
 212.63731 212.64734 213.72719 215.61234 218.30240 222.14711 226.99858 231.41183
 235.08714 239.17773 243.35519 247.35683 251.12843 254.78551 258.28821 261.54739
 264.55542 267.25998 269.40964 271.19308 272.92783 274.80176 276.63153 278.23511
 279.60123 281.04608 282.78802 284.43454 285.85944 287.12009 288.27026 289.31226
 290.24939 291.08392 291.81296 292.74203
 366.78100 356.34040 345.77780 334.64919 323.05759 311.25699 299.13239 286.94079
 274.65819 262.56058 250.57498 239.88138 230.00878 221.11818 213.30558 206.31297
 200.15237 195.09577 191.68317 189.73057 188.77297 188.84236 189.68276 190.99616
 192.72656 194.82696 197.09536 199.45975 201.91015 204.39555 206.48895 208.33635
 209.96775 211.11814 211.35254 211.58594 211.52834 211.23874 210.87714 210.51253
 210.13493 209.85033 209.66373 209.53313 209.46653 209.80292 210.19432 210.58872
 211.38712 212.57052 213.82592 215.61431 217.54771 219.59611 221.69651 223.78491
 225.85031 227.93970 230.04210 232.15350 234.28790 236.46530 238.72669 241.10209
 243.72849 245.98489 247.99229 249.76269 251.18508 252.31348 253.14088 253.46228
 253.50468 253.28408 252.64947 251.60287 250.21427 248.38067 246.29507 244.13347
 241.92986 239.73926 237.56466 235.40906 233.27446 231.14686 229.17825 227.34065
 225.62905 224.10645 222.74185 221.51925 220.40664 219.37204 218.48144 217.62784
 216.87524 216.06064 215.16403 214.53343 213.98883 214.06944 214.10268 213.39441
 212.65538 212.69725 213.74542 215.64601 218.33252 222.05431 226.99879 231.36156
 235.02713 239.10587 243.26904 247.26263 251.04153 254.73346 258.27316 261.56412
 264.62003 267.35297 269.61911 271.51404 273.24777 275.01202 276.79871 278.22733
 279.64401 281.12320 282.40317 283.52710 284.49976 285.36029 286.14542 286.85669
 287.49637 288.06604 288.56369 289.19788
 366.78100 356.34117 345.77934 334.65151 323.06068 311.26085 299.13702 286.94619
 274.66436 262.56753 250.58269 239.88986 230.01803 221.12820 213.31637 206.32454
 200.16471 195.10888 191.69705 189.74522 188.78839 188.85856 189.69973 191.01390
 192.74507 194.84624 197.11541 199.48058 201.93175 204.41792 206.51208 208.36025
 209.99242 211.14359 211.37876 211.61293 211.55610 211.26727 210.90644 210.54261
 210.16578 209.88195 209.69612 209.56629 209.50046 209.83763 210.22980 210.62497
 211.42414 212.60830 213.86447 215.65364 217.58781 219.63698 221.73815 223.82732
 225.89349 227.98366 230.08683 232.19900 234.33417 236.51234 238.77451 241.15068
 243.77785 246.03502 248.04319 249.81436 251.23752 252.36669 253.19486 253.51703
 253.56020 253.34037 252.70654 251.66071 250.27288 248.44005 246.35522 244.19439
 241.99156 239.80173 237.62790 235.47307 233.33924 231.21241 229.24458 227.40775
 225.69691 224.17508 222.81125 221.58942 220.47759 219.44376 218.55393 217.70110
 216.94927 216.13544 215.23961 214.60978 214.06595 214.13177 214.10176 213.40123
 212.66147 212.63213 213.70647 215.67570 218.40210 222.10742 226.98601 231.33423
 234.98756 239.06039 243.23035 247.22366 250.99146 254.68805 258.24438 261.55310
 264.65649 267.49850 269.99939 272.12177 273.95026 275.71725 277.33945 278.66910
 281.38849 283.71945 285.73651 287.50763 289.04037 290.39648 291.63370 292.75455
 293.76263 294.66031 295.44452 296.44391
 366.78100 356.34026 345.77752 334.64878 323.05704 311.25630 299.13156 286.93982
 274.65708 262.55934 250.57360 239.87986 230.00712 221.11638 213.30365 206.31091
 200.15017 195.09343 191.68069 189.72795 188.77021 188.83947 189.67973 190.99299
 192.72325 194.82351 197.09177 199.45603 201.90629 204.39155 206.48481 208.33207
 209.96333 211.11359 211.34785 211.58111 211.52337 211.23363 210.87189 210.50715
 210.12941 209.84468 209.65794 209.52720 209.46046 209.79672 210.18798 210.58224
 211.38050 212.56376 213.81902 215.60728 217.54054 219.58880 221.68906 223.77732
 225.84258 227.93184 230.03410 232.14536 234.27962 236.45688 238.71814 241.09340
 243.71966 245.97592 247.98318 249.75344 251.17570 252.30397 253.13123 253.45249
 253.49475 253.27401 252.63927 251.59253 250.20379 248.37005 246.28431 244.12257
 241.91883 239.72809 237.55335 235.39761 233.26287 231.13513 229.16639 227.32865
 225.61691 224.09417 222.72943 221.50669 220.39395 219.35921 218.46847 217.61473
 216.86200 216.04726 215.15052 214.51978 213.97504 214.09106 214.15559 213.37138
 212.72617 212.68878 213.64384 215.54672 218.31378 222.09251 227.04251 231.37512
 235.01248 239.06540 243.21637 247.20691 250.96815 254.65778 258.20074 261.46225
 264.50125 267.32593 269.97644 272.44403 274.52505 276.31329 277.75729 278.86658
 280.82349 283.08047 285.03351 286.74841 288.23251 289.54556 290.74353 291.82880
 292.80487 293.67407 294.43341 295.40106
 366.78100 356.33902 345.77504 334.64505 323.05207 311.25009 299.12411 286.93112
 274.64714 262.54816 250.56118 239.86619 229.99221 221.10023 213.28625 206.29227
 200.13028 195.07230 191.65832 189.70434 188.74535 188.81337 189.65239 190.96441
 192.69342 194.79244 197.05946 199.42248 201.87150 204.35551 206.44753 208.29355
 209.92357 211.07258 211.30560 211.53762 211.47864 211.18765 210.82467 210.45869
 210.07971 209.79373 209.60574 209.47376 209.40578 209.74080 210.13081 210.52383
 211.32085 212.50287 213.75688 215.54390 217.47592 219.52294 221.62196 223.70897
 225.77299 227.86101 229.96203 232.07204 234.20506 236.38108 238.64110 241.01511
 243.64013 245.89515 247.90117 249.67019 251.09120 252.21822 253.04424 253.36426
 253.40527 253.18329 252.54731 251.49933 250.10934 248.27436 246.18738 244.02440
 241.81942 239.62743 237.45145 235.29447 233.15849 231.02950 229.05952 227.22054
 225.50756 223.98357 222.61759 221.39361 220.27963 219.24365 218.35166 217.49668
 216.74270 215.92672 215.02873 214.39675 213.85077 214.01520 214.23251 213.40573
 212.73700 212.72035 213.65251 215.47502 218.22661 222.12405 227.00259 231.36299
 234.99896 239.04466 243.18428 247.17213 250.94566 254.63229 258.17429 261.39102
 264.31415 266.96344 269.47482 272.02118 274.36938 276.25546 277.72824 278.78604
 280.04944 281.61523 283.43448 285.12994 286.59726 287.89542 289.07980 290.15280
 291.11783 291.97717 292.72791 293.68460
 366.78100 356.33980 345.77661 334.64741 323.05521 311.25401 299.12882 286.93662
 274.65342 262.55523 250.56903 239.87483 230.00163 221.11044 213.29724 206.30404
 200.14285 195.08565 191.67245 189.71926 188.76106 188.82986 189.66966 190.98247
 192.71227 194.81207 197.07988 199.44368 201.89348 204.37828 206.47109 208.31789
 209.94869 211.09850 211.33230 211.56510 211.50690 211.21671 210.85451 210.48931
 210.11112 209.82592 209.63872 209.50753 209.44033 209.77613 210.16693 210.56074
 211.35854 212.54134 213.79615 215.58395 217.51675 219.56455 221.66436 223.75216
 225.81696 227.90577 230.00757 232.11837 234.25217 236.42898 238.68978 241.06458
 243.69039 245.94619 247.95299 249.72279 251.14460 252.27240 253.09920 253.42001
 253.46181 253.24061 252.60542 251.55822 250.16902 248.33482 246.24863 244.08643
 241.88223 239.69104 237.51584 235.35964 233.22444 231.09625 229.12705 227.28885
 225.57666 224.05346 222.68826 221.46506 220.35187 219.31667 218.42547 217.57128
 216.81808 216.00288 215.10568 214.47449 213.92929 214.04222 214.20569 213.52382
 212.74571 212.63583 213.60335 215.45947 218.21318 222.08649 226.95609 231.32262
 234.95276 238.99866 243.13857 247.12036 250.88734 254.61153 258.22403 261.46964
 264.38089 266.89557 269.08261 271.46835 273.89972 275.99408 277.64670 278.76797
 279.53793 281.01352 282.45078 284.15015 285.68716 287.04703 288.28772 289.41168
 290.42258 291.32278 292.10919 293.11136
 366.78100 356.34241 345.78183 334.65524 323.06565 311.26707 299.14448 286.95489
 274.67431 262.57872 250.59514 239.90355 230.03296 221.14438 213.33379 206.34320
 200.18462 195.13003 191.71944 189.76886 188.81327 188.88468 189.72710 191.04251
 192.77492 194.87734 197.14775 199.51417 201.96658 204.45399 206.54941 208.39882
 210.03223 211.18465 211.42106 211.65647 211.60089 211.31330 210.95371 210.59113
 210.21554 209.93295 209.74837 209.61978 209.55520 209.89361 210.28702 210.68344
 211.48385 212.66926 213.92668 215.71709 217.65250 219.70292 221.80533 223.89574
 225.96316 228.05457 230.15898 232.27240 234.40881 236.58823 238.85164 241.22905
 243.85747 246.11588 248.12529 249.89771 251.32212 252.45253 253.28195 253.60536
 253.64977 253.43119 252.79860 251.75402 250.36743 248.53584 246.45226 244.29267
 242.09108 239.90250 237.72991 235.57632 233.44374 231.31815 229.35156 227.51598
 225.80639 224.28580 222.92322 221.70263 220.59205 219.55946 218.67087 217.81929
 217.06870 216.25611 215.36153 214.73294 214.19035 214.17616 214.09430 213.61363
 212.84818 212.59937 213.55057 215.43106 218.18701 222.05626 226.95078 231.30737
 234.92845 238.95335 243.07599 247.04633 250.82066 254.58784 258.24811 261.54843
 264.53662 267.08218 269.08987 271.19550 273.54871 275.65103 277.25739 278.20883
 279.31445 280.82953 282.38098 284.01508 285.42923 286.68039 287.82190 288.85605
 289.78613 290.61435 291.33789 292.25995
 366.78100 356.34454 345.78609 334.66163 323.07418 311.27772 299.15727 286.96981
 274.69135 262.59790 250.61644 239.92699 230.05853 221.17208 213.36362 206.37516
 200.21871 195.16625 191.75780 189.80934 188.85589 188.92943 189.77397 191.09152
 192.82606 194.93061 197.20315 199.57170 202.02624 204.51578 206.61333 208.46487
 210.10042 211.25496 211.49351 211.73105 211.67759 211.39214 211.03468 210.67423
 210.30077 210.02032 209.83786 209.71140 209.64895 209.98949 210.38504 210.78358
 211.58613 212.77367 214.03321 215.82576 217.76330 219.81585 221.92039 224.01293
 226.08248 228.17602 230.28257 232.39811 234.53666 236.71820 238.98374 241.36329
 243.99383 246.25438 248.26592 250.04047 251.46701 252.59955 253.43110 253.75664
 253.80319 253.58673 252.95628 251.91382 250.52936 248.69991 246.61845 244.46100
 242.26154 240.07509 237.90463 235.75317 233.62272 231.49926 229.53481 227.70135
 225.99390 224.47544 223.11498 221.89653 220.78807 219.75762 218.87116 218.02171
 217.27325 216.46279 215.57034 214.94388 214.40343 214.30013 214.03183 213.63118
 212.98740 212.66887 213.49751 215.33464 218.10396 222.00368 226.94693 231.30171
 234.91220 238.91940 243.02802 246.99120 250.77515 254.57793 258.26193 261.60355
 264.68121 267.30618 269.30490 271.25165 273.41745 275.36908 276.76675 278.04803
 279.26065 280.88281 282.50388 283.94882 285.19931 286.30566 287.31503 288.22946
 289.05188 289.78424 290.42404 291.23935
 366.78100 356.34423 345.78547 334.66070 323.07294 311.27617 299.15541 286.96764
 274.68888 262.59511 250.61335 239.92358 230.05482 221.16805 213.35929 206.37052
 200.21375 195.16099 191.75222 189.80346 188.84969 188.92293 189.76716 191.08440
 192.81863 194.92287 197.19510 199.56334 202.01757 204.50681 206.60404 208.45527
 210.09051 211.24474 211.48298 211.72021 211.66645 211.38068 211.02292 210.66215
 210.28839 210.00762 209.82486 209.69809 209.63533 209.97556 210.37079 210.76903
 211.57126 212.75850 214.01773 215.80997 217.74720 219.79944 221.90367 223.99591
 226.06514 228.15838 230.26461 232.37985 234.51808 236.69931 238.96455 241.34378
 243.97402 246.23425 248.24549 250.01972 251.44596 252.57819 253.40943 253.73466
 253.78090 253.56413 252.93337 251.89060 250.50583 248.67607 246.59430 244.43654
 242.23677 240.05001 237.87924 235.72748 233.59671 231.47295 229.50818 227.67442
 225.96665 224.44789 223.08712 221.86836 220.75959 219.72882 218.84206 217.99229
 217.24353 216.43276 215.54000 214.91323 214.37247 214.29405 214.06415 213.59718
 213.08713 212.74142 213.44788 215.24449 218.05225 221.98547 226.87775 231.27925
 234.88992 238.90091 243.01118 246.96997 250.74551 254.53639 258.22296 261.58069
 264.68616 267.41238 269.52264 271.38705 273.44562 275.29172 276.62137 277.92361
 279.30566 280.90082 282.45981 283.92465 285.19235 286.31393 287.33722 288.26422
 289.09799 289.84042 290.48904 291.31558
 366.78100 356.34298 345.78295 334.65693 323.06790 311.26988 299.14786 286.95883
 274.67881 262.58378 250.60076 239.90974 230.03971 221.15169 213.34166 206.35164
 200.19362 195.13959 191.72957 189.77954 188.82452 188.89650 189.73947 191.05545
 192.78842 194.89140 197.16238 199.52935 201.98233 204.47030 206.56628 208.41626
 210.05023 211.20321 211.44018 211.67616 211.62114 211.33411 210.97509 210.61306
 210.23804 209.95601 209.77199 209.64397 209.57994 209.91892 210.31289 210.70987
 211.51085 212.69682 213.95480 215.74577 217.68175 219.73273 221.83570 223.92668
 225.99465 228.08663 230.19161 232.30558 234.44256 236.62253 238.88651 241.26449
 243.89346 246.15244 248.16241 249.93539 251.36037 252.49134 253.32132 253.64529
 253.69027 253.47225 252.84022 251.79620 250.41017 248.57915 246.49613 244.33710
 242.13608 239.94805 237.77603 235.62301 233.49098 231.36596 229.39993 227.56491
 225.85589 224.33586 222.97384 221.75381 220.64379 219.61177 218.72374 217.87272
 217.12269 216.31067 215.41665 214.78862 214.24660 214.23047 214.13925 213.59366
 213.12796 212.75603 213.38295 215.14937 217.97899 221.91640 226.80907 231.23230
 234.85628 238.86530 242.96706 246.92618 250.69690 254.47382 258.15131 261.47882
 264.56720 267.32803 269.56842 271.43292 273.33362 275.05301 276.45267 277.87296
 279.24292 280.77573 282.23639 283.54807 284.75903 285.83881 286.82394 287.71643
 288.51910 289.23389 289.85834 290.65408
 366.78100 356.34165 345.78029 334.65294 323.06258 311.26323 299.13988 286.94952
 274.66817 262.57181 250.58746 239.89511 230.02375 221.13440 213.32304 206.33169
 200.17234 195.11698 191.70563 189.75427 188.79792 188.86857 189.71021 191.02486
 192.75650 194.85815 197.12780 199.49344 201.94509 204.43173 206.52638 208.37503
 210.00767 211.15932 211.39496 211.62961 211.57326 211.28490 210.92455 210.56119
 210.18484 209.90149 209.71613 209.58678 209.52142 209.85907 210.25172 210.64736
 211.44701 212.63165 213.88830 215.67795 217.61259 219.66224 221.76388 223.85353
 225.92018 228.01082 230.11447 232.22711 234.36276 236.54141 238.80405 241.18070
 243.80835 246.06599 248.07464 249.84628 251.26993 252.39958 253.22822 253.55087
 253.59451 253.37516 252.74181 251.69645 250.30910 248.47674 246.39239 244.23204
 242.02968 239.84033 237.66697 235.51262 233.37927 231.25291 229.28556 227.44920
 225.73885 224.21750 222.85414 221.63279 220.52143 219.48808 218.59873 217.74637
 216.99502 216.18166 215.28631 214.65696 214.11360 214.16927 214.23340 213.60191
 213.13156 212.80284 213.33569 215.05325 217.89902 221.85207 226.76041 231.17738
 234.80844 238.82346 242.93575 246.90562 250.68518 254.45981 258.13235 261.43369
 264.50397 267.30252 269.62604 271.57043 273.41315 274.99759 276.34976 277.89456
 279.19736 280.55713 281.91238 283.14786 284.35291 285.45346 286.45752 287.36713
 288.18524 288.91376 289.55017 290.36121
 366.78100 356.34020 345.77741 334.64861 323.05682 311.25602 299.13123 286.93943
 274.65664 262.55884 250.57305 239.87925 230.00646 221.11566 213.30287 206.31007
 200.14927 195.09248 191.67968 189.72689 188.76909 188.83830 189.67850 190.99171
 192.72191 194.82212 197.09032 199.45453 201.90473 204.38994 206.48314 208.33034
 209.96155 211.11175 211.34596 211.57916 211.52137 211.23157 210.86978 210.50498
 210.12719 209.84239 209.65560 209.52480 209.45801 209.79421 210.18541 210.57962
 211.37782 212.56103 213.81623 215.60444 217.53764 219.58585 221.68605 223.77426
 225.83946 227.92867 230.03087 232.14208 234.27628 236.45348 238.71469 241.08989
 243.71610 245.97230 247.97951 249.74971 251.17192 252.30012 253.12733 253.44853
 253.49074 253.26994 252.63515 251.58835 250.19956 248.36576 246.27996 244.11817
 241.91437 239.72358 237.54878 235.39299 233.25819 231.13040 229.16160 227.32381
 225.61201 224.08922 222.72442 221.50163 220.38883 219.35403 218.46324 217.60944
 216.85665 216.04185 215.14506 214.51426 213.96947 214.09534 214.33006 213.64307
 212.98994 212.67078 213.27130 215.02832 217.89282 221.84659 226.79149 231.16602
 234.81340 238.83000 242.95497 246.93884 250.72652 254.48801 258.13123 261.42160
 264.45126 267.27444 269.70892 271.75528 273.54926 275.01297 276.25449 277.78009
 279.16644 280.52850 281.94049 282.98975 284.06833 285.18979 286.24884 287.20828
 288.07117 288.83957 289.51083 290.36630
 366.78100 356.34114 345.77928 334.65142 323.06056 311.26070 299.13684 286.94598
 274.66412 262.56726 250.58240 239.88954 230.01767 221.12781 213.31595 206.32409
 200.16423 195.10837 191.69651 189.74465 188.78779 188.85793 189.69907 191.01321
 192.74435 194.84549 197.11463 199.47977 201.93091 204.41705 206.51119 208.35933
 209.99147 211.14261 211.37775 211.61189 211.55502 211.26616 210.90530 210.54144
 210.16458 209.88072 209.69486 209.56500 209.49914 209.83628 210.22842 210.62356
 211.42270 212.60684 213.86298 215.65212 217.58626 219.63540 221.73654 223.82568
 225.89182 227.98196 230.08510 232.19724 234.33237 236.51051 238.77265 241.14879
 243.77593 246.03307 248.04121 249.81235 251.23549 252.36463 253.19277 253.51491
 253.55805 253.33819 252.70433 251.65847 250.27061 248.43775 246.35289 244.19203
 241.98917 239.79931 237.62545 235.47058 233.33672 231.20986 229.24200 227.40514
 225.69428 224.17242 222.80856 221.58670 220.47484 219.44098 218.55112 217.69826
 216.94640 216.13254 215.23668 214.60682 214.06296 214.12737 214.26442 213.93752
 212.96149 212.29655 213.02779 214.95868 217.87111 221.84320 226.86984 231.16740
 234.84987 238.85828 242.99553 246.99036 250.78047 254.50302 258.11304 261.38770
 264.34836 267.09140 269.57477 271.70096 273.48672 274.94000 276.24774 277.66632
 279.18451 280.58908 281.95639 283.02484 283.90643 284.93750 285.91901 286.88544
 287.75464 288.52866 289.20483 290.06656
 366.78100 356.34413 345.78526 334.66038 323.07251 311.27564 299.15477 286.96690
 274.68803 262.59415 250.61228 239.92241 230.05354 221.16667 213.35780 206.36892
 200.21205 195.15918 191.75031 189.80144 188.84757 188.92069 189.76482 191.08195
 192.81608 194.92021 197.19234 199.56046 202.01459 204.50372 206.60085 208.45198
 210.08711 211.24123 211.47936 211.71649 211.66262 211.37675 211.01888 210.65800
 210.28413 210.00326 209.82039 209.69352 209.63065 209.97077 210.36590 210.76403
 211.56616 212.75329 214.01242 215.80454 217.74167 219.79380 221.89793 223.99006
 226.05919 228.15231 230.25844 232.37357 234.51170 236.69283 238.95796 241.33708
 243.96721 246.22734 248.23847 250.01260 251.43873 252.57085 253.40198 253.72711
 253.77324 253.55637 252.92550 251.88262 250.49775 248.66788 246.58601 244.42814
 242.22827 240.04139 237.87052 235.71865 233.58778 231.46391 229.49904 227.66516
 225.95729 224.43842 223.07755 221.85868 220.74981 219.71893 218.83206 217.98219
 217.23332 216.42245 215.52958 214.90270 214.36183 214.27695 214.08681 214.16977
 213.29626 212.11064 212.66769 214.72905 217.74588 221.78693 226.87262 231.19106
 234.86702 238.89534 243.05023 247.06049 250.84924 254.56078 258.17291 261.44461
 264.35522 267.00110 269.43491 271.59586 273.35675 274.74521 276.10303 277.55191
 279.07581 280.57523 281.99597 283.19226 284.01562 284.99017 285.95758 286.91153
 287.77029 288.53503 289.20309 290.05447
 366.78100 356.34417 345.78533 334.66050 323.07267 311.27583 299.15500 286.96716
 274.68833 262.59450 250.61266 239.92283 230.05400 221.16716 213.35833 206.36949
 200.21266 195.15983 191.75099 189.80216 188.84833 188.92149 189.76566 191.08283
 192.81699 194.92116 197.19332 199.56149 202.01566 204.50482 206.60199 208.45316
 210.08832 211.24249 211.48065 211.71782 211.66399 211.37815 211.02032 210.65949
 210.28565 210.00482 209.82199 209.69515 209.63232 209.97248 210.36765 210.76582
 211.56798 212.75515 214.01432 215.80648 217.74365 219.79581 221.89998 223.99215
 226.06131 228.15448 230.26065 232.37581 234.51398 236.69514 238.96031 241.33948
 243.96964 246.22981 248.24098 250.01514 251.44131 252.57348 253.40464 253.72981
 253.77597 253.55914 252.92831 251.88547 250.50064 248.67081 246.58897 244.43114
 242.23130 240.04447 237.87364 235.72180 233.59097 231.46714 229.50230 227.66847
 225.96064 224.44180 223.08097 221.86213 220.75330 219.72247 218.83563 217.98580
 217.23697 216.42613 215.53330 214.90646 214.36563 214.30193 214.15103 214.01608
 213.56190 212.36595 212.56064 214.47113 217.54663 221.64978 226.75459 231.15282
 234.81992 238.88861 243.06990 247.10461 250.91721 254.66138 258.30255 261.60983
 264.53046 267.12280 269.49008 271.64105 273.32849 274.61984 275.97617 277.49997
 279.01337 280.48407 281.92386 283.21359 284.27762 285.33163 286.38870 287.34631
 288.20758 288.97455 289.64456 290.49841
 366.78100 356.34112 345.77923 334.65135 323.06046 311.26058 299.13669 286.94581
 274.66392 262.56704 250.58215 239.88927 230.01738 221.12750 213.31561 206.32373
 200.16385 195.10796 191.69608 189.74419 188.78731 188.85742 189.69854 191.01265
 192.74377 194.84488 197.11400 199.47911 201.93023 204.41634 206.51046 208.35857
 209.99069 211.14181 211.37692 211.61104 211.55415 211.26527 210.90438 210.54050
 210.16361 209.87973 209.69384 209.56396 209.49807 209.83519 210.22730 210.62242
 211.42154 212.60565 213.86177 215.65088 217.58500 219.63411 221.73523 223.82434
 225.89046 227.98057 230.08369 232.19580 234.33092 236.50903 238.77115 241.14726
 243.77438 246.03150 248.03961 249.81073 251.23384 252.36296 253.19107 253.51319
 253.55630 253.33642 252.70253 251.65665 250.26876 248.43588 246.35099 244.19011
 241.98723 239.79734 237.62346 235.46857 233.33469 231.20780 229.23992 227.40303
 225.69215 224.17026 222.80638 221.58449 220.47261 219.43872 218.54884 217.69596
 216.94407 216.13019 215.23430 214.60442 214.06053 214.17168 214.37865 213.84315
 213.51112 212.83308 212.82140 214.40372 217.39403 221.49362 226.56851 230.99387
 234.67784 238.77776 242.98666 247.04390 250.88255 254.68028 258.38916 261.78308
 264.77429 267.37949 269.73636 271.86389 273.47577 274.64438 275.84927 277.39951
 278.94070 280.42935 281.93649 283.31726 284.49921 285.61176 286.63907 287.56973
 288.40680 289.15219 289.80334 290.63318
 366.78100 356.33986 345.77672 334.64758 323.05544 311.25429 299.12915 286.93701
 274.65387 262.55573 250.56959 239.87545 230.00231 221.11117 213.29802 206.30488
 200.14374 195.08660 191.67346 189.72032 188.76218 188.83104 189.67090 190.98375
 192.71361 194.81347 197.08133 199.44519 201.89505 204.37991 206.47277 208.31963
 209.95049 211.10034 211.33420 211.56706 211.50892 211.21878 210.85664 210.49150
 210.11336 209.82822 209.64107 209.50993 209.44279 209.77865 210.16951 210.56337
 211.36123 212.54409 213.79895 215.58680 217.51966 219.56752 221.66738 223.75524
 225.82010 227.90896 230.01082 232.12168 234.25553 236.43239 238.69325 241.06811
 243.69397 245.94983 247.95669 249.72655 251.14841 252.27626 253.10312 253.42398
 253.46584 253.24470 252.60956 251.56242 250.17328 248.33914 246.25299 244.09085
 241.88671 239.69557 237.52043 235.36429 233.22915 231.10101 229.13187 227.29372
 225.58158 224.05844 222.69330 221.47016 220.35702 219.32188 218.43074 217.57660
 216.82346 216.00831 215.11117 214.48003 213.93489 214.11598 214.47987 213.89676
 213.28142 212.94644 213.04871 214.50226 217.40015 221.44276 226.46211 230.86197
 234.54071 238.63846 242.84045 246.88745 250.73694 254.56664 258.31235 261.76901
 264.83820 267.50894 269.90317 272.07895 273.70096 274.80966 275.98206 277.44241
 279.01865 280.52692 282.07382 283.48846 284.72861 285.94284 287.07516 288.10095
 289.02356 289.84512 290.56284 291.47748
 366.78100 356.34125 345.77949 334.65174 323.06098 311.26123 299.13748 286.94672
 274.66497 262.56821 250.58346 239.89071 230.01895 221.12920 213.31744 206.32569
 200.16593 195.11018 191.69843 189.74667 188.78992 188.86016 189.70141 191.01566
 192.74690 194.84815 197.11739 199.48264 201.93389 204.42013 206.51438 208.36262
 209.99487 211.14612 211.38136 211.61561 211.55885 211.27010 210.90935 210.54559
 210.16884 209.88508 209.69933 209.56958 209.50382 209.84107 210.23331 210.62856
 211.42780 212.61205 213.86830 215.65754 217.59179 219.64103 221.74228 223.83153
 225.89777 227.98802 230.09126 232.20351 234.33876 236.51700 238.77925 241.15549
 243.78274 246.03999 248.04823 249.81948 251.24272 252.37197 253.20022 253.52246
 253.56571 253.34595 252.71220 251.66644 250.27869 248.44594 246.36118 244.20043
 241.99767 239.80792 237.63417 235.47941 233.34566 231.21890 229.25115 227.41440
 225.70364 224.18189 222.81813 221.59638 220.48463 219.45087 218.56112 217.70836
 216.95661 216.14286 215.24710 214.61735 214.07359 214.18399 214.41595 214.08450
 213.20152 212.66490 212.97313 214.59157 217.52010 221.52904 226.52802 230.87592
 234.52414 238.59746 242.77573 246.79076 250.61586 254.41838 258.14041 261.59631
 264.68161 267.39807 269.84308 272.08649 273.73312 274.85196 276.07648 277.55240
 279.11890 280.65237 282.20187 283.61765 284.88754 286.07089 287.22549 288.27148
 289.21222 290.04996 290.78180 291.71445
 366.78100 356.34346 345.78391 334.65837 323.06982 311.27228 299.15073 286.96219
 274.68264 262.58810 250.60555 239.91501 230.04546 221.15792 213.34837 206.35883
 200.20128 195.14774 191.73819 189.78865 188.83411 188.90656 189.75002 191.06647
 192.79993 194.90338 197.17484 199.54229 201.99575 204.48420 206.58066 208.43111
 210.06557 211.21902 211.45648 211.69293 211.63839 211.35184 210.99330 210.63175
 210.25721 209.97567 209.79212 209.66458 209.60103 209.94049 210.33494 210.73240
 211.53385 212.72031 213.97876 215.77022 217.70667 219.75813 221.86158 223.95304
 226.02149 228.11395 230.21940 232.33386 234.47132 236.65177 238.91623 241.29468
 243.92414 246.18359 248.19405 249.96750 251.39296 252.52441 253.35487 253.67932
 253.72478 253.50723 252.87569 251.83214 250.44660 248.61605 246.53351 244.37496
 242.17442 239.98688 237.81533 235.66279 233.53124 231.40670 229.44115 227.60661
 225.89806 224.37852 223.01697 221.79743 220.68788 219.65634 218.76879 217.91825
 217.16870 216.35716 215.46361 214.83607 214.29453 214.29456 214.29936 214.28786
 213.30276 212.30530 212.67648 214.55595 217.60001 221.64049 226.66914 230.99350
 234.60823 238.66484 242.83250 246.82700 250.61208 254.35519 258.02295 261.43881
 264.49469 267.20230 269.66965 271.90030 273.48044 274.65445 276.02808 277.60400
 279.20142 280.82678 282.37671 283.78452 285.05161 286.16779 287.31738 288.35883
 289.29550 290.12961 290.85825 291.78683
 366.78100 356.34572 345.78844 334.66516 323.07887 311.28359 299.16431 286.97803
 274.70075 262.60847 250.62818 239.93990 230.07262 221.18734 213.38006 206.39278
 200.23749 195.18621 191.77893 189.83165 188.87937 188.95409 189.79981 191.11852
 192.85424 194.95996 197.23368 199.60340 202.05912 204.54983 206.64855 208.50127
 210.13799 211.29371 211.53343 211.77215 211.71986 211.43558 211.07930 210.72002
 210.34774 210.06846 209.88717 209.76189 209.70061 210.04233 210.43905 210.83877
 211.64248 212.83120 214.09192 215.88564 217.82436 219.87808 221.98380 224.07751
 226.14823 228.24295 230.35067 232.46739 234.60711 236.78982 239.05654 241.43726
 244.06898 246.33070 248.34342 250.11914 251.54685 252.68057 253.51329 253.84001
 253.88773 253.67245 253.04316 252.00188 250.61860 248.79032 246.71004 244.55376
 242.35547 240.17019 238.00091 235.85063 233.72135 231.59907 229.63579 227.80350
 226.09722 224.57994 223.22066 222.00338 220.89610 219.86681 218.98153 218.13325
 217.38597 216.57669 215.68541 215.06013 214.52084 214.41481 214.19945 214.44937
 213.51030 212.10983 212.39903 214.43246 217.56862 221.66772 226.74580 231.09186
 234.68658 238.75853 242.94138 246.94482 250.70886 254.39993 258.01968 261.41315
 264.45261 267.13937 269.57770 271.76730 273.28564 274.42249 275.83881 277.50894
 279.22107 280.95404 282.51770 283.93704 285.19260 286.33310 287.42661 288.41727
 289.30823 290.10165 290.79477 291.67807
 366.78100 356.34591 345.78883 334.66574 323.07965 311.28457 299.16548 286.97939
 274.70231 262.61022 250.63013 239.94204 230.07496 221.18987 213.38278 206.39570
 200.24061 195.18952 191.78244 189.83535 188.88326 188.95818 189.80409 191.12300
 192.85892 194.96483 197.23874 199.60865 202.06457 204.55548 206.65439 208.50731
 210.14422 211.30013 211.54005 211.77896 211.72687 211.44279 211.08670 210.72761
 210.35553 210.07644 209.89535 209.77026 209.70918 210.05109 210.44800 210.84792
 211.65183 212.84074 214.10166 215.89557 217.83448 219.88840 221.99431 224.08822
 226.15914 228.25405 230.36196 232.47888 234.61879 236.80170 239.06861 241.44953
 244.08144 246.34335 248.35627 250.13218 251.56009 252.69401 253.52692 253.85383
 253.90175 253.68666 253.05757 252.01649 250.63340 248.80531 246.72522 244.56914
 242.37105 240.18596 238.01688 235.86679 233.73770 231.61562 229.65253 227.82044
 226.11436 224.59727 223.23818 222.02110 220.91401 219.88492 218.99983 218.15175
 217.40466 216.59557 215.70449 215.07940 214.54031 214.44772 214.25777 214.36554
 213.78477 212.21770 212.28110 214.27016 217.44215 221.57812 226.69656 231.06055
 234.68350 238.79239 243.01086 247.04913 250.83308 254.51114 258.10944 261.49658
 264.53781 267.23343 269.67963 271.82608 273.33932 274.49393 275.93881 277.55511
 279.36115 281.12982 282.70654 284.15140 285.52597 286.80078 287.96384 289.01752
 289.96515 290.80905 291.54626 292.48575
 366.78100 356.34358 345.78416 334.65874 323.07033 311.27291 299.15149 286.96307
 274.68365 262.58923 250.60681 239.91639 230.04698 221.15956 213.35014 206.36072
 200.20330 195.14988 191.74046 189.79104 188.83663 188.90921 189.75279 191.06937
 192.80295 194.90653 197.17811 199.54569 201.99928 204.48786 206.58444 208.43502
 210.06960 211.22318 211.46076 211.69735 211.64293 211.35651 210.99809 210.63667
 210.26225 209.98083 209.79741 209.67000 209.60658 209.94616 210.34074 210.73832
 211.53990 212.72648 213.98506 215.77665 217.71323 219.76481 221.86839 223.95997
 226.02855 228.12113 230.22671 232.34130 234.47888 236.65946 238.92404 241.30262
 243.93220 246.19178 248.20237 249.97595 251.40153 252.53311 253.36369 253.68827
 253.73385 253.51643 252.88502 251.84160 250.45618 248.62576 246.54334 244.38492
 242.18450 239.99708 237.82567 235.67325 233.54183 231.41741 229.45199 227.61757
 225.90915 224.38973 223.02832 221.80890 220.69948 219.66806 218.78064 217.93022
 217.18080 216.36939 215.47597 214.84855 214.30713 214.36302 214.44130 214.13591
 213.98630 212.57979 212.33418 214.10712 217.24025 221.38940 226.50653 230.85860
 234.53218 238.69925 242.96489 247.04443 250.86339 254.56908 258.18658 261.60117
 264.69116 267.43884 269.91772 272.11798 273.70383 274.88239 276.23874 277.77847
 279.57986 281.37357 282.96570 284.44861 285.88080 287.14792 288.30396 289.35126
 290.29321 291.13199 291.86475 292.79855
 366.78100 356.34219 345.78139 334.65458 323.06478 311.26597 299.14317 286.95336
 274.67256 262.57675 250.59295 239.90114 230.03033 221.14153 213.33072 206.33992
 200.18111 195.12631 191.71550 189.76470 188.80889 188.88009 189.72228 191.03748
 192.76967 194.87186 197.14206 199.50825 201.96045 204.44764 206.54284 208.39203
 210.02523 211.17742 211.41362 211.64881 211.59300 211.30520 210.94539 210.58259
 210.20678 209.92398 209.73917 209.61037 209.54556 209.88376 210.27695 210.67314
 211.47334 212.65853 213.91573 215.70592 217.64112 219.69131 221.79351 223.88370
 225.95090 228.04209 230.14629 232.25948 234.39567 236.57487 238.83806 241.21526
 243.84345 246.10165 248.11084 249.88304 251.30723 252.43743 253.26662 253.58981
 253.63401 253.41520 252.78240 251.73759 250.35079 248.51898 246.43518 244.27537
 242.07357 239.88476 237.71195 235.55815 233.42534 231.29954 229.33273 227.49693
 225.78712 224.26632 222.90351 221.68271 220.57190 219.53910 218.65029 217.79848
 217.04768 216.23487 215.34007 214.71126 214.16846 214.30551 214.55568 214.04832
 213.92587 212.92610 212.54929 214.08710 217.11870 221.22383 226.26253 230.64964
 234.34476 238.52115 242.78551 246.87619 250.73477 254.46944 258.09909 261.53348
 264.66000 267.46796 269.99902 272.21494 273.86880 275.12460 276.49951 278.02670
 279.83997 281.62137 283.18396 284.58905 285.91397 287.12610 288.23196 289.23383
 290.13489 290.93729 291.63821 292.53152
 366.78100 356.34397 345.78494 334.65991 323.07188 311.27485 299.15382 286.96578
 274.68675 262.59272 250.61069 239.92066 230.05163 221.16460 213.35557 206.36654
 200.20951 195.15648 191.74745 189.79841 188.84438 188.91735 189.76132 191.07829
 192.81226 194.91623 197.18820 199.55617 202.01014 204.49911 206.59608 208.44704
 210.08201 211.23598 211.47395 211.71092 211.65689 211.37086 211.01283 210.65180
 210.27777 209.99674 209.81371 209.68667 209.62364 209.96361 210.35858 210.75655
 211.55852 212.74549 214.00446 215.79643 217.73340 219.78537 221.88934 223.98130
 226.05027 228.14324 230.24921 232.36418 234.50215 236.68312 238.94809 241.32706
 243.95703 246.21700 248.22797 250.00193 251.42790 252.55987 253.39084 253.71581
 253.76178 253.54475 252.91372 251.87069 250.48566 248.65563 246.57360 244.41556
 242.21553 240.02850 237.85747 235.70544 233.57441 231.45038 229.48535 227.65132
 225.94329 224.42426 223.06323 221.84419 220.73516 219.70413 218.81710 217.96707
 217.21804 216.40701 215.51398 214.88695 214.34592 214.39528 214.48245 214.17531
 213.80157 212.87148 212.60526 214.23120 217.23268 221.25819 226.25507 230.57944
 234.24979 238.41968 242.67821 246.76361 250.62492 254.35249 257.95828 261.36072
 264.45547 267.23746 269.73706 271.89160 273.54089 274.93179 276.41675 278.14212
 280.03229 281.82681 283.39059 284.79526 286.07245 287.28549 288.39474 289.39966
 290.30347 291.10828 291.81137 292.70740
 366.78100 356.34700 345.79101 334.66901 323.08402 311.29002 299.17203 286.98703
 274.71104 262.62004 250.64105 239.95405 230.08806 221.20406 213.39806 206.41207
 200.25807 195.20808 191.80208 189.85609 188.90509 188.98110 189.82810 191.14811
 192.88511 194.99211 197.26712 199.63812 202.09513 204.58713 206.68714 208.54114
 210.17915 211.33615 211.57716 211.81716 211.76617 211.48317 211.12817 210.77018
 210.39918 210.12119 209.94119 209.81720 209.75720 210.10021 210.49821 210.89922
 211.70422 212.89423 214.15623 215.95123 217.89124 219.94624 222.05325 224.14825
 226.22026 228.31626 230.42527 232.54327 234.68428 236.86828 239.13629 241.51829
 244.15129 246.41430 248.42830 250.20531 251.63431 252.76932 253.60332 253.93133
 253.98033 253.76634 253.13834 252.09834 250.71635 248.88935 246.81036 244.65536
 242.45837 240.27437 238.10638 235.95738 233.82939 231.70839 229.74640 227.91540
 226.21040 224.69441 223.33641 222.12042 221.01442 219.98643 219.10243 218.25544
 217.50944 216.70145 215.81145 215.18746 214.64946 214.56053 214.36429 214.29610
 213.77321 212.74207 212.57393 214.34663 217.40761 221.40561 226.37177 230.62401
 234.25368 238.41368 242.67789 246.78229 250.66138 254.39180 257.98615 261.36075
 264.42618 267.17380 269.61804 271.65717 273.15417 274.51025 276.14600 278.12274
 280.18301 281.96939 283.53104 284.94040 286.25601 287.42316 288.48804 289.45270
 290.32034 291.09296 291.76791 292.62805
 366.78100 356.34831 345.79362 334.67293 323.08924 311.29655 299.17986 286.99617
 274.72148 262.63179 250.65410 239.96841 230.10372 221.22103 213.41634 206.43165
 200.27895 195.23026 191.82557 189.88088 188.93119 189.00850 189.85681 191.17812
 192.91643 195.02474 197.30105 199.67336 202.13167 204.62498 206.72629 208.58160
 210.22091 211.37922 211.62153 211.86284 211.81315 211.53146 211.17777 210.82108
 210.45139 210.17470 209.99601 209.87332 209.81463 210.15894 210.55825 210.96056
 211.76686 212.95817 214.22148 216.01779 217.95910 220.01541 222.12372 224.22003
 226.29334 228.39065 230.50096 232.62027 234.76258 236.94789 239.21720 241.60051
 244.23482 246.49913 248.51444 250.29275 251.72306 252.85937 253.69468 254.02399
 254.07430 253.86161 253.23492 252.19623 250.81554 248.98985 246.91216 244.75846
 242.56277 240.38008 238.21339 236.06570 233.93901 231.81932 229.85863 228.02894
 226.32525 224.81056 223.45387 222.23918 221.13449 220.10780 219.22511 218.37942
 217.63473 216.82804 215.93935 215.31666 214.77997 214.64420 214.35791 214.34833
 213.86261 212.75331 212.45586 214.21284 217.35583 221.40814 226.42363 230.61346
 234.22078 238.39661 242.69167 246.82773 250.74167 254.49696 258.10217 261.48856
 264.58023 267.35257 269.79608 271.77252 273.16583 274.43866 276.11078 278.18488
 280.24240 282.03741 283.64297 285.18640 286.54178 287.74097 288.83502 289.82617
 290.71759 291.51141 292.20490 293.08862
 366.78100 356.34768 345.79237 334.67105 323.08673 311.29341 299.17610 286.99178
 274.71646 262.62615 250.64783 239.96151 230.09619 221.21288 213.40756 206.42224
 200.26893 195.21961 191.81429 189.86897 188.91866 188.99534 189.84302 191.16371
 192.90139 195.00907 197.28475 199.65644 202.11412 204.60680 206.70749 208.56217
 210.20085 211.35853 211.60022 211.84090 211.79058 211.50827 211.15395 210.79663
 210.42631 210.14900 209.96968 209.84636 209.78705 210.13073 210.52941 210.93109
 211.73678 212.92746 214.19014 215.98583 217.92651 219.98219 222.08987 224.18556
 226.25824 228.35492 230.46461 232.58329 234.72497 236.90965 239.17834 241.56102
 244.19470 246.45839 248.47307 250.25075 251.68043 252.81612 253.65080 253.97948
 254.02917 253.81585 253.18853 252.14921 250.76790 248.94158 246.86326 244.70895
 242.51263 240.32931 238.16199 236.01368 233.88636 231.76604 229.80473 227.97441
 226.27009 224.75477 223.39746 222.18214 221.07682 220.04951 219.16619 218.31987
 217.57455 216.76724 215.87792 215.25460 214.71729 214.63835 214.44054 214.30608
 214.12050 212.97311 212.35484 213.91542 217.11185 221.25011 226.31133 230.52312
 234.13551 238.31750 242.62552 246.78722 250.73608 254.52219 258.15692 261.58435
 264.73886 267.58646 270.05499 271.99878 273.36984 274.62576 276.26886 278.32013
 280.35034 282.16809 283.85312 285.42700 286.78906 287.99414 289.09360 290.08963
 290.98544 291.78317 292.48007 293.36816
 366.78100 356.34511 345.78723 334.66334 323.07646 311.28057 299.16069 286.97380
 274.69592 262.60303 250.62215 239.93326 230.06538 221.17949 213.37161 206.38372
 200.22783 195.17595 191.76806 189.82018 188.86729 188.94141 189.78652 191.10464
 192.83975 194.94487 197.21798 199.58710 202.04221 204.53232 206.63044 208.48255
 210.11867 211.27378 211.51290 211.75101 211.69813 211.41324 211.05636 210.69647
 210.32359 210.04370 209.86182 209.73593 209.67404 210.01516 210.41127 210.81039
 211.61350 212.80162 214.06173 215.85485 217.79296 219.84608 221.95119 224.04431
 226.11442 228.20853 230.31565 232.43176 234.57088 236.75299 239.01911 241.39922
 244.03034 246.29145 248.30357 250.07868 251.50580 252.63891 253.47103 253.79714
 253.84425 253.62837 252.99848 251.95660 250.57271 248.74383 246.66294 244.50606
 242.30717 240.12129 237.95140 235.80052 233.67063 231.54774 229.58386 227.75097
 226.04409 224.52620 223.16632 221.94843 220.84055 219.81066 218.92478 218.07589
 217.32801 216.51812 215.62624 215.00035 214.46046 214.54047 214.60614 214.12943
 214.21834 213.36504 212.53632 213.76518 216.88577 221.08278 226.07910 230.32907
 233.97302 238.19196 242.51855 246.68954 250.65623 254.46227 258.12479 261.59961
 264.82782 267.76819 270.35263 272.47223 273.89532 274.99039 276.49976 278.45895
 280.49527 282.32974 284.08542 285.69312 287.08441 288.31537 289.43842 290.45581
 291.37088 292.18573 292.89755 293.80472
 366.78100 356.34398 345.78495 334.65993 323.07190 311.27488 299.15385 286.96583
 274.68680 262.59278 250.61075 239.92073 230.05170 221.16468 213.35565 206.36663
 200.20960 195.15658 191.74755 189.79853 188.84450 188.91748 189.76145 191.07843
 192.81240 194.91638 197.18835 199.55633 202.01030 204.49928 206.59625 208.44723
 210.08220 211.23618 211.47415 211.71113 211.65710 211.37108 211.01305 210.65203
 210.27800 209.99698 209.81395 209.68693 209.62391 209.96388 210.35886 210.75683
 211.55881 212.74578 214.00476 215.79673 217.73371 219.78568 221.88966 223.98163
 226.05061 228.14358 230.24956 232.36453 234.50251 236.68348 238.94846 241.32743
 243.95741 246.21738 248.22836 250.00233 251.42831 252.56028 253.39126 253.71623
 253.76221 253.54518 252.91416 251.87113 250.48611 248.65608 246.57406 244.41603
 242.21601 240.02898 237.85796 235.70593 233.57491 231.45089 229.48586 227.65184
 225.94381 224.42479 223.06376 221.84474 220.73571 219.70469 218.81766 217.96764
 217.21861 216.40759 215.51456 214.88754 214.34651 214.47858 214.70406 214.06435
 213.92993 213.50374 212.92928 213.92177 216.87010 221.01018 225.91669 230.20741
 233.87135 238.06413 242.36089 246.50847 250.45595 254.24417 257.89389 261.39001
 264.67703 267.71036 270.39844 272.58365 274.15002 275.36691 276.87009 278.70987
 280.65753 282.43079 283.99170 285.38925 286.65695 287.79318 288.82980 289.76892
 290.61356 291.36569 292.02277 292.86011
 366.78100 356.34526 345.78752 334.66379 323.07705 311.28131 299.16157 286.97484
 274.69710 262.60436 250.62362 239.93488 230.06715 221.18141 213.37367 206.38593
 200.23020 195.17846 191.77072 189.82298 188.87024 188.94451 189.78977 191.10803
 192.84329 194.94855 197.22182 199.59108 202.04634 204.53660 206.63487 208.48713
 210.12339 211.27865 211.51791 211.75618 211.70344 211.41870 211.06196 210.70223
 210.32949 210.04975 209.86801 209.74227 209.68054 210.02180 210.41806 210.81732
 211.62059 212.80885 214.06911 215.86237 217.80063 219.85390 221.95916 224.05242
 226.12268 228.21695 230.32421 232.44047 234.57973 236.76199 239.02826 241.40852
 244.03978 246.30104 248.31331 250.08857 251.51583 252.64909 253.48135 253.80762
 253.85488 253.63914 253.00940 251.96766 250.58393 248.75519 246.67445 244.51771
 242.31898 240.13324 237.96350 235.81276 233.68302 231.56029 229.59655 227.76381
 226.05707 224.53934 223.17960 221.96186 220.85412 219.82438 218.93865 218.08991
 217.34217 216.53243 215.64070 215.01496 214.47522 214.52902 214.64272 214.26352
 213.83128 213.25150 212.91975 213.95605 216.86555 220.98279 225.99158 230.13843
 233.85773 238.00018 242.29611 246.43083 250.34821 254.07961 257.65723 261.08023
 264.31998 267.32532 270.00058 272.22009 273.93097 275.35349 276.89795 278.77167
 280.67093 282.41122 283.94733 285.30475 286.48465 287.50800 288.39355 289.19827
 289.92471 290.57159 291.13672 291.85687
 366.78100 356.34711 345.79123 334.66934 323.08445 311.29057 299.17268 286.98779
 274.71190 262.62102 250.64213 239.95524 230.08936 221.20547 213.39958 206.41370
 200.25981 195.20992 191.80404 189.85815 188.90726 188.98337 189.83049 191.15060
 192.88771 194.99483 197.26994 199.64105 202.09817 204.59028 206.69039 208.54451
 210.18262 211.33973 211.58085 211.82096 211.77007 211.48718 211.13230 210.77441
 210.40352 210.12564 209.94575 209.82186 209.76198 210.10509 210.50320 210.90432
 211.70943 212.89954 214.16165 215.95677 217.89688 219.95199 222.05911 224.15422
 226.22633 228.32245 230.43156 232.54967 234.69079 236.87490 239.14301 241.52512
 244.15824 246.42135 248.43546 250.21258 251.64169 252.77680 253.61092 253.93903
 253.98814 253.77426 253.14637 252.10648 250.72459 248.89771 246.81882 244.66393
 242.46705 240.28316 238.11527 235.96639 233.83850 231.71761 229.75573 227.92484
 226.21995 224.70406 223.34618 222.13029 221.02440 219.99652 219.11263 218.26574
 217.51986 216.71197 215.82208 215.19820 214.66031 214.62921 214.55399 214.40511
 213.99693 213.09782 212.66376 213.90053 216.91005 221.01842 226.04347 230.15820
 233.85071 238.01497 242.33980 246.51411 250.45920 254.17427 257.69220 261.04407
 264.22528 267.18552 269.83408 272.04596 273.73343 275.16183 276.80615 278.73550
 280.66501 282.39160 283.86490 285.14551 286.31381 287.29208 287.99469 288.80237
 289.58441 290.28085 290.88922 291.66455
 366.78100 356.34743 345.79186 334.67029 323.08572 311.29216 299.17459 286.99002
 274.71445 262.62388 250.64531 239.95874 230.09317 221.20960 213.40404 206.41847
 200.26490 195.21533 191.80976 189.86419 188.91362 188.99005 189.83748 191.15791
 192.89535 195.00278 197.27821 199.64964 202.10707 204.59950 206.69993 208.55436
 210.19279 211.35023 211.59166 211.83209 211.78152 211.49895 211.14438 210.78681
 210.41624 210.13867 209.95911 209.83554 209.77597 210.11940 210.51783 210.91926
 211.72469 212.91512 214.17755 215.97299 217.91342 219.96885 222.07628 224.17171
 226.24414 228.34057 230.45000 232.56843 234.70986 236.89430 239.16273 241.54516
 244.17859 246.44202 248.45645 250.23388 251.66331 252.79874 253.63318 253.96161
 254.01104 253.79747 253.16990 252.13033 250.74876 248.92219 246.84362 244.68906
 242.49249 240.30892 238.14135 235.99278 233.86521 231.74464 229.78307 227.95250
 226.24794 224.73237 223.37480 222.15923 221.05366 220.02609 219.14252 218.29595
 217.55038 216.74281 215.85325 215.22968 214.69211 214.66335 214.59087 214.40952
 214.04240 212.96315 212.46136 213.81804 216.93800 221.05702 226.04262 230.21121
 233.82930 238.01082 242.34637 246.55882 250.54597 254.27832 257.78058 261.09918
 264.24619 267.17584 269.81979 272.06027 273.75290 275.18411 276.88074 278.79568
 280.65314 282.31488 283.73358 284.98419 286.13779 287.08087 287.97797 288.83875
 289.61295 290.30237 290.90463 291.67215
 366.78100 356.34638 345.78977 334.66715 323.08154 311.28692 299.16831 286.98269
 274.70608 262.61446 250.63485 239.94723 230.08062 221.19600 213.38939 206.40277
 200.24816 195.19754 191.79093 189.84431 188.89270 188.96808 189.81447 191.13385
 192.87024 194.97662 197.25101 199.62139 202.07778 204.56916 206.66855 208.52193
 210.15932 211.31570 211.55609 211.79547 211.74386 211.46024 211.10463 210.74601
 210.37440 210.09578 209.91517 209.79055 209.72994 210.07232 210.46971 210.87009
 211.67448 212.86386 214.12525 215.91963 217.85902 219.91340 222.01979 224.11417
 226.18556 228.28094 230.38933 232.50671 234.64710 236.83048 239.09787 241.47925
 244.11164 246.37402 248.38741 250.16379 251.59218 252.72656 253.55995 253.88733
 253.93572 253.72110 253.09249 252.05187 250.66926 248.84164 246.76203 244.60641
 242.40880 240.22418 238.05556 235.90595 233.77733 231.65572 229.69310 227.86149
 226.15587 224.63926 223.28064 222.06403 220.95741 219.92880 219.04418 218.19657
 217.44995 216.64134 215.75072 215.12611 214.58749 214.63297 214.71158 214.33888
 214.08345 212.99780 212.47487 213.81062 216.93991 221.07532 226.03510 230.21066
 233.79260 237.96748 242.29735 246.52469 250.53754 254.28046 257.77936 261.08459
 264.22171 267.13730 269.77478 272.01929 273.75055 275.28802 277.01288 278.89432
 280.70862 282.29358 283.63773 284.94943 286.13968 287.22107 288.22559 289.13559
 289.95407 290.68289 291.31961 292.13101
 366.78100 356.34568 345.78836 334.66505 323.07873 311.28341 299.16409 286.97777
 274.70046 262.60814 250.62782 239.93950 230.07219 221.18687 213.37955 206.39223
 200.23691 195.18560 191.77828 189.83096 188.87864 188.95332 189.79901 191.11769
 192.85337 194.95905 197.23274 199.60242 202.05810 204.54878 206.64746 208.50015
 210.13683 211.29251 211.53219 211.77087 211.71856 211.43424 211.07792 210.71860
 210.34628 210.06697 209.88565 209.76033 209.69901 210.04070 210.43738 210.83706
 211.64074 212.82942 214.09011 215.88379 217.82247 219.87615 221.98183 224.07552
 226.14620 228.24088 230.34856 232.46525 234.60493 236.78761 239.05429 241.43497
 244.06666 246.32834 248.34102 250.11670 251.54438 252.67807 253.51075 253.83743
 253.88511 253.66979 253.04048 251.99916 250.61584 248.78752 246.70721 244.55089
 242.35257 240.16725 237.99793 235.84762 233.71830 231.59598 229.63266 227.80034
 226.09403 224.57671 223.21739 222.00007 220.89275 219.86344 218.97812 218.12980
 217.38248 216.57317 215.68185 215.05653 214.51721 214.61331 214.79576 214.30884
 214.05261 213.03770 212.56519 213.81416 216.91254 221.07658 226.04448 230.20114
 233.76131 237.92409 242.24789 246.48204 250.51408 254.27081 257.77380 261.07477
 264.20648 267.11002 269.73544 271.99066 273.73846 275.27936 277.00098 278.85852
 280.60263 282.16104 283.59119 284.93878 286.13937 287.24332 288.26614 289.19278
 290.02615 290.76831 291.41663 292.24283
 366.78100 356.34582 345.78864 334.66546 323.07928 311.28410 299.16492 286.97874
 274.70156 262.60938 250.62920 239.94102 230.07384 221.18866 213.38148 206.39430
 200.23912 195.18794 191.78076 189.83358 188.88140 188.95622 189.80204 191.12086
 192.85668 194.96250 197.23632 199.60614 202.06196 204.55278 206.65160 208.50442
 210.14124 211.29706 211.53688 211.77570 211.72352 211.43934 211.08316 210.72398
 210.35180 210.07262 209.89144 209.76626 209.70508 210.04690 210.44372 210.84354
 211.64736 212.83618 214.09700 215.89082 217.82964 219.88346 221.98928 224.08310
 226.15392 228.24874 230.35656 232.47338 234.61320 236.79602 239.06284 241.44366
 244.07548 246.33730 248.35012 250.12594 251.55376 252.68758 253.52040 253.84722
 253.89504 253.67986 253.05068 252.00950 250.62632 248.79814 246.71796 244.56178
 242.36360 240.17842 238.00924 235.85906 233.72988 231.60770 229.64453 227.81235
 226.10617 224.58899 223.22981 222.01263 220.90545 219.87627 218.99109 218.14291
 217.39573 216.58655 215.69537 215.07019 214.53101 214.62694 214.82016 214.40215
 214.02086 212.94992 212.55670 213.78078 216.84209 221.04405 226.03056 230.18144
 233.72586 237.87524 242.19324 246.42926 250.47383 254.24556 257.75873 261.06403
 264.19409 267.09497 269.73303 272.02710 273.79965 275.34006 277.02682 278.77295
 280.36884 281.78629 283.16263 284.49078 285.68808 286.77161 287.77667 288.68723
 289.50613 290.23541 290.87247 291.68433
 366.78100 356.34711 345.79121 334.66932 323.08443 311.29053 299.17264 286.98774
 274.71185 262.62096 250.64206 239.95517 230.08928 221.20538 213.39949 206.41360
 200.25970 195.20981 191.80391 189.85802 188.90713 188.98323 189.83034 191.15045
 192.88755 194.99466 197.26977 199.64087 202.09798 204.59008 206.69019 208.54430
 210.18240 211.33951 211.58062 211.82072 211.76983 211.48694 211.13204 210.77415
 210.40325 210.12536 209.94547 209.82157 209.76168 210.10479 210.50289 210.90400
 211.70911 212.89921 214.16132 215.95643 217.89653 219.95164 222.05874 224.15385
 226.22596 228.32206 230.43117 232.54928 234.69038 236.87449 239.14260 241.52470
 244.15781 246.42091 248.43502 250.21213 251.64123 252.77634 253.61045 253.93855
 253.98766 253.77377 253.14587 252.10598 250.72408 248.89719 246.81830 244.66340
 242.46651 240.28262 238.11472 235.96583 233.83794 231.71704 229.75515 227.92425
 226.21936 224.70347 223.34557 222.12968 221.02379 219.99589 219.11200 218.26511
 217.51921 216.71132 215.82142 215.19753 214.65964 214.70186 214.77892 214.50354
 214.07150 212.89426 212.53152 213.81894 216.84055 221.02722 226.02599 230.17081
 233.70265 237.84302 242.15533 246.39500 250.44527 254.21330 257.72083 261.01706
 264.14310 267.03445 269.66718 271.97781 273.79340 275.38632 277.10086 278.80612
 280.30692 281.60291 282.70145 283.92990 285.13190 286.25220 287.28876 288.22778
 289.07236 289.82446 290.48148 291.31876
 366.78100 356.34820 345.79340 334.67260 323.08881 311.29601 299.17921 286.99541
 274.72061 262.63081 250.65301 239.96721 230.10242 221.21962 213.41482 206.43002
 200.27722 195.22842 191.82362 189.87883 188.92903 189.00623 189.85443 191.17563
 192.91383 195.02203 197.29823 199.67044 202.12864 204.62184 206.72304 208.57824
 210.21744 211.37564 211.61785 211.85905 211.80925 211.52745 211.17365 210.81685
 210.44705 210.17026 209.99146 209.86866 209.80986 210.15406 210.55326 210.95546
 211.76166 212.95287 214.21607 216.01227 217.95347 220.00967 222.11787 224.21407
 226.28728 228.38448 230.49468 232.61388 234.75608 236.94128 239.21048 241.59368
 244.22789 246.49209 248.50729 250.28549 251.71569 252.85189 253.68709 254.01630
 254.06650 253.85370 253.22690 252.18810 250.80730 248.98150 246.90370 244.74991
 242.55411 240.37131 238.20451 236.05671 233.92991 231.81011 229.84932 228.01952
 226.31572 224.80092 223.44412 222.22932 221.12452 220.09773 219.21493 218.36913
 217.62433 216.81753 215.92873 215.30593 214.76913 214.77484 214.76370 214.48894
 214.15573 212.89099 212.50175 213.87843 216.88499 221.03157 226.04988 230.18025
 233.70399 237.83902 242.15271 246.40120 250.45929 254.22003 257.71130 260.98734
 264.09369 266.97269 269.61694 271.95258 273.80414 275.42807 277.14499 278.73502
 280.01688 281.01410 282.07159 283.38699 284.63342 285.79544 286.85562 287.81610
 288.67990 289.44916 290.12115 290.97751
 366.78100 356.34732 345.79165 334.66997 323.08529 311.29162 299.17394 286.98926
 274.71359 262.62291 250.64424 239.95756 230.09188 221.20821 213.40253 206.41685
 200.26318 195.21350 191.80782 189.86215 188.91147 188.98779 189.83512 191.15544
 192.89276 195.00009 197.27541 199.64673 202.10406 204.59638 206.69671 208.55103
 210.18935 211.34668 211.58800 211.82832 211.77765 211.49497 211.14029 210.78262
 210.41194 210.13426 209.95459 209.83091 209.77123 210.11456 210.51288 210.91420
 211.71953 212.90985 214.17218 215.96750 217.90782 219.96315 222.07047 224.16579
 226.23812 228.33444 230.44376 232.56209 234.70341 236.88773 239.15606 241.53838
 244.17170 246.43503 248.44935 250.22667 251.65600 252.79132 253.62565 253.95397
 254.00329 253.78962 253.16194 252.12226 250.74059 248.91391 246.83523 244.68056
 242.48388 240.30020 238.13253 235.98385 233.85617 231.73550 229.77382 227.94315
 226.23847 224.72279 223.36512 222.14944 221.04376 220.01609 219.13241 218.28573
 217.54006 216.73238 215.84270 215.21903 214.68135 214.75462 214.86328 214.40984
 214.19101 213.03239 212.50505 213.79337 216.83803 220.99858 226.03586 230.13789
 233.67500 237.82059 242.14778 246.41486 250.48892 254.24763 257.72263 260.98096
 264.06418 266.93524 269.59940 271.97327 273.87009 275.54028 277.17316 278.57913
 279.60553 280.33417 281.31174 282.67517 284.01056 285.19202 286.26990 287.24640
 288.12466 288.90677 289.59000 290.46066
 366.78100 356.34641 345.78982 334.66723 323.08164 311.28705 299.16847 286.98288
 274.70629 262.61470 250.63511 239.94752 230.08093 221.19634 213.38975 206.40316
 200.24857 195.19798 191.79140 189.84481 188.89322 188.96863 189.81504 191.13445
 192.87086 194.97727 197.25168 199.62209 202.07850 204.56992 206.66933 208.52274
 210.16015 211.31656 211.55697 211.79638 211.74479 211.46120 211.10561 210.74702
 210.37544 210.09685 209.91626 209.79167 209.73108 210.07349 210.47090 210.87131
 211.67572 212.86513 214.12654 215.92095 217.86037 219.91478 222.02119 224.11560
 226.18701 228.28242 230.39083 232.50824 234.64865 236.83206 239.09947 241.48089
 244.11330 246.37571 248.38912 250.16553 251.59394 252.72835 253.56176 253.88917
 253.93758 253.72299 253.09441 252.05382 250.67123 248.84364 246.76405 244.60846
 242.41087 240.22628 238.05769 235.90810 233.77951 231.65792 229.69534 227.86375
 226.15816 224.64157 223.28298 222.06639 220.95980 219.93121 219.04662 218.19903
 217.45244 216.64386 215.75327 215.12868 214.59009 214.72554 214.95328 214.39597
 214.09174 213.21472 212.56833 213.66946 216.73705 220.93619 225.98076 230.06693
 233.62300 237.78760 242.13402 246.42038 250.50656 254.26500 257.73410 260.98019
 264.05441 266.92810 269.61679 272.04819 273.99780 275.68051 277.21048 278.40900
 279.21350 279.80209 280.81314 282.30045 283.67877 284.89825 286.01083 287.01874
 287.92526 288.73251 289.43774 290.33643
 366.78100 356.34706 345.79113 334.66919 323.08425 311.29031 299.17238 286.98744
 274.71150 262.62057 250.64163 239.95469 230.08875 221.20482 213.39888 206.41294
 200.25901 195.20907 191.80313 189.85719 188.90626 188.98232 189.82938 191.14945
 192.88651 194.99357 197.26864 199.63970 202.09676 204.58882 206.68889 208.54295
 210.18101 211.33808 211.57914 211.81920 211.76826 211.48533 211.13039 210.77245
 210.40152 210.12358 209.94364 209.81970 209.75977 210.10283 210.50089 210.90196
 211.70702 212.89708 214.15914 215.95421 217.89427 219.94933 222.05640 224.15146
 226.22352 228.31958 230.42865 232.54671 234.68777 236.87184 239.13990 241.52196
 244.15502 246.41809 248.43215 250.20921 251.63828 252.77334 253.60740 253.93546
 253.98453 253.77059 253.14265 252.10272 250.72078 248.89384 246.81491 244.65997
 242.46303 240.27909 238.11116 235.96222 233.83428 231.71335 229.75141 227.92047
 226.21553 224.69960 223.34166 222.12572 221.01979 219.99185 219.10791 218.26097
 217.51504 216.70710 215.81716 215.19323 214.65529 214.76237 214.94977 214.47169
 213.96555 213.25729 212.59978 213.55785 216.64742 220.89731 225.92877 230.05092
 233.60760 237.76581 242.11177 246.40271 250.49623 254.25073 257.70493 260.93954
 264.01553 266.90747 269.62708 272.11905 274.16116 275.86133 277.33582 278.38614
 279.01389 279.38971 280.33752 281.79590 283.19785 284.43820 285.56982 286.59503
 287.51706 288.33817 289.05545 289.96954
 366.78100 356.34639 345.78979 334.66718 323.08158 311.28697 299.16837 286.98276
 274.70615 262.61455 250.63494 239.94734 230.08073 221.19613 213.38952 206.40291
 200.24831 195.19770 191.79110 189.84449 188.89288 188.96828 189.81467 191.13407
 192.87046 194.97686 197.25125 199.62164 202.07804 204.56943 206.66883 208.52222
 210.15962 211.31601 211.55640 211.79580 211.74419 211.46059 211.10498 210.74638
 210.37477 210.09616 209.91556 209.79095 209.73035 210.07274 210.47014 210.87053
 211.67492 212.86432 214.12571 215.92011 217.85950 219.91390 222.02029 224.11468
 226.18608 228.28147 230.38987 232.50726 234.64765 236.83105 239.09844 241.47984
 244.11223 246.37463 248.38802 250.16441 251.59281 252.72720 253.56060 253.88799
 253.93639 253.72178 253.09317 252.05257 250.66996 248.84236 246.76275 244.60715
 242.40954 240.22493 238.05633 235.90672 233.77812 231.65651 229.69391 227.86230
 226.15669 224.64009 223.28148 222.06488 220.95827 219.92966 219.04506 218.19745
 217.45085 216.64224 215.75164 215.12703 214.58842 214.73029 215.00615 214.48071
 213.87534 213.16974 212.54568 213.44220 216.57013 220.88741 225.92169 230.09274
 233.64091 237.77528 242.11311 246.39957 250.47504 254.22282 257.65552 260.86459
 263.93054 266.82898 269.57193 272.12009 274.26935 276.04617 277.43393 278.32294
 278.72470 278.88785 279.72498 281.09613 282.41306 283.67792 284.83191 285.87735
 286.81760 287.65491 288.38638 289.31851
 366.78100 356.34521 345.78741 334.66362 323.07682 311.28103 299.16123 286.97444
 274.69664 262.60385 250.62305 239.93426 230.06646 221.18067 213.37287 206.38508
 200.22928 195.17749 191.76969 189.82190 188.86910 188.94331 189.78851 191.10672
 192.84192 194.94713 197.22033 199.58954 202.04474 204.53495 206.63315 208.48536
 210.12156 211.27677 211.51597 211.75418 211.70138 211.41659 211.05979 210.70000
 210.32721 210.04741 209.86562 209.73982 209.67803 210.01923 210.41544 210.81464
 211.61785 212.80605 214.06626 215.85946 217.79767 219.85087 221.95608 224.04928
 226.11949 228.21369 230.32090 232.43710 234.57631 236.75851 239.02472 241.40492
 244.03613 246.29733 248.30954 250.08474 251.51195 252.64515 253.47736 253.80356
 253.85077 253.63497 253.00518 251.96338 250.57959 248.75079 246.67000 244.51321
 242.31441 240.12862 237.95882 235.80803 233.67823 231.55544 229.59164 227.75885
 226.05205 224.53426 223.17446 221.95667 220.84887 219.81908 218.93328 218.08449
 217.33669 216.52690 215.63510 215.00931 214.46951 214.66321 215.08383 214.53693
 213.76558 212.89682 212.36368 213.27173 216.47229 220.87027 225.96587 230.14360
 233.69710 237.80661 242.14047 246.42044 250.47745 254.20656 257.61441 260.79684
 263.83325 266.72733 269.49356 272.11481 274.34348 276.11823 277.44699 278.25983
 278.61276 278.74817 279.15176 280.35779 281.55255 282.63831 283.72055 284.71924
 285.61743 286.41730 287.11603 288.00650
 366.78100 356.34541 345.78782 334.66422 323.07763 311.28204 299.16245 286.97586
 274.69826 262.60567 250.62508 239.93649 230.06890 221.18330 213.37571 206.38812
 200.23253 195.18093 191.77334 189.82575 188.87316 188.94757 189.79297 191.11138
 192.84679 194.95220 197.22561 199.59501 202.05042 204.54083 206.63924 208.49165
 210.12805 211.28346 211.52287 211.76128 211.70869 211.42409 211.06750 210.70791
 210.33532 210.05572 209.87413 209.74854 209.68695 210.02836 210.42476 210.82417
 211.62758 212.81599 214.07640 215.86980 217.80821 219.86162 221.96703 224.06044
 226.13084 228.22525 230.33266 232.44907 234.58848 236.77088 239.03729 241.41770
 244.04911 246.31051 248.32292 250.09833 251.52574 252.65915 253.49155 253.81796
 253.86537 253.64978 253.02019 251.97859 250.59500 248.76641 246.68582 244.52923
 242.33063 240.14504 237.97545 235.82486 233.69527 231.57267 229.60908 227.77649
 226.06990 224.55230 223.19271 221.97512 220.86753 219.83794 218.95234 218.10375
 217.35616 216.54657 215.65498 215.02938 214.48979 214.66795 215.07491 214.63173
 213.90590 212.79100 212.18002 213.10548 216.39752 220.85565 226.01039 230.15024
 233.72520 237.82538 242.16307 246.44624 250.49767 254.20715 257.58182 260.72821
 263.73309 266.62042 269.40726 272.04657 274.33508 276.15335 277.45126 278.20761
 278.50720 278.69543 279.09503 279.92737 281.07712 282.12018 283.08768 284.03033
 284.91077 285.69479 286.37970 287.25253
 366.78100 356.34601 345.78902 334.66603 323.08004 311.28505 299.16606 286.98008
 274.70309 262.61110 250.63111 239.94312 230.07613 221.19114 213.38415 206.39716
 200.24217 195.19118 191.78419 189.83721 188.88522 188.96023 189.80624 191.12525
 192.86126 194.96727 197.24128 199.61129 202.06730 204.55831 206.65732 208.51033
 210.14735 211.30336 211.54337 211.78238 211.73039 211.44640 211.09041 210.73142
 210.35943 210.08044 209.89945 209.77446 209.71347 210.05549 210.45250 210.85251
 211.65652 212.84553 214.10654 215.90055 217.83956 219.89357 221.99958 224.09359
 226.16460 228.25962 230.36763 232.48464 234.62465 236.80766 239.07467 241.45568
 244.08769 246.34970 248.36271 250.13872 251.56673 252.70074 253.53376 253.86077
 253.90878 253.69379 253.06480 252.02381 250.64082 248.81283 246.73284 244.57685
 242.37886 240.19387 238.02489 235.87490 233.74591 231.62392 229.66093 227.82894
 226.12295 224.60596 223.24697 222.02998 220.92299 219.89400 219.00901 218.16103
 217.41404 216.60505 215.71406 215.08907 214.55008 214.70320 215.05350 214.65622
 213.99669 212.66573 211.99141 213.05569 216.40419 220.86679 226.02441 230.18295
 233.74251 237.84204 242.18184 246.47803 250.53383 254.23256 257.58542 260.70383
 263.67847 266.53949 269.33011 272.00797 274.34637 276.18863 277.43234 278.11581
 278.29245 278.45898 278.92401 279.76746 280.94540 281.99417 282.96124 283.89935
 284.77866 285.56165 286.24567 287.11737
 366.78100 356.34631 345.78962 334.66692 323.08123 311.28654 299.16785 286.98216
 274.70547 262.61377 250.63408 239.94639 230.07970 221.19501 213.38831 206.40162
 200.24693 195.19624 191.78955 189.84286 188.89116 188.96647 189.81278 191.13209
 192.86840 194.97470 197.24901 199.61932 202.07563 204.56694 206.66625 208.51955
 210.15686 211.31317 211.55348 211.79279 211.74109 211.45740 211.10171 210.74302
 210.37133 210.09264 209.91194 209.78725 209.72656 210.06887 210.46618 210.86648
 211.67079 212.86010 214.12141 215.91572 217.85503 219.90933 222.01564 224.10995
 226.18126 228.27657 230.38487 232.50218 234.64249 236.82580 239.09311 241.47442
 244.10672 246.36903 248.38234 250.15865 251.58696 252.72126 253.55457 253.88188
 253.93019 253.71550 253.08681 252.04611 250.66342 248.83573 246.75604 244.60035
 242.40265 240.21796 238.04927 235.89958 233.77089 231.64920 229.68650 227.85481
 226.14912 224.63243 223.27374 222.05705 220.95035 219.92166 219.03697 218.18928
 217.44259 216.63389 215.74320 215.11851 214.57982 214.72961 215.06238 214.65395
 214.02658 212.46152 211.84047 213.07454 216.41638 220.86136 226.00066 230.21452
 233.74818 237.85353 242.19882 246.51575 250.58659 254.28900 257.63647 260.73450
 263.67621 266.49561 269.27951 271.99643 274.39423 276.24750 277.40710 277.97540
 278.07761 278.19980 278.74530 279.74817 280.93857 282.00647 283.03610 284.02707
 284.91833 285.71201 286.40536 287.28894
 366.78100 356.34586 345.78872 334.66557 323.07943 311.28429 299.16515 286.97900
 274.70186 262.60972 250.62958 239.94143 230.07429 221.18915 213.38201 206.39486
 200.23972 195.18858 191.78144 189.83429 188.88215 188.95701 189.80287 191.12172
 192.85758 194.96344 197.23730 199.60716 202.06301 204.55387 206.65273 208.50559
 210.14244 211.29830 211.53816 211.77702 211.72487 211.44073 211.08459 210.72545
 210.35330 210.07416 209.89302 209.76788 209.70673 210.04859 210.44545 210.84531
 211.64916 212.83802 214.09888 215.89274 217.83159 219.88545 221.99131 224.08517
 226.15603 228.25088 230.35874 232.47560 234.61546 236.79831 239.06517 241.44603
 244.07789 246.33974 248.35260 250.12846 251.55632 252.69017 253.52303 253.84989
 253.89775 253.68260 253.05346 252.01232 250.62918 248.80103 246.72089 244.56475
 242.36661 240.18147 238.01232 235.86218 233.73304 231.61090 229.64775 227.81561
 226.10947 224.59233 223.23318 222.01604 220.90890 219.87976 218.99461 218.14647
 217.39933 216.59019 215.69904 215.07390 214.53476 214.72594 215.12390 214.58270
 214.08685 212.55193 211.89980 213.09569 216.37108 220.78375 225.90994 230.16156
 233.71303 237.83157 242.19681 246.54457 250.64326 254.35892 257.71313 260.79822
 263.71393 266.49161 269.27066 272.00418 274.40613 276.24197 277.42480 277.93805
 278.03094 278.15680 278.77441 279.74643 280.98303 282.16168 283.26385 284.26236
 285.16040 285.96008 286.65869 287.54901
 366.78100 356.34550 345.78800 334.66450 323.07800 311.28250 299.16301 286.97651
 274.69901 262.60651 250.62601 239.93751 230.07001 221.18451 213.37701 206.38951
 200.23402 195.18252 191.77502 189.82752 188.87502 188.94952 189.79502 191.11352
 192.84902 194.95452 197.22803 199.59753 202.05303 204.54353 206.64203 208.49453
 210.13103 211.28653 211.52603 211.76453 211.71204 211.42754 211.07104 210.71154
 210.33904 210.05954 209.87804 209.75254 209.69104 210.03254 210.42905 210.82855
 211.63205 212.82055 214.08105 215.87455 217.81305 219.86655 221.97205 224.06555
 226.13606 228.23056 230.33806 232.45456 234.59406 236.77656 239.04306 241.42356
 244.05506 246.31656 248.32907 250.10457 251.53207 252.66557 253.49807 253.82457
 253.87207 253.65657 253.02707 251.98557 250.60208 248.77358 246.69308 244.53658
 242.33808 240.15258 237.98308 235.83258 233.70308 231.58058 229.61709 227.78459
 226.07809 224.56059 223.20109 221.98359 220.87609 219.84659 218.96109 218.11259
 217.36510 216.55560 215.66410 215.03860 214.49910 214.72029 215.16692 214.55876
 213.95248 212.79401 212.08330 213.04654 216.26665 220.67889 225.79515 230.05368
 233.64186 237.77716 242.16701 246.54868 250.67932 254.41266 257.77826 260.86090
 263.76730 266.53879 269.31204 272.06534 274.52032 276.43219 277.58264 278.08475
 278.14047 278.06323 278.71674 279.82062 281.16318 282.45837 283.64005 284.71057
 285.67340 286.53079 287.27979 288.23431
 366.78100 356.34571 345.78841 334.66512 323.07883 311.28354 299.16424 286.97795
 274.70066 262.60837 250.62807 239.93978 230.07249 221.18719 213.37990 206.39261
 200.23732 195.18602 191.77873 189.83144 188.87915 188.95385 189.79956 191.11827
 192.85398 194.95968 197.23339 199.60310 202.05880 204.54951 206.64822 208.50093
 210.13763 211.29334 211.53305 211.77176 211.71946 211.43517 211.07888 210.71958
 210.34729 210.06800 209.88671 209.76141 209.70012 210.04183 210.43854 210.83824
 211.64195 212.83066 214.09136 215.88507 217.82378 219.87749 221.98319 224.07690
 226.14761 228.24232 230.35002 232.46673 234.60644 236.78915 239.05585 241.43656
 244.06827 246.32997 248.34268 250.11839 251.54610 252.67980 253.51251 253.83922
 253.88693 253.67163 253.04234 252.00105 250.61775 248.78946 246.70917 244.55288
 242.35458 240.16929 238.00000 235.84971 233.72041 231.59812 229.63483 227.80253
 226.09624 224.57895 223.21966 222.00236 220.89507 219.86578 218.98049 218.13219
 217.38490 216.57561 215.68432 215.05902 214.51973 214.72327 215.15955 214.65392
 213.69820 212.80385 212.16058 212.96675 216.15781 220.61185 225.72615 230.00548
 233.60284 237.72662 242.10464 246.48445 250.62019 254.37656 257.76855 260.87402
 263.78195 266.54800 269.31909 272.11020 274.58475 276.49026 277.68930 278.23233
 278.28860 278.32413 278.76770 279.90701 281.12903 282.32782 283.48193 284.52750
 285.46786 286.30527 287.03680 287.96906
 366.78100 356.34568 345.78837 334.66505 323.07874 311.28342 299.16411 286.97779
 274.70048 262.60816 250.62785 239.93953 230.07222 221.18690 213.37959 206.39227
 200.23696 195.18564 191.77833 189.83101 188.87870 188.95338 189.79907 191.11775
 192.85344 194.95912 197.23281 199.60249 202.05818 204.54886 206.64755 208.50023
 210.13692 211.29260 211.53229 211.77097 211.71866 211.43434 211.07802 210.71871
 210.34639 210.06708 209.88576 209.76045 209.69913 210.04082 210.43750 210.83719
 211.64087 212.82956 214.09024 215.88393 217.82261 219.87630 221.98198 224.07567
 226.14635 228.24104 230.34872 232.46541 234.60509 236.78778 239.05446 241.43515
 244.06683 246.32852 248.34120 250.11689 251.54457 252.67826 253.51094 253.83763
 253.88531 253.67000 253.04068 251.99936 250.61605 248.78773 246.70742 244.55110
 242.35279 240.16747 237.99816 235.84784 233.71853 231.59621 229.63290 227.80058
 226.09427 224.57695 223.21764 222.00032 220.89301 219.86369 218.97838 218.13006
 217.38275 216.57343 215.68212 215.05680 214.51749 214.71255 215.15132 214.76865
 213.64078 212.58508 212.03111 212.87329 216.09947 220.59593 225.73657 229.99800
 233.60069 237.69983 242.05333 246.42235 250.55443 254.32202 257.73050 260.85181
 263.76468 266.55151 269.33359 272.12524 274.63196 276.52386 277.66138 278.18015
 278.32898 278.49832 279.00394 279.91351 281.09735 282.16812 283.22665 284.24014
 285.15164 285.96335 286.67242 287.57608
 366.78100 356.34514 345.78728 334.66342 323.07656 311.28071 299.16085 286.97399
 274.69613 262.60327 250.62241 239.93355 230.06569 221.17983 213.37197 206.38412
 200.22826 195.17640 191.76854 189.82068 188.86782 188.94196 189.78710 191.10524
 192.84039 194.94553 197.21867 199.58781 202.04295 204.53309 206.63123 208.48337
 210.11951 211.27465 211.51380 211.75194 211.69908 211.41422 211.05736 210.69750
 210.32464 210.04478 209.86292 209.73706 209.67521 210.01635 210.41249 210.81163
 211.61477 212.80291 214.06305 215.85619 217.79433 219.84748 221.95262 224.04576
 226.11590 228.21004 230.31718 232.43332 234.57246 236.75460 239.02074 241.40089
 244.03203 246.29317 248.30531 250.08045 251.50759 252.64073 253.47287 253.79901
 253.84616 253.63030 253.00044 251.95858 250.57472 248.74586 246.66500 244.50814
 242.30928 240.12342 237.95357 235.80271 233.67285 231.54999 229.58613 227.75327
 226.04641 224.52855 223.16869 221.95083 220.84298 219.81312 218.92726 218.07840
 217.33054 216.52068 215.62882 215.00296 214.46310 214.68219 215.18124 214.76918
 213.77678 212.44485 211.85086 212.81885 216.10406 220.61354 225.76544 230.02170
 233.62015 237.69873 242.03308 246.39384 250.52284 254.29810 257.72092 260.85602
 263.77643 266.56876 269.35764 272.14413 274.64923 276.57346 277.66891 278.16428
 278.37131 278.63589 279.23511 280.09314 281.17520 282.22302 283.20950 284.20560
 285.10147 285.89926 286.59619 287.48434
 366.78100 356.34408 345.78516 334.66024 323.07232 311.27541 299.15449 286.96657
 274.68765 262.59373 250.61181 239.92189 230.05297 221.16605 213.35713 206.36822
 200.21130 195.15838 191.74946 189.80054 188.84662 188.91970 189.76378 191.08086
 192.81494 194.91903 197.19111 199.55919 202.01327 204.50235 206.59943 208.45051
 210.08559 211.23967 211.47775 211.71484 211.66092 211.37500 211.01708 210.65616
 210.28224 210.00132 209.81840 209.69148 209.62856 209.96865 210.36373 210.76181
 211.56389 212.75097 214.01005 215.80213 217.73921 219.79129 221.89537 223.98746
 226.05654 228.14962 230.25570 232.37078 234.50886 236.68994 238.95502 241.33410
 243.96418 246.22427 248.23535 250.00943 251.43551 252.56759 253.39867 253.72375
 253.76983 253.55291 252.92200 251.87908 250.49416 248.66424 246.58232 244.42440
 242.22448 240.03756 237.86664 235.71472 233.58381 231.45989 229.49497 227.66105
 225.95313 224.43421 223.07329 221.85437 220.74545 219.71453 218.82762 217.97770
 217.22878 216.41786 215.52494 214.89802 214.35710 214.62996 215.25223 214.69864
 213.88515 212.44940 211.69727 212.72226 216.06026 220.58200 225.74666 230.02682
 233.62802 237.69005 242.00797 246.36609 250.49860 254.28918 257.73700 260.89407
 263.82001 266.60168 269.38019 272.15906 274.65500 276.54538 277.59644 278.10303
 278.43369 278.87357 279.53973 280.38901 281.39346 282.43039 283.40997 284.41776
 285.32971 286.14185 286.85129 287.75540
 366.78100 356.34372 345.78445 334.65917 323.07090 311.27362 299.15235 286.96407
 274.68480 262.59052 250.60825 239.91797 230.04870 221.16142 213.35215 206.36287
 200.20560 195.15232 191.74304 189.79377 188.83949 188.91222 189.75594 191.07267
 192.80639 194.91012 197.18184 199.54957 202.00329 204.49202 206.58874 208.43947
 210.07419 211.22792 211.46564 211.70237 211.64809 211.36181 211.00354 210.64226
 210.26799 209.98671 209.80344 209.67616 209.61289 209.95261 210.34734 210.74506
 211.54679 212.73351 213.99224 215.78396 217.72069 219.77241 221.87613 223.96786
 226.03658 228.12931 230.23503 232.34976 234.48748 236.66821 238.93293 241.31166
 243.94138 246.20111 248.21183 249.98556 251.41128 252.54301 253.37373 253.69846
 253.74418 253.52690 252.89563 251.85235 250.46708 248.63680 246.55453 244.39625
 242.19598 240.00870 237.83743 235.68515 233.55388 231.42960 229.46433 227.63005
 225.92178 224.40250 223.04122 221.82195 220.71267 219.68140 218.79412 217.94385
 217.19457 216.38330 215.49002 214.86275 214.32147 214.61804 215.27403 214.68272
 213.83266 212.50275 211.68576 212.68553 216.00423 220.49916 225.66612 230.00809
 233.60156 237.67085 241.99664 246.35391 250.48677 254.28703 257.76138 260.94318
 263.87918 266.64819 269.40952 272.18460 274.65213 276.43646 277.43036 277.94559
 278.34293 278.87296 279.59683 280.59698 281.74817 282.82571 283.91159 284.90042
 285.78973 286.58170 287.27353 288.15521
 366.78100 356.34460 345.78621 334.66181 323.07441 311.27802 299.15762 286.97023
 274.69183 262.59843 250.61704 239.92764 230.05924 221.17285 213.36445 206.37605
 200.21966 195.16726 191.75887 189.81047 188.85707 188.93068 189.77528 191.09288
 192.82749 194.93209 197.20469 199.57330 202.02790 204.51751 206.61511 208.46671
 210.10232 211.25692 211.49552 211.73313 211.67973 211.39433 211.03694 210.67654
 210.30315 210.02275 209.84035 209.71396 209.65156 209.99216 210.38777 210.78637
 211.58897 212.77658 214.03618 215.82879 217.76639 219.81899 221.92360 224.01620
 226.08580 228.17941 230.28601 232.40161 234.54022 236.72182 238.98742 241.36703
 243.99763 246.25824 248.26984 250.04444 251.47105 252.60365 253.43525 253.76086
 253.80746 253.59106 252.96067 251.91827 250.53388 248.70448 246.62308 244.46569
 242.26629 240.07989 237.90950 235.75810 233.62770 231.50431 229.53991 227.70652
 225.99912 224.48072 223.12033 221.90193 220.79353 219.76314 218.87674 218.02734
 217.27895 216.46855 215.57616 214.94976 214.40936 214.66379 215.21576 214.75832
 213.76118 212.59102 211.81177 212.71046 215.96472 220.42810 225.59029 229.97165
 233.58328 237.65257 241.98369 246.34459 250.47893 254.28761 257.79315 261.01572
 263.97861 266.75366 269.51190 272.25119 274.65445 276.36258 277.27664 277.71057
 278.11490 278.75037 279.61063 280.83600 282.04257 283.22281 284.32370 285.32101
 286.21802 287.01678 287.71460 288.60385
 366.78100 356.34491 345.78682 334.66273 323.07563 311.27954 299.15945 286.97236
 274.69427 262.60118 250.62008 239.93099 230.06290 221.17681 213.36872 206.38063
 200.22453 195.17244 191.76435 189.81626 188.86317 188.93708 189.78198 191.09989
 192.83480 194.93971 197.21262 199.58153 202.03643 204.52634 206.62425 208.47616
 210.11207 211.26698 211.50588 211.74379 211.69070 211.40561 211.04852 210.68843
 210.31533 210.03524 209.85315 209.72706 209.66497 210.00588 210.40178 210.80069
 211.60360 212.79151 214.05142 215.84433 217.78223 219.83514 221.94005 224.03296
 226.10287 228.19678 230.30368 232.41959 234.55850 236.74041 239.00632 241.38623
 244.01713 246.27804 248.28995 250.06486 251.49177 252.62468 253.45658 253.78249
 253.82940 253.61331 252.98322 251.94113 250.55703 248.72794 246.64685 244.48976
 242.29067 240.10458 237.93448 235.78339 233.65330 231.53021 229.56612 227.73303
 226.02593 224.50784 223.14775 221.92966 220.82157 219.79148 218.90538 218.05629
 217.30820 216.49811 215.60602 214.97993 214.43983 214.67886 215.19185 214.82611
 213.80821 212.58127 211.80219 212.66359 215.92320 220.36819 225.55910 229.95160
 233.57185 237.63905 241.96957 246.31630 250.43542 254.24797 257.78604 261.04385
 264.03098 266.83624 269.59766 272.31281 274.70648 276.40482 277.17017 277.53690
 278.01602 278.79648 279.75595 281.01273 282.31473 283.54388 284.66528 285.68121
 286.59491 287.40857 288.11938 289.02521
 366.78100 356.34341 345.78382 334.65823 323.06964 311.27205 299.15045 286.96186
 274.68227 262.58768 250.60509 239.91450 230.04491 221.15732 213.34773 206.35814
 200.20054 195.14695 191.73736 189.78777 188.83318 188.90559 189.74900 191.06541
 192.79882 194.90223 197.17363 199.54104 201.99445 204.48286 206.57927 208.42968
 210.06409 211.21750 211.45491 211.69132 211.63672 211.35013 210.99154 210.62995
 210.25536 209.97377 209.79018 209.66259 209.59900 209.93841 210.33281 210.73022
 211.53163 212.71804 213.97645 215.76786 217.70427 219.75568 221.85909 223.95050
 226.01890 228.11131 230.21672 232.33113 234.46854 236.64895 238.91336 241.29177
 243.92118 246.18059 248.19100 249.96440 251.38981 252.52122 253.35163 253.67604
 253.72145 253.50386 252.87227 251.82868 250.44309 248.61249 246.52990 244.37131
 242.17072 239.98313 237.81154 235.65895 233.52736 231.40277 229.43718 227.60258
 225.89399 224.37440 223.01281 221.79322 220.68363 219.65204 218.76445 217.91386
 217.16427 216.35267 215.45908 214.83149 214.28990 214.61835 215.27609 214.76453
 213.91685 212.69962 211.75677 212.58908 215.89056 220.28574 225.50925 229.90814
 233.56538 237.61691 241.95671 246.32588 250.39908 254.17831 257.72650 261.03107
 264.06348 266.90662 269.67725 272.38181 274.69769 276.33630 277.11176 277.57568
 278.24759 279.21463 280.58786 282.10611 283.42691 284.59549 285.66162 286.62747
 287.49615 288.26971 288.94550 289.80667
 366.78100 356.34269 345.78239 334.65608 323.06678 311.26847 299.14617 286.95686
 274.67656 262.58125 250.59795 239.90664 230.03634 221.14803 213.33773 206.34742
 200.18912 195.13481 191.72451 189.77420 188.81890 188.89059 189.73329 191.04898
 192.78168 194.88437 197.15507 199.52176 201.97446 204.46215 206.55785 208.40754
 210.04124 211.19393 211.43063 211.66632 211.61102 211.32371 210.96441 210.60210
 210.22680 209.94449 209.76019 209.63188 209.56758 209.90627 210.29997 210.69666
 211.49736 212.68305 213.94075 215.73144 217.66714 219.71783 221.82052 223.91122
 225.97891 228.07061 230.17530 232.28900 234.42569 236.60539 238.86908 241.24678
 243.87547 246.13417 248.14386 249.91656 251.34125 252.47195 253.30164 253.62534
 253.67003 253.45173 252.81942 251.77512 250.38881 248.55751 246.47420 244.31490
 242.11359 239.92529 237.75298 235.59968 233.46737 231.34207 229.37576 227.54046
 225.83115 224.31085 222.94854 221.72824 220.61793 219.58563 218.69732 217.84602
 217.09571 216.28341 215.38910 214.76080 214.21849 214.56039 215.23480 214.70848
 213.96033 212.78850 211.68700 212.45705 215.84334 220.25113 225.41335 229.93172
 233.61517 237.62622 241.95210 246.35530 250.39325 254.14536 257.71967 261.08731
 264.14966 266.98737 269.73285 272.44653 274.79276 276.54739 277.30719 277.80350
 278.60208 279.74802 281.11478 282.56714 283.82404 284.93607 285.95062 286.86972
 287.69638 288.43253 289.07559 289.89511
 354.97500 345.04800 334.58700 324.11500 313.32600 302.53700 291.65000 280.76700
 269.93100 259.19300 248.62200 238.61700 229.08700 220.35500 212.54000 205.53500
 199.46400 194.49300 191.14300 189.19000 188.08900 188.01400 188.72400 189.90600
 191.46900 193.38200 195.40300 197.55600 199.80700 202.06000 204.28800 206.47900
 208.55200 210.37800 212.02500 213.65900 214.99800 216.11800 217.17200 218.25900
 219.49400 220.64500 221.67900 222.61400 223.54500 224.98200 226.57100 228.19000
 229.79700 231.81100 233.86500 235.97200 238.24200 240.55300 242.89900 245.25300
 247.48800 249.53500 251.36600 252.84800 254.09800 255.16700 256.02700 256.25300
 256.09500 255.54300 253.93500 252.56600 251.38400 250.24500 249.05200 247.70100
 246.01600 243.99600 241.78400 239.39300 236.81300 234.22300 231.65800 229.14400
 226.74000 224.47300 222.33500 220.32500 218.44000 216.67700 214.96200 213.47200
 212.20000 211.10800 210.26000 209.63900 209.24400 209.03100 209.05800 209.33300
 209.78400 210.62600 211.33100 212.39100 213.62500 214.84668 217.72949 219.47640
 220.32566 220.86828 220.88710 220.27371 219.43733 218.84250 219.04934 220.86203
 222.60583 225.72206 229.03064 232.61777 236.12270 239.51333 242.70767 245.68587
 248.41061 250.90679 253.19353 254.91714 256.48655 257.94920 259.39966 260.69384
 261.81714 262.77997 263.71679 264.54570 265.26305 265.89772 266.47676 267.00133
 267.47312 267.89325 268.26027 268.72800
