|-------------------------------------------------------------------------|
|   File Name : in_temp.dat
|   Subject   : temperature profiles used for initial guess atmosphere
|   File Type : input of gmtr
|   Data Type : atmospherical data
|   Author/s  : WRF-Chem
|   Date      : Fri Jul 26 15:39:24 2024
|-------------------------------------------------------------------------|

 WRF-Chem temperature
#
 values of T (K)    (8f10.5)
#
 354.97500 345.04800 334.58700 324.11500 313.32600 302.53700 291.65000 280.76700
 269.93100 259.19300 248.62200 238.61700 229.08700 220.35500 212.54000 205.53500
 199.46400 194.49300 191.14300 189.19000 188.08900 188.01400 188.72400 189.90600
 191.46900 193.38200 195.40300 197.55600 199.80700 202.06000 204.28800 206.47900
 208.55200 210.37800 212.02500 213.65900 214.99800 216.11800 217.17200 218.25900
 219.49400 220.64500 221.67900 222.61400 223.54500 224.98200 226.57100 228.19000
 229.79700 231.81100 233.86500 235.97200 238.24200 240.55300 242.89900 245.25300
 247.48800 249.53500 251.36600 252.84800 254.09800 255.16700 256.02700 256.25300
 256.09500 255.54300 253.93500 252.56600 251.38400 250.24500 249.05200 247.70100
 246.01600 243.99600 241.78400 239.39300 236.81300 234.22300 231.65800 229.14400
 226.74000 224.47300 222.33500 220.32500 218.44000 216.67700 214.96200 213.47200
 212.20000 211.10800 210.26000 209.63900 209.24400 209.03100 209.05800 209.33300
 209.78400 210.62600 211.33100 212.39100 213.62500 214.84668 217.72949 219.47640
 220.32566 220.86828 220.88710 220.27371 219.43733 218.84250 219.04934 220.86203
 222.60583 225.72206 229.03064 232.61777 236.12270 239.51333 242.70767 245.68587
 248.41061 250.90679 253.19353 254.91714 256.48655 257.94920 259.39966 260.69384
 261.81714 262.77997 263.71679 264.54570 265.26305 265.89772 266.47676 267.00133
 267.47312 267.89325 268.26027 268.72800
 366.78100 356.33500 345.76700 334.63300 323.03600 311.23000 299.10000 286.90300
 274.61500 262.51200 250.52100 239.82200 229.94400 221.04800 213.23000 206.23200
 200.06600 195.00400 191.58600 189.62800 188.66500 188.72900 189.56400 190.87200
 192.59700 194.69200 196.95500 199.31400 201.75900 204.23900 206.32700 208.16900
 209.79500 210.94000 211.16900 211.39700 211.33400 211.03900 210.67200 210.30200
 209.91900 209.62900 209.43700 209.30100 209.22900 209.56000 209.94600 210.33500
 211.12800 212.30600 213.55600 215.33900 217.26700 219.31000 221.40500 223.48800
 225.54800 227.63200 229.72900 231.83500 233.96400 236.13600 238.39200 240.76200
 243.38300 245.63400 247.63600 249.40100 250.81800 251.94100 252.76300 253.07900
 253.11600 252.89000 252.25000 251.19800 249.80400 247.96500 245.87400 243.70700
 241.49800 239.30200 237.12200 234.96100 232.82100 230.68800 228.71400 226.87100
 225.15400 223.62600 222.25600 221.02800 219.91000 218.87000 217.97400 217.11500
 216.35700 215.53700 214.63500 213.99900 213.44900 212.85855 212.01316 212.61654
 214.26826 216.08686 218.14273 220.53346 223.40855 226.78828 231.49734 235.90155
 239.42278 243.28576 247.23140 251.11907 254.80144 258.23331 261.38913 264.27520
 266.89312 269.26852 271.44504 273.08845 274.58484 275.98591 277.39845 278.65879
 279.75272 280.69038 281.56708 282.34086 283.01050 283.60295 284.14348 284.63317
 285.07358 285.46577 285.80838 286.24500
 381.81900 372.39900 361.20600 349.77600 337.62200 324.85300 311.81000 298.35300
 284.86000 271.32400 258.56100 246.30400 236.08700 226.79600 218.44800 211.29000
 205.52200 200.89400 197.38100 194.84800 193.01500 192.31500 192.25000 192.43100
 192.91200 193.53700 194.13600 194.71200 195.26200 195.83100 196.39300 196.97600
 197.60400 198.14900 198.58400 199.05700 199.69500 200.37800 201.05400 201.70800
 202.31300 202.85700 203.35500 203.86200 204.56900 205.29700 206.02600 206.98700
 208.19300 209.44100 210.96900 212.57600 214.46200 216.51300 218.63000 220.85300
 223.34100 225.96200 228.73900 231.69700 234.70600 237.70600 240.69200 243.65700
 246.73700 249.69900 252.52100 255.06300 257.29000 259.23300 260.63300 261.68000
 262.46100 262.79800 262.69100 262.22400 261.06900 259.52500 257.70700 255.50700
 253.00100 250.30200 247.39800 244.45200 241.65400 239.05400 236.73300 234.59000
 232.59500 230.72500 228.83400 226.82600 224.66600 222.38700 220.10400 217.71500
 215.45900 213.06600 210.54600 208.09300 205.35400 202.08130 196.05959 200.71215
 209.01611 216.90438 223.84126 229.78593 235.00632 240.20838 245.98943 250.68668
 254.32982 257.93487 261.55666 264.96801 268.15192 271.06452 273.76717 276.25691
 278.57680 280.74479 282.77456 284.60533 286.27232 287.81705 289.31715 290.65561
 291.81734 292.81312 293.70701 294.49387 295.17482 295.77730 296.32696 296.82492
 297.27278 297.67160 298.02000 298.46400
 399.33000 389.90700 379.81300 368.66800 357.52200 345.30100 333.07400 320.22700
 307.21600 293.84800 280.37600 267.29600 254.61000 242.98700 232.15100 221.97700
 212.67200 204.28600 197.66900 192.82100 189.48600 187.45200 186.81400 187.08900
 187.78100 189.05400 190.64800 192.54200 194.63000 196.75200 198.67100 200.15800
 201.53500 202.48700 202.97500 203.34000 203.53900 203.49700 203.38500 203.24700
 203.00500 202.78600 202.60300 202.43700 202.42600 202.88800 203.42000 203.95100
 204.89500 205.99200 207.30100 208.95800 210.73800 213.10000 215.56400 218.18000
 220.96600 223.91800 226.96100 230.09200 233.29300 236.55700 239.95500 243.53700
 246.84500 249.39000 251.54200 253.47400 255.19500 256.48400 257.43100 258.05900
 258.21200 258.04000 257.58200 256.64300 255.23900 253.50700 251.40800 249.05600
 246.57600 243.99400 241.38900 238.83000 236.34400 233.98600 231.96900 230.11800
 228.42300 226.89900 225.54800 224.29700 223.10500 221.96500 220.95800 220.11300
 219.49000 218.92000 218.32500 217.88100 217.42300 216.96366 216.35568 216.80261
 217.73415 218.28582 218.64258 219.10077 220.44626 222.53987 226.38451 230.35736
 233.59734 237.39164 241.29814 245.22796 248.98002 252.51130 255.78595 258.80109
 261.54781 264.05210 266.34239 268.04198 269.58951 271.01303 272.35754 273.55718
 274.59842 275.49092 276.28989 276.99307 277.60161 278.14001 278.63122 279.07623
 279.47646 279.83287 280.14422 280.54100
 399.73800 389.78500 379.66200 368.15100 356.64100 344.35000 331.79200 318.88800
 305.72600 292.49300 279.20900 266.73800 254.69600 244.21100 234.45700 225.43300
 217.56900 210.45100 204.30000 199.30600 195.45800 192.57600 191.02700 190.38600
 190.23900 190.53400 191.16600 191.92500 192.79500 193.76600 194.73200 195.31200
 195.80000 196.05200 196.11500 196.11500 196.03900 195.72300 195.34000 194.98900
 194.75100 194.79200 195.13300 195.59800 196.50600 198.13600 199.85800 201.56600
 204.17900 206.82300 209.89300 213.28400 216.82800 220.60500 224.38700 228.20900
 232.03200 235.82500 239.56000 243.25800 246.84500 250.20100 253.70900 257.46800
 261.53000 264.22100 266.60100 268.68100 270.32900 271.74100 272.83600 273.47400
 273.89800 274.00200 273.75700 273.28800 272.37100 271.10000 269.58900 267.77900
 265.81600 263.72100 261.39300 258.91600 256.29800 253.42300 250.33100 247.11400
 243.83700 240.52900 237.24900 233.99900 230.72800 227.51500 224.25400 220.95200
 217.62700 213.65600 210.12100 206.78900 204.01000 201.99491 199.07309 198.76551
 199.40006 200.48994 201.46112 202.31912 203.45100 204.96110 207.47502 210.85391
 213.70530 217.29629 220.99574 224.72316 228.28753 231.64854 234.68024 237.40893
 239.70644 241.60899 243.46854 245.67368 247.68154 249.52395 251.24767 252.78566
 254.12057 255.26479 256.23740 257.09036 257.82852 258.48160 259.07744 259.61723
 260.10271 260.53504 260.91270 261.39400
 399.73800 389.78500 379.66200 368.15100 356.64100 344.35000 331.79200 318.88800
 305.72600 292.49300 279.20900 266.73800 254.69600 244.21100 234.45700 225.43300
 217.56900 210.45100 204.30000 199.30600 195.45800 192.57600 191.02700 190.38600
 190.23900 190.53400 191.16600 191.92500 192.79500 193.76600 194.73200 195.31200
 195.80000 196.05200 196.11500 196.11500 196.03900 195.72300 195.34000 194.98900
 194.75100 194.79200 195.13300 195.59800 196.50600 198.13600 199.85800 201.56600
 204.17900 206.82300 209.89300 213.28400 216.82800 220.60500 224.38700 228.20900
 232.03200 235.82500 239.56000 243.25800 246.84500 250.20100 253.70900 257.46800
 261.53000 264.22100 266.60100 268.68100 270.32900 271.74100 272.83600 273.47400
 273.89800 274.00200 273.75700 273.28800 272.37100 271.10000 269.58900 267.77900
 265.81600 263.72100 261.39300 258.91600 256.29800 253.42300 250.33100 247.11400
 243.83700 240.52900 237.24900 233.99900 230.72800 227.51500 224.25400 220.95200
 217.62700 213.65600 210.12100 206.78900 204.01000 201.99491 199.07309 198.76551
 199.40006 200.48994 201.46112 202.31912 203.45100 204.96110 207.47502 210.85391
 213.70530 217.29629 220.99574 224.72316 228.28753 231.64854 234.68024 237.40893
 239.70644 241.60899 243.46854 245.67368 247.68154 249.52395 251.24767 252.78566
 254.12057 255.26479 256.23740 257.09036 257.82852 258.48160 259.07744 259.61723
 260.10271 260.53504 260.91270 261.39400
 399.33000 389.90700 379.81300 368.66800 357.52200 345.30100 333.07400 320.22700
 307.21600 293.84800 280.37600 267.29600 254.61000 242.98700 232.15100 221.97700
 212.67200 204.28600 197.66900 192.82100 189.48600 187.45200 186.81400 187.08900
 187.78100 189.05400 190.64800 192.54200 194.63000 196.75200 198.67100 200.15800
 201.53500 202.48700 202.97500 203.34000 203.53900 203.49700 203.38500 203.24700
 203.00500 202.78600 202.60300 202.43700 202.42600 202.88800 203.42000 203.95100
 204.89500 205.99200 207.30100 208.95800 210.73800 213.10000 215.56400 218.18000
 220.96600 223.91800 226.96100 230.09200 233.29300 236.55700 239.95500 243.53700
 246.84500 249.39000 251.54200 253.47400 255.19500 256.48400 257.43100 258.05900
 258.21200 258.04000 257.58200 256.64300 255.23900 253.50700 251.40800 249.05600
 246.57600 243.99400 241.38900 238.83000 236.34400 233.98600 231.96900 230.11800
 228.42300 226.89900 225.54800 224.29700 223.10500 221.96500 220.95800 220.11300
 219.49000 218.92000 218.32500 217.88100 217.42300 216.96366 216.35568 216.80261
 217.73415 218.28582 218.64258 219.10077 220.44626 222.53987 226.38451 230.35736
 233.59734 237.39164 241.29814 245.22796 248.98002 252.51130 255.78595 258.80109
 261.54781 264.05210 266.34239 268.04198 269.58951 271.01303 272.35754 273.55718
 274.59842 275.49092 276.28989 276.99307 277.60161 278.14001 278.63122 279.07623
 279.47646 279.83287 280.14422 280.54100
 381.81900 372.39900 361.20600 349.77600 337.62200 324.85300 311.81000 298.35300
 284.86000 271.32400 258.56100 246.30400 236.08700 226.79600 218.44800 211.29000
 205.52200 200.89400 197.38100 194.84800 193.01500 192.31500 192.25000 192.43100
 192.91200 193.53700 194.13600 194.71200 195.26200 195.83100 196.39300 196.97600
 197.60400 198.14900 198.58400 199.05700 199.69500 200.37800 201.05400 201.70800
 202.31300 202.85700 203.35500 203.86200 204.56900 205.29700 206.02600 206.98700
 208.19300 209.44100 210.96900 212.57600 214.46200 216.51300 218.63000 220.85300
 223.34100 225.96200 228.73900 231.69700 234.70600 237.70600 240.69200 243.65700
 246.73700 249.69900 252.52100 255.06300 257.29000 259.23300 260.63300 261.68000
 262.46100 262.79800 262.69100 262.22400 261.06900 259.52500 257.70700 255.50700
 253.00100 250.30200 247.39800 244.45200 241.65400 239.05400 236.73300 234.59000
 232.59500 230.72500 228.83400 226.82600 224.66600 222.38700 220.10400 217.71500
 215.45900 213.06600 210.54600 208.09300 205.35400 202.08130 196.05959 200.71215
 209.01611 216.90438 223.84126 229.78593 235.00632 240.20838 245.98943 250.68668
 254.32982 257.93487 261.55666 264.96801 268.15192 271.06452 273.76717 276.25691
 278.57680 280.74479 282.77456 284.60533 286.27232 287.81705 289.31715 290.65561
 291.81734 292.81312 293.70701 294.49387 295.17482 295.77730 296.32696 296.82492
 297.27278 297.67160 298.02000 298.46400
 366.78100 356.35088 345.79876 334.68064 323.09952 311.30940 299.19527 287.01415
 274.74203 262.65491 250.67979 239.99667 230.13455 221.25443 213.45231 206.47019
 200.32007 195.27394 191.87182 189.92970 188.98258 189.06246 189.91334 191.23722
 192.97810 195.08898 197.36786 199.74274 202.20362 204.69949 206.80337 208.66125
 210.30313 211.46401 211.70889 211.95277 211.90565 211.62653 211.27541 210.92129
 210.55416 210.28004 210.10392 209.98380 209.92768 210.27456 210.67644 211.08132
 211.89020 213.08408 214.34996 216.14883 218.09271 220.15159 222.26247 224.36135
 226.43723 228.53711 230.64999 232.77187 234.91675 237.10463 239.37650 241.76238
 244.39926 246.66614 248.68402 250.46490 251.89778 253.03666 253.87454 254.20642
 254.25930 254.04918 253.42505 252.38893 251.01081 249.18769 247.11257 244.96145
 242.76833 240.58821 238.42409 236.27897 234.15485 232.03772 230.07960 228.25248
 226.55136 225.03924 223.68512 222.47300 221.37088 220.34676 219.46664 218.62352
 217.88139 217.07727 216.19115 215.57103 215.03691 213.51602 209.94727 209.23235
 210.26312 210.64342 211.91035 215.42555 219.77118 224.55347 230.34709 235.34995
 239.19791 243.23448 247.55280 251.78888 255.38371 258.40182 261.06842 263.69437
 266.53860 269.23660 271.85114 274.47736 276.57184 278.16010 279.46454 281.01337
 283.08151 284.86020 286.40390 287.76205 288.93530 289.97552 290.92288 291.78015
 292.54922 293.23260 293.82523 294.56113
 366.78100 356.35140 345.79979 334.68219 323.10159 311.31198 299.19838 287.01778
 274.74617 262.65957 250.68497 240.00236 230.14076 221.26116 213.45955 206.47795
 200.32835 195.28274 191.88114 189.93954 188.99293 189.07333 189.92473 191.24912
 192.99052 195.10192 197.38131 199.75671 202.21811 204.71450 206.81890 208.67730
 210.31969 211.48109 211.72649 211.97088 211.92428 211.64568 211.29507 210.94147
 210.57487 210.30126 210.12566 210.00606 209.95045 210.29785 210.70025 211.10564
 211.91504 213.10944 214.37583 216.17523 218.11963 220.17902 222.29042 224.38982
 226.46621 228.56661 230.68001 232.80240 234.94780 237.13620 239.40859 241.79499
 244.43239 246.69978 248.71818 250.49958 251.93297 253.07237 253.91077 254.24316
 254.29656 254.08696 253.46335 252.42775 251.05015 249.22754 247.15294 245.00234
 242.80974 240.63013 238.46653 236.32193 234.19832 232.08172 230.12412 228.29751
 226.59691 225.08531 223.73170 222.52010 221.41850 220.39489 219.51529 218.67269
 217.93108 217.12748 216.24188 215.62227 215.08867 213.56451 209.98720 209.29401
 210.27953 210.70073 211.93060 215.37091 219.73109 224.51001 230.26418 235.26010
 239.10991 243.14967 247.47305 251.71727 255.33035 258.38663 261.06967 263.67447
 266.50366 269.19400 271.80127 274.41019 276.47803 278.05450 279.39297 280.98059
 283.05734 284.83691 286.38153 287.73901 288.91373 289.95288 290.89999 291.75708
 292.52600 293.20914 293.80157 294.53732
 366.78100 356.35186 345.80071 334.68357 323.10343 311.31429 299.20114 287.02100
 274.74986 262.66371 250.68957 240.00743 230.14628 221.26714 213.46600 206.48486
 200.33571 195.29057 191.88943 189.94828 189.00214 189.08300 189.93486 191.25971
 193.00157 195.11343 197.39328 199.76914 202.23100 204.72785 206.83271 208.69157
 210.33443 211.49628 211.74214 211.98700 211.94085 211.66271 211.31257 210.95942
 210.59328 210.32014 210.14500 210.02585 209.97071 210.31857 210.72142 211.12728
 211.93714 213.13200 214.39885 216.19871 218.14357 220.20342 222.31528 224.41514
 226.49199 228.59285 230.70671 232.82957 234.97542 237.16428 239.43714 241.82399
 244.46185 246.72971 248.74857 250.53042 251.96428 253.10414 253.94299 254.27585
 254.32971 254.12056 253.49742 252.46228 251.08514 249.26299 247.18885 245.03871
 242.84656 240.66742 238.50428 236.36013 234.23699 232.12085 230.16371 228.33756
 226.63742 225.12628 223.77313 222.56199 221.46085 220.43771 219.55856 218.71642
 217.97528 217.17213 216.28699 215.66785 215.13470 213.60910 210.02747 209.35617
 210.29498 210.75774 211.95781 215.32625 219.68451 224.45842 230.18007 235.17606
 239.02963 243.07253 247.39648 251.64571 255.27444 258.36752 261.06802 263.65277
 266.46658 269.14755 271.74789 274.33759 276.38040 277.94806 279.32193 280.94855
 283.02835 284.80984 286.35428 287.71158 288.88611 289.92517 290.87186 291.72888
 292.49744 293.17981 293.77185 294.50696
 366.78100 356.35215 345.80130 334.68445 323.10460 311.31575 299.20290 287.02305
 274.75220 262.66635 250.69250 240.01066 230.14981 221.27096 213.47011 206.48926
 200.34041 195.29556 191.89471 189.95386 189.00801 189.08916 189.94131 191.26646
 193.00861 195.12076 197.40091 199.77706 202.23921 204.73636 206.84151 208.70066
 210.34382 211.50597 211.75212 211.99727 211.95142 211.67357 211.32372 210.97087
 210.60502 210.33217 210.15732 210.03847 209.98362 210.33177 210.73492 211.14107
 211.95122 213.14637 214.41352 216.21367 218.15882 220.21898 222.33113 224.43128
 226.50843 228.60958 230.72373 232.84688 234.99303 237.18218 239.45533 241.84248
 244.48063 246.74878 248.76793 250.55008 251.98423 253.12438 253.96353 254.29668
 254.35083 254.14198 253.51913 252.48429 251.10744 249.28559 247.21174 245.06189
 242.87004 240.69119 238.52834 236.38449 234.26164 232.14579 230.18894 228.36309
 226.66324 225.15239 223.79954 222.58869 221.48784 220.46499 219.58614 218.74429
 218.00345 217.20060 216.31575 215.69690 215.16405 213.64420 210.07489 209.41306
 210.31441 210.81049 211.98546 215.29207 219.63132 224.39980 230.10411 235.09904
 238.95308 242.99744 247.31985 251.57246 255.21696 258.34717 261.06564 263.63052
 266.42838 269.09882 271.68964 274.25998 276.28036 277.84137 279.25012 280.91370
 282.99451 284.77670 286.32233 287.67841 288.85373 289.89111 290.83829 291.69403
 292.46323 293.14362 293.73553 294.46902
 366.78100 356.35238 345.80176 334.68514 323.10552 311.31690 299.20427 287.02465
 274.75403 262.66841 250.69479 240.01317 230.15255 221.27393 213.47331 206.49269
 200.34406 195.29944 191.89882 189.95820 189.01258 189.09396 189.94634 191.27172
 193.01410 195.12648 197.40686 199.78323 202.24561 204.74299 206.84837 208.70775
 210.35113 211.51351 211.75989 212.00527 211.95965 211.68202 211.33240 210.97978
 210.61416 210.34154 210.16692 210.04830 209.99368 210.34206 210.74544 211.15182
 211.96219 213.15757 214.42495 216.22533 218.17071 220.23109 222.34347 224.44385
 226.52123 228.62261 230.73698 232.86036 235.00674 237.19612 239.46950 241.85688
 244.49526 246.76364 248.78302 250.56540 251.99978 253.14015 253.97953 254.31291
 254.36729 254.15867 253.53605 252.50143 251.12481 249.30319 247.22957 245.07994
 242.88832 240.70970 238.54708 236.40346 234.28084 232.16522 230.20860 228.38298
 226.68336 225.17274 223.82011 222.60949 221.50887 220.48625 219.60763 218.76601
 218.02539 217.22277 216.33815 215.71953 215.18690 213.67482 210.12265 209.47269
 210.33987 210.85210 212.01292 215.26640 219.57541 224.33618 230.03310 235.02771
 238.88029 242.92360 247.24400 251.49980 255.16049 258.32779 261.06384 263.60773
 266.38757 269.04593 271.62598 274.17725 276.17816 277.73648 279.17923 280.87943
 282.95535 284.73727 286.28195 287.63882 288.81305 289.85117 290.79709 291.65268
 292.41928 293.09982 293.68958 294.42032
 366.78100 356.35247 345.80193 334.68540 323.10586 311.31733 299.20479 287.02526
 274.75472 262.66919 250.69566 240.01412 230.15359 221.27505 213.47452 206.49398
 200.34545 195.30091 191.90038 189.95985 189.01431 189.09578 189.94824 191.27371
 193.01617 195.12864 197.40910 199.78557 202.24804 204.74550 206.85097 208.71043
 210.35390 211.51636 211.76283 212.00829 211.96276 211.68523 211.33569 210.98316
 210.61762 210.34509 210.17055 210.05202 209.99748 210.34595 210.74942 211.15588
 211.96635 213.16181 214.42928 216.22974 218.17521 220.23568 222.34814 224.44861
 226.52607 228.62754 230.74200 232.86547 235.01193 237.20140 239.47487 241.86233
 244.50080 246.76926 248.78873 250.57119 252.00566 253.14612 253.98559 254.31906
 254.37352 254.16499 253.54245 252.50792 251.13138 249.30985 247.23631 245.08678
 242.89525 240.71671 238.55418 236.41064 234.28811 232.17257 230.21604 228.39050
 226.69097 225.18044 223.82790 222.61737 221.51683 220.49430 219.61576 218.77423
 218.03369 217.23116 216.34663 215.72809 215.19556 213.69716 210.17599 209.53113
 210.37057 210.88493 212.03867 215.25131 219.51376 224.27010 229.96480 234.95807
 238.80879 242.85216 247.17139 251.43015 255.10686 258.30899 261.06073 263.58377
 266.34451 268.98898 271.55676 274.08893 276.07166 277.63120 279.10641 280.84161
 282.90872 284.69037 286.23529 287.59219 288.76602 289.80289 290.74899 291.60382
 292.36935 293.04865 293.63705 294.36313
 366.78100 356.35255 345.80210 334.68565 323.10619 311.31774 299.20529 287.02584
 274.75539 262.66994 250.69649 240.01503 230.15458 221.27613 213.47568 206.49523
 200.34678 195.30233 191.90187 189.96142 189.01597 189.09752 189.95007 191.27562
 193.01817 195.13071 197.41126 199.78781 202.25036 204.74791 206.85346 208.71301
 210.35655 211.51910 211.76565 212.01120 211.96575 211.68830 211.33885 210.98639
 210.62094 210.34849 210.17404 210.05559 210.00114 210.34969 210.75323 211.15978
 211.97033 213.16588 214.43343 216.23398 218.17953 220.24007 222.35262 224.45317
 226.53072 228.63227 230.74682 232.87037 235.01691 237.20646 239.48001 241.86756
 244.50611 246.77466 248.79421 250.57675 252.01130 253.15185 253.99140 254.32495
 254.37950 254.17105 253.54859 252.51414 251.13769 249.31624 247.24279 245.09334
 242.90189 240.72343 238.56098 236.41753 234.29508 232.17963 230.22318 228.39773
 226.69827 225.18782 223.83537 222.62492 221.52447 220.50202 219.62357 218.78211
 218.04166 217.23921 216.35476 215.73631 215.20386 213.71809 210.22559 209.59764
 210.40320 210.90990 212.06421 215.24068 219.45207 224.19881 229.89700 234.89009
 238.73990 242.78400 247.10120 251.36188 255.05374 258.28979 261.05862 263.56238
 266.30472 268.93237 271.48343 273.99438 275.96387 277.52591 279.03049 280.79666
 282.85510 284.63577 286.18033 287.53592 288.70941 289.74512 290.68802 291.53894
 292.30005 292.97388 293.55606 294.26007
 366.78100 356.35266 345.80233 334.68599 323.10666 311.31832 299.20599 287.02665
 274.75632 262.67098 250.69765 240.01631 230.15597 221.27764 213.47730 206.49697
 200.34863 195.30430 191.90396 189.96363 189.01829 189.09996 189.95262 191.27828
 193.02095 195.13361 197.41428 199.79094 202.25361 204.75127 206.85694 208.71660
 210.36027 211.52293 211.76959 212.01526 211.96992 211.69259 211.34325 210.99092
 210.62558 210.35325 210.17891 210.06058 210.00624 210.35490 210.75857 211.16523
 211.97590 213.17156 214.43923 216.23989 218.18556 220.24622 222.35889 224.45955
 226.53721 228.63888 230.75354 232.87721 235.02387 237.21354 239.48720 241.87487
 244.51353 246.78220 248.80186 250.58452 252.01919 253.15985 253.99952 254.33318
 254.38785 254.17951 253.55718 252.52284 251.14651 249.32517 247.25183 245.10250
 242.91116 240.73283 238.57049 236.42716 234.30482 232.18949 230.23315 228.40782
 226.70848 225.19814 223.84581 222.63547 221.53514 220.51280 219.63447 218.79313
 218.05280 217.25046 216.36613 215.74779 215.21545 213.73959 210.26944 209.66998
 210.44829 210.93027 212.08475 215.23148 219.38264 224.12300 229.82898 234.82056
 238.67036 242.71693 247.03329 251.29575 255.00366 258.27408 261.06226 263.54868
 266.26865 268.87433 271.40411 273.89264 275.85300 277.42200 278.95282 280.75174
 282.78073 284.56662 286.11285 287.46851 288.63983 289.67676 290.61700 291.46704
 292.22632 292.89816 293.47766 294.16476
 366.78100 356.35291 345.80283 334.68674 323.10765 311.31956 299.20748 287.02839
 274.75830 262.67322 250.70013 240.01904 230.15895 221.28087 213.48078 206.50069
 200.35260 195.30852 191.90843 189.96834 189.02326 189.10517 189.95808 191.28399
 193.02691 195.13982 197.42073 199.79765 202.26056 204.75847 206.86438 208.72430
 210.36821 211.53112 211.77804 212.02395 211.97886 211.70177 211.35269 211.00060
 210.63551 210.36342 210.18934 210.07125 210.01716 210.36608 210.76999 211.17690
 211.98781 213.18373 214.45164 216.25255 218.19847 220.25938 222.37229 224.47320
 226.55112 228.65303 230.76794 232.89186 235.03877 237.22868 239.50259 241.89051
 244.52942 246.79833 248.81824 250.60116 252.03607 253.17698 254.01690 254.35081
 254.40572 254.19763 253.57555 252.54146 251.16537 249.34429 247.27120 245.12211
 242.93102 240.75294 238.59085 236.44776 234.32568 232.21059 230.25450 228.42941
 226.73033 225.22024 223.86815 222.65806 221.55798 220.53589 219.65780 218.81672
 218.07663 217.27454 216.39045 215.77237 215.24028 213.76625 210.29979 209.75194
 210.50703 210.94962 212.09630 215.21153 219.30566 224.04175 229.76183 234.75177
 238.60384 242.65594 246.97125 251.23410 254.95680 258.25925 261.06702 263.53656
 266.23434 268.81488 271.31812 273.78470 275.74225 277.32462 278.87845 280.70258
 282.70261 284.49292 286.03915 287.39575 288.56729 289.59927 290.53848 291.38773
 292.14508 292.81436 293.37125 293.98416
 366.78100 356.35286 345.80272 334.68658 323.10744 311.31931 299.20717 287.02803
 274.75789 262.67275 250.69961 240.01847 230.15833 221.28019 213.48006 206.49992
 200.35178 195.30764 191.90750 189.96736 189.02222 189.10408 189.95694 191.28280
 193.02567 195.13853 197.41939 199.79625 202.25911 204.75697 206.86283 208.72269
 210.36655 211.52942 211.77628 212.02214 211.97700 211.69986 211.35072 210.99858
 210.63344 210.36130 210.18717 210.06903 210.01489 210.36375 210.76761 211.17447
 211.98533 213.18119 214.44905 216.24991 218.19578 220.25664 222.36950 224.47036
 226.54822 228.65008 230.76494 232.88880 235.03566 237.22553 239.49939 241.88725
 244.52611 246.79497 248.81483 250.59769 252.03255 253.17341 254.01328 254.34714
 254.40200 254.19386 253.57172 252.53758 251.16144 249.34030 247.26716 245.11802
 242.92689 240.74875 238.58661 236.44347 234.32133 232.20619 230.25005 228.42491
 226.72577 225.21564 223.86350 222.65336 221.55322 220.53108 219.65294 218.81180
 218.07166 217.26952 216.38539 215.76725 215.23511 213.77731 210.34795 209.81468
 210.59467 210.96890 212.07782 215.20242 219.22781 223.95743 229.69592 234.68605
 238.54144 242.60040 246.91316 251.17352 254.90848 258.24216 261.07077 263.52487
 266.20111 268.75528 271.22983 273.67374 275.63342 277.23053 278.80130 280.63449
 282.62433 284.41354 285.95728 287.31262 288.48312 289.51279 290.44968 291.29770
 292.05933 292.73203 293.28787 293.81094
 366.78100 356.35390 345.80480 334.68970 323.11160 311.32450 299.21340 287.03530
 274.76620 262.68210 250.71000 240.02990 230.17080 221.29370 213.49460 206.51550
 200.36840 195.32530 191.92620 189.98710 189.04300 189.12590 189.97980 191.30670
 193.05060 195.16450 197.44640 199.82430 202.28820 204.78710 206.89400 208.75490
 210.39980 211.56370 211.81160 212.05850 212.01440 211.73830 211.39020 211.03910
 210.67500 210.40390 210.23080 210.11370 210.06060 210.41050 210.81540 211.22330
 212.03520 213.23210 214.50100 216.30290 218.24980 220.31170 222.42560 224.52750
 226.60640 228.70930 230.82520 232.95010 235.09800 237.28890 239.56380 241.95270
 244.59260 246.86250 248.88340 250.66730 252.10320 253.24510 254.08600 254.42090
 254.47680 254.26970 253.64860 252.61550 251.24040 249.42030 247.34820 245.20010
 243.01000 240.83290 238.67180 236.52970 234.40860 232.29450 230.33940 228.51530
 226.81720 225.30810 223.95700 222.74790 221.64880 220.62770 219.75060 218.91050
 218.17140 217.37030 216.48720 215.87010 215.33900 213.84172 210.31946 209.93184
 210.69675 210.96666 212.08705 215.15952 219.12048 223.87193 229.63159 234.62425
 238.48460 242.55185 246.86116 251.11804 254.86467 258.22806 261.07806 263.51767
 266.16776 268.69284 271.13358 273.55453 275.52087 277.14047 278.72565 280.56219
 282.54083 284.32385 285.86707 287.22046 288.38925 289.41650 290.35373 291.20602
 291.97363 292.65414 293.10175 293.48712
 366.78100 356.35516 345.80731 334.69347 323.11663 311.33079 299.22094 287.04410
 274.77626 262.69341 250.72257 240.04373 230.18589 221.31004 213.51220 206.53436
 200.38852 195.34667 191.94883 190.01099 189.06814 189.15230 190.00746 191.33562
 193.08077 195.19593 197.47909 199.85824 202.32340 204.82356 206.93172 208.79387
 210.44003 211.60519 211.85435 212.10250 212.05966 211.78482 211.43797 211.08813
 210.72529 210.45545 210.28360 210.16776 210.11592 210.46707 210.87323 211.28239
 212.09555 213.29370 214.56386 216.36702 218.31518 220.37833 222.49349 224.59665
 226.67680 228.78096 230.89812 233.02428 235.17343 237.36559 239.64175 242.03190
 244.67306 246.94422 248.96638 250.75153 252.18869 253.33185 254.17401 254.51016
 254.56732 254.36148 253.74163 252.70979 251.33595 249.51711 247.44626 245.29942
 243.11058 240.93473 238.77489 236.63405 234.51421 232.40136 230.44752 228.62468
 226.92784 225.41999 224.07015 222.86231 221.76446 220.74462 219.86878 219.02994
 218.29209 217.49225 216.61041 215.99456 215.46472 213.92117 210.28896 209.95456
 210.97612 211.00148 211.90050 215.08980 219.05148 223.79010 229.58438 234.57916
 238.44092 242.51541 246.81726 251.06786 254.82376 258.21326 261.08194 263.50488
 266.13257 268.62521 271.03247 273.42923 275.40500 277.04758 278.64401 280.48300
 282.45309 284.22507 285.76752 287.11972 288.28671 289.31042 290.24878 291.10297
 291.87903 292.55753 292.90042 293.16858
 366.78100 356.35423 345.80546 334.69069 323.11292 311.32615 299.21538 287.03761
 274.76884 262.68507 250.71330 240.03353 230.17476 221.29799 213.49922 206.52045
 200.37368 195.33091 191.93214 189.99337 189.04960 189.13283 189.98706 191.31429
 193.05852 195.17275 197.45498 199.83321 202.29744 204.79667 206.90390 208.76513
 210.41036 211.57459 211.82282 212.07005 212.02628 211.75051 211.40274 211.05197
 210.68820 210.41743 210.24466 210.12789 210.07512 210.42535 210.83058 211.23881
 212.05104 213.24827 214.51750 216.31973 218.26696 220.32919 222.44342 224.54565
 226.62488 228.72811 230.84434 232.96957 235.11780 237.30903 239.58426 241.97349
 244.61372 246.88395 248.90518 250.68941 252.12564 253.26787 254.10910 254.44433
 254.50056 254.29379 253.67302 252.64025 251.26548 249.44571 247.37394 245.22617
 243.03640 240.85963 238.69886 236.55709 234.43631 232.32254 230.36777 228.54400
 226.84623 225.33746 223.98669 222.77792 221.67915 220.65838 219.78161 218.94184
 218.20307 217.40230 216.51953 215.90276 215.37199 213.89162 210.40559 209.90022
 211.05061 211.13847 211.86398 215.00069 218.98737 223.75040 229.53790 234.53542
 238.39940 242.48163 246.77483 251.01576 254.77744 258.18967 261.07986 263.49286
 266.09485 268.55771 270.92798 273.30042 275.29230 276.96225 278.57019 280.40567
 282.36197 284.11957 285.66226 287.01532 288.17905 289.18695 290.12341 290.98141
 291.76440 292.42999 292.68771 292.87769
 366.78100 356.35297 345.80295 334.68692 323.10790 311.31987 299.20784 287.02882
 274.75879 262.67376 250.70074 240.01971 230.15969 221.28166 213.48163 206.50161
 200.35358 195.30956 191.90953 189.96950 189.02448 189.10645 189.95942 191.28540
 193.02837 195.14135 197.42232 199.79929 202.26227 204.76024 206.86622 208.72619
 210.37016 211.53314 211.78011 212.02608 211.98106 211.70403 211.35501 211.00298
 210.63795 210.36593 210.19190 210.07387 210.01985 210.36882 210.77280 211.17977
 211.99074 213.18672 214.45469 216.25567 218.20164 220.26261 222.37559 224.47656
 226.55453 228.65651 230.77148 232.89546 235.04243 237.23240 239.50638 241.89435
 244.53333 246.80230 248.82227 250.60525 252.04022 253.18119 254.02117 254.35514
 254.41012 254.20209 253.58006 252.54604 251.17001 249.34899 247.27596 245.12693
 242.93591 240.75788 238.59585 236.45283 234.33080 232.21578 230.25975 228.43472
 226.73570 225.22567 223.87365 222.66362 221.56359 220.54157 219.66354 218.82251
 218.08249 217.28046 216.39644 215.77841 215.24638 213.84134 210.53104 209.91788
 211.02122 211.21074 211.93900 214.96680 218.90102 223.69521 229.47972 234.48364
 238.35378 242.44456 246.72942 250.96083 254.72665 258.16281 261.07294 263.47705
 266.06580 268.49808 270.82996 273.18207 275.18335 276.87250 278.48254 280.31772
 282.26489 284.01437 285.55643 286.90836 288.06155 289.05795 289.99677 290.86053
 291.65616 292.24551 292.45667 292.59387
 366.78100 356.35289 345.80278 334.68668 323.10757 311.31946 299.20735 287.02825
 274.75814 262.67303 250.69992 240.01881 230.15871 221.28060 213.48049 206.50038
 200.35228 195.30817 191.90806 189.96795 189.02284 189.10474 189.95763 191.28352
 193.02641 195.13931 197.42020 199.79709 202.25998 204.75787 206.86377 208.72366
 210.36755 211.53044 211.77733 212.02323 211.97812 211.70101 211.35190 210.99980
 210.63469 210.36258 210.18847 210.07036 210.01626 210.36515 210.76904 211.17593
 211.98683 213.18272 214.45061 216.25150 218.19739 220.25829 222.37118 224.47207
 226.54996 228.65186 230.76675 232.89064 235.03753 237.22742 239.50132 241.88921
 244.52810 246.79699 248.81689 250.59978 252.03467 253.17556 254.01545 254.34935
 254.40424 254.19613 253.57402 252.53992 251.16381 249.34270 247.26959 245.12048
 242.92938 240.75127 238.58916 236.44605 234.32394 232.20884 230.25273 228.42762
 226.72851 225.21841 223.86630 222.65619 221.55608 220.53397 219.65587 218.81476
 218.07465 217.27254 216.38844 215.77033 215.23822 213.85216 210.58534 209.97331
 211.00612 211.23073 212.06216 214.96498 218.79553 223.62323 229.42583 234.43219
 238.30386 242.39975 246.67552 250.89528 254.66606 258.12912 261.06680 263.46887
 266.03552 268.44174 270.73743 273.06308 275.07773 276.79184 278.40738 280.23538
 282.16330 283.89883 285.43893 286.79306 287.93707 288.90613 289.84494 290.71530
 291.51660 292.04062 292.24127 292.34869
 366.78100 356.35330 345.80361 334.68791 323.10921 311.32152 299.20982 287.03112
 274.76143 262.67673 250.70403 240.02334 230.16364 221.28594 213.48625 206.50655
 200.35885 195.31516 191.91546 189.97577 189.03107 189.11337 189.96668 191.29298
 193.03628 195.14959 197.43089 199.80819 202.27150 204.76980 206.87610 208.73641
 210.38071 211.54401 211.79132 212.03762 211.99292 211.71623 211.36753 211.01583
 210.65114 210.37944 210.20574 210.08805 210.03435 210.38365 210.78796 211.19526
 212.00656 213.20287 214.47117 216.27247 218.21878 220.28008 222.39339 224.49469
 226.57299 228.67530 230.79060 232.91490 235.06221 237.25251 239.52681 241.91512
 244.55442 246.82372 248.84403 250.62733 252.06263 253.20394 254.04424 254.37854
 254.43385 254.22615 253.60445 252.57076 251.19506 249.37436 247.30167 245.15297
 242.96227 240.78458 238.62288 236.48018 234.35849 232.24379 230.28809 228.46340
 226.76470 225.25500 223.90331 222.69361 221.59392 220.57222 219.69452 218.85383
 218.11413 217.31243 216.42874 215.81104 215.27934 213.89319 210.62489 209.99149
 210.99213 211.27202 212.19255 214.97728 218.71964 223.55103 229.38217 234.38782
 238.25577 242.35141 246.61453 250.81946 254.58748 258.07034 261.03146 263.43283
 265.99164 268.37650 270.64343 272.94742 274.99680 276.74686 278.34573 280.14450
 282.06787 283.80466 285.34332 286.68616 287.81693 288.77274 289.69299 290.56180
 291.35388 291.84525 292.05856 292.12106
 366.78100 356.35433 345.80566 334.69098 323.11331 311.32664 299.21597 287.03829
 274.76962 262.68595 250.71428 240.03461 230.17593 221.29926 213.50059 206.52192
 200.37524 195.33257 191.93390 189.99523 189.05155 189.13488 189.98921 191.31654
 193.06087 195.17519 197.45752 199.83585 202.30018 204.79950 206.90683 208.76816
 210.41349 211.57782 211.82614 212.07347 212.02980 211.75413 211.40645 211.05578
 210.69211 210.42144 210.24877 210.13209 210.07942 210.42975 210.83508 211.24340
 212.05573 213.25306 214.52239 216.32472 218.27204 220.33437 222.44870 224.55103
 226.63035 228.73368 230.85001 232.97534 235.12366 237.31499 239.59032 241.97965
 244.61998 246.89030 248.91163 250.69596 252.13229 253.27461 254.11594 254.45127
 254.50760 254.30093 253.68025 252.64758 251.27291 249.45324 247.38156 245.23389
 243.04422 240.86755 238.70688 236.56520 234.44453 232.33086 230.37619 228.55251
 226.85484 225.34617 223.99550 222.78683 221.68815 220.66748 219.79081 218.95114
 218.21246 217.41179 216.52912 215.91245 215.38177 213.97226 210.64758 209.97461
 210.98091 211.32272 212.32695 215.04225 218.69926 223.49341 229.35017 234.35768
 238.22556 242.32558 246.57895 250.76575 254.53778 258.02637 260.97031 263.37720
 265.93274 268.25879 270.52161 272.81448 274.85089 276.62619 278.29813 280.10571
 281.95642 283.65652 285.19739 286.54993 287.68826 288.72214 289.68317 290.55020
 291.21088 291.61386 291.82913 291.88818
 366.78100 356.35390 345.80480 334.68970 323.11160 311.32450 299.21339 287.03529
 274.76619 262.68209 250.70999 240.02989 230.17079 221.29369 213.49459 206.51549
 200.36839 195.32529 191.92618 189.98708 189.04298 189.12588 189.97978 191.30668
 193.05058 195.16448 197.44638 199.82428 202.28818 204.78707 206.89397 208.75487
 210.39977 211.56367 211.81157 212.05847 212.01437 211.73827 211.39017 211.03907
 210.67497 210.40386 210.23076 210.11366 210.06056 210.41046 210.81536 211.22326
 212.03516 213.23206 214.50096 216.30286 218.24975 220.31165 222.42555 224.52745
 226.60635 228.70925 230.82515 232.95005 235.09795 237.28885 239.56375 241.95265
 244.59254 246.86244 248.88334 250.66724 252.10314 253.24504 254.08594 254.42084
 254.47674 254.26964 253.64854 252.61543 251.24033 249.42023 247.34813 245.20003
 243.00993 240.83283 238.67173 236.52963 234.40853 232.29443 230.33933 228.51522
 226.81712 225.30802 223.95692 222.74782 221.64872 220.62762 219.75052 218.91042
 218.17132 217.37022 216.48711 215.87001 215.33891 213.97679 210.76437 210.00717
 210.96831 211.38887 212.41722 215.05515 218.65620 223.41924 229.29613 234.28874
 238.15143 242.27492 246.53532 250.72556 254.52547 258.05179 261.03470 263.40958
 265.93768 268.26834 270.42987 272.65439 274.68195 276.39185 277.97208 279.89545
 281.89462 283.64044 285.13638 286.42120 287.54034 288.56262 289.46005 290.16122
 290.65195 291.03299 291.26764 291.38586
 366.78100 356.35051 345.79802 334.67953 323.09804 311.30754 299.19305 287.01156
 274.73907 262.65158 250.67609 239.99260 230.13011 221.24961 213.44712 206.46463
 200.31414 195.26765 191.86516 189.92267 188.97518 189.05468 189.90519 191.22870
 192.96921 195.07972 197.35823 199.73274 202.19325 204.68875 206.79226 208.64977
 210.29128 211.45179 211.69630 211.93981 211.89232 211.61282 211.26133 210.90684
 210.53935 210.26486 210.08837 209.96788 209.91139 210.25790 210.65940 211.06391
 211.87242 213.06593 214.33144 216.12995 218.07346 220.13197 222.24247 224.34098
 226.41649 228.51600 230.62851 232.75002 234.89453 237.08204 239.35354 241.73905
 244.37556 246.64207 248.65958 250.44009 251.87260 253.01111 253.84861 254.18012
 254.23263 254.02214 253.39765 252.36116 250.98267 249.15918 247.08368 244.93219
 242.73870 240.55821 238.39372 236.24823 234.12374 232.00625 230.04776 228.22026
 226.51877 225.00628 223.65179 222.43930 221.33681 220.31232 219.43183 218.58833
 217.84584 217.04135 216.15486 215.53437 214.99988 213.82391 211.08347 210.20840
 210.84468 211.26295 212.38651 214.97316 218.59203 223.30882 229.19344 234.21999
 238.05904 242.19942 246.44395 250.59776 254.45047 257.96994 260.98471 263.49658
 265.90515 268.33456 270.60202 272.74240 274.71179 276.43799 278.06415 279.79019
 281.57629 283.30801 284.80899 286.13815 287.30307 288.29147 288.94849 289.45569
 290.14694 290.83328 291.43286 292.19696
 366.78100 356.34503 345.78705 334.66308 323.07610 311.28013 299.16016 286.97318
 274.69521 262.60223 250.62126 239.93229 230.06431 221.17834 213.37036 206.38239
 200.22642 195.17444 191.76647 189.81849 188.86552 188.93955 189.78457 191.10260
 192.83762 194.94265 197.21568 199.58470 202.03973 204.52975 206.62778 208.47981
 210.11583 211.27086 211.50988 211.74791 211.69494 211.40996 211.05299 210.69301
 210.32004 210.04007 209.85809 209.73212 209.67014 210.01117 210.40720 210.80622
 211.60925 212.79727 214.05730 215.85033 217.78835 219.84138 221.94640 224.03943
 226.10946 228.20348 230.31051 232.42653 234.56556 236.74759 239.01361 241.39364
 244.02466 246.28569 248.29772 250.07274 251.49977 252.63279 253.46482 253.79085
 253.83787 253.62190 252.99192 251.94995 250.56598 248.73700 246.65603 244.49905
 242.30008 240.11411 237.94413 235.79316 233.66318 231.54021 229.57624 227.74326
 226.03629 224.51831 223.15834 221.94037 220.83239 219.80242 218.91644 218.06747
 217.31950 216.50952 215.61755 214.99157 214.45160 213.56244 211.48053 210.38446
 210.67113 211.07620 212.34526 214.93767 218.56224 223.23727 229.13145 234.15431
 238.02097 242.17801 246.42911 250.56966 254.45692 258.00513 260.98682 263.52609
 265.97873 268.40613 270.73584 272.89911 274.83588 276.55295 278.13788 279.72278
 281.35083 282.94165 284.21292 285.38150 286.36377 287.44156 288.45737 289.37759
 290.20526 290.94232 291.58618 292.40671
 366.78100 356.34054 345.77807 334.64961 323.05814 311.25768 299.13322 286.94175
 274.65929 262.56182 250.57636 239.88290 230.01043 221.11997 213.30750 206.31504
 200.15458 195.09811 191.68565 189.73318 188.77572 188.84525 189.68579 190.99933
 192.72986 194.83040 197.09893 199.46347 201.91401 204.39954 206.49308 208.34061
 209.97215 211.12269 211.35722 211.59076 211.53329 211.24383 210.88237 210.51790
 210.14044 209.85597 209.66951 209.53905 209.47258 209.80912 210.20065 210.59519
 211.39373 212.57726 213.83280 215.62133 217.55487 219.60340 221.70394 223.79248
 225.85801 227.94755 230.05008 232.16162 234.29616 236.47369 238.73523 241.11076
 243.73730 245.99384 248.00137 249.77191 251.19444 252.32298 253.15052 253.47205
 253.51459 253.29412 252.65966 251.61320 250.22473 248.39127 246.30580 244.14434
 241.94088 239.75041 237.57595 235.42048 233.28602 231.15855 229.19009 227.35263
 225.64116 224.11870 222.75423 221.53177 220.41931 219.38484 218.49438 217.64091
 216.88845 216.07399 215.17752 214.54706 214.00259 213.35295 211.75627 210.56935
 210.57899 210.96785 212.38054 214.98259 218.56914 223.23529 229.15845 234.13326
 238.03447 242.22525 246.50006 250.66832 254.59467 258.14505 261.15601 263.77896
 266.21640 268.53235 270.76501 272.91901 274.86682 276.53067 278.01648 279.53757
 281.06030 282.32938 283.85245 285.50632 286.93762 288.20398 289.35931 290.40598
 291.34732 292.18561 292.91791 293.85114
 366.78100 356.34213 345.78126 334.65439 323.06452 311.26564 299.14277 286.95290
 274.67203 262.57616 250.59229 239.90042 230.02955 221.14068 213.32981 206.33893
 200.18006 195.12519 191.71432 189.76345 188.80758 188.87871 189.72084 191.03597
 192.76809 194.87022 197.14035 199.50648 201.95861 204.44574 206.54087 208.39000
 210.02313 211.17526 211.41138 211.64651 211.59064 211.30277 210.94290 210.58003
 210.20416 209.92129 209.73642 209.60755 209.54267 209.88080 210.27393 210.67006
 211.47019 212.65532 213.91245 215.70258 217.63771 219.68783 221.78996 223.88009
 225.94722 228.03835 230.14248 232.25561 234.39174 236.57087 238.83400 241.21112
 243.83925 246.09738 248.10651 249.87864 251.30277 252.43290 253.26203 253.58516
 253.62928 253.41041 252.77754 251.73267 250.34580 248.51393 246.43006 244.27019
 242.06832 239.87945 237.70657 235.55270 233.41983 231.29396 229.32709 227.49122
 225.78135 224.26048 222.89761 221.67674 220.56586 219.53299 218.64412 217.79225
 217.04138 216.22851 215.33364 214.70477 214.16190 213.44368 211.71269 210.62297
 210.64755 211.12439 212.47375 214.91772 218.45039 223.11375 229.09866 234.08234
 237.99655 242.20944 246.50179 250.69576 254.67270 258.27002 261.30103 263.93802
 266.38004 268.65311 270.83868 272.93393 274.85449 276.48737 277.93170 279.53851
 280.97250 282.67352 284.62863 286.35715 287.85306 289.17654 290.38400 291.47791
 292.46173 293.33786 294.10321 295.07855
 366.78100 356.34639 345.78979 334.66718 323.08158 311.28697 299.16837 286.98276
 274.70616 262.61455 250.63495 239.94734 230.08074 221.19613 213.38953 206.40292
 200.24832 195.19771 191.79110 189.84450 188.89289 188.96829 189.81468 191.13408
 192.87047 194.97687 197.25126 199.62166 202.07805 204.56945 206.66884 208.52224
 210.15963 211.31603 211.55642 211.79581 211.74421 211.46060 211.10500 210.74639
 210.37479 210.09618 209.91558 209.79097 209.73037 210.07276 210.47016 210.87055
 211.67495 212.86434 214.12574 215.92013 217.85952 219.91392 222.02031 224.11471
 226.18610 228.28150 230.38989 232.50729 234.64768 236.83108 239.09847 241.47987
 244.11226 246.37466 248.38805 250.16445 251.59284 252.72723 253.56063 253.88802
 253.93642 253.72181 253.09321 252.05260 250.67000 248.84239 246.76279 244.60718
 242.40958 240.22497 238.05637 235.90676 233.77816 231.65655 229.69394 227.86234
 226.15673 224.64013 223.28152 222.06492 220.95831 219.92971 219.04510 218.19750
 217.45089 216.64229 215.75168 215.12708 214.58847 213.66409 211.53497 210.60194
 210.82695 211.39508 212.62408 214.94604 218.43100 223.10495 228.99628 233.96725
 237.86940 242.06386 246.34215 250.53131 254.48897 258.05127 261.05142 263.67847
 266.18716 268.63760 270.87637 273.00140 274.97656 276.71930 278.29272 279.79095
 281.29263 282.92685 284.55273 286.24866 287.72745 289.03580 290.22946 291.31085
 292.28342 293.14951 293.90613 294.87033
 366.78100 356.34860 345.79420 334.67380 323.09041 311.29801 299.18161 286.99821
 274.72381 262.63441 250.65701 239.97162 230.10722 221.22482 213.42042 206.43602
 200.28362 195.23522 191.83083 189.88643 188.93703 189.01463 189.86323 191.18483
 192.92343 195.03204 197.30864 199.68124 202.13984 204.63344 206.73504 208.59064
 210.23025 211.38885 211.63145 211.87305 211.82365 211.54225 211.18885 210.83246
 210.46306 210.18666 210.00826 209.88586 209.82746 210.17206 210.57167 210.97427
 211.78087 212.97247 214.23607 216.03267 217.97427 220.03088 222.13948 224.23608
 226.30968 228.40728 230.51788 232.63748 234.78009 236.96569 239.23529 241.61889
 244.25349 246.51809 248.53369 250.31230 251.74290 252.87950 253.71510 254.04470
 254.09530 253.88290 253.25651 252.21811 250.83771 249.01231 246.93491 244.78151
 242.58611 240.40372 238.23732 236.08992 233.96352 231.84412 229.88372 228.05432
 226.35093 224.83653 223.48013 222.26573 221.16133 220.13493 219.25253 218.40714
 217.66274 216.85634 215.96794 215.34554 214.80914 213.78677 211.44608 210.60255
 210.94853 211.45404 212.70894 215.00377 218.41212 223.03722 228.87344 233.84149
 237.72234 241.90515 246.16876 250.34627 254.28760 257.83124 260.70691 263.34238
 266.06683 268.45401 270.73804 272.88153 274.89041 276.69846 278.34769 279.93253
 281.46841 282.93521 284.45551 285.85126 287.15335 288.35959 289.46011 290.45709
 291.35379 292.15228 292.84985 293.73880
 366.78100 356.34790 345.79280 334.67169 323.08759 311.29449 299.17739 286.99329
 274.71818 262.62808 250.64998 239.96388 230.09878 221.21567 213.41057 206.42547
 200.27237 195.22327 191.81816 189.87306 188.92296 188.99986 189.84776 191.16865
 192.90655 195.01445 197.29035 199.66225 202.12014 204.61304 206.71394 208.56884
 210.20774 211.36563 211.60753 211.84843 211.79833 211.51623 211.16212 210.80502
 210.43492 210.15782 209.97872 209.85561 209.79651 210.14041 210.53931 210.94121
 211.74710 212.93800 214.20090 215.99680 217.93770 219.99359 222.10149 224.19739
 226.27029 228.36719 230.47708 232.59598 234.73788 236.92278 239.19168 241.57457
 244.20847 246.47237 248.48727 250.26517 251.69506 252.83096 253.66586 253.99476
 254.04466 253.83155 253.20445 252.16535 250.78425 248.95815 246.88004 244.72594
 242.52984 240.34674 238.17964 236.03153 233.90443 231.78433 229.82323 227.99313
 226.28902 224.77392 223.41682 222.20172 221.09662 220.06951 219.18641 218.34031
 217.59521 216.78811 215.89900 215.27590 214.73880 213.78006 211.55728 210.56503
 210.96065 211.51620 212.78766 215.09138 218.41408 222.97945 228.80458 233.76688
 237.65073 241.84099 246.11015 250.30151 254.27304 257.83170 260.64899 263.14993
 266.03711 268.54681 270.75604 272.82849 274.75470 276.50800 278.09552 279.71631
 281.28085 282.74368 284.26160 285.64835 286.92700 288.07919 289.13037 290.08267
 290.93918 291.70187 292.36816 293.21729
 366.78100 356.34591 345.78882 334.66572 323.07963 311.28454 299.16545 286.97935
 274.70226 262.61017 250.63008 239.94199 230.07489 221.18980 213.38271 206.39562
 200.24052 195.18943 191.78234 189.83525 188.88316 188.95806 189.80397 191.12288
 192.85879 194.96469 197.23860 199.60851 202.06442 204.55533 206.65423 208.50714
 210.14405 211.29996 211.53987 211.77877 211.72668 211.44259 211.08650 210.72740
 210.35531 210.07622 209.89513 209.77004 209.70894 210.05085 210.44776 210.84767
 211.65157 212.84048 214.10139 215.89530 217.83421 219.88811 221.99402 224.08793
 226.15884 228.25374 230.36165 232.47856 234.61847 236.80138 239.06828 241.44919
 244.08110 246.34301 248.35591 250.13182 251.55973 252.69364 253.52655 253.85345
 253.90136 253.68627 253.05718 252.01608 250.63299 248.80490 246.72481 244.56872
 242.37062 240.18553 238.01644 235.86635 233.73725 231.61516 229.65207 227.81998
 226.11389 224.59679 223.23770 222.02061 220.91352 219.88443 218.99933 218.15124
 217.40415 216.59506 215.70396 215.07887 214.53978 213.72993 211.77138 210.50465
 210.81581 211.64124 213.02707 215.15465 218.30244 222.91078 228.83168 233.79546
 237.69601 241.90088 246.18082 250.38673 254.38548 257.95123 260.81396 263.37036
 266.00882 268.46817 270.70920 272.83850 274.77307 276.45334 277.94128 279.49106
 280.94232 282.37067 284.06348 285.67368 287.06717 288.30005 289.42487 290.44385
 291.36035 292.17648 292.88943 293.79800
 366.78100 356.34363 345.78425 334.65888 323.07050 311.27313 299.15176 286.96338
 274.68401 262.58963 250.60726 239.91689 230.04751 221.16014 213.35076 206.36139
 200.20402 195.15064 191.74127 189.79189 188.83752 188.91015 189.75377 191.07040
 192.80402 194.90765 197.17928 199.54690 202.00053 204.48915 206.58578 208.43641
 210.07103 211.22466 211.46228 211.69891 211.64454 211.35816 210.99979 210.63841
 210.26404 209.98267 209.79929 209.67192 209.60854 209.94817 210.34280 210.74042
 211.54205 212.72867 213.98730 215.77893 217.71555 219.76718 221.87080 223.96243
 226.03106 228.12368 230.22931 232.34393 234.48156 236.66219 238.92681 241.30544
 243.93506 246.19469 248.20532 249.97894 251.40457 252.53619 253.36682 253.69145
 253.73707 253.51970 252.88832 251.84495 250.45958 248.62920 246.54683 244.38845
 242.18808 240.00071 237.82933 235.67696 233.54558 231.42121 229.45584 227.62146
 225.91309 224.39371 223.03234 221.81297 220.70359 219.67222 218.78484 217.93447
 217.18510 216.37372 215.48035 214.85297 214.31160 213.66319 211.98355 210.61081
 210.70703 211.57646 212.96175 215.08762 218.26035 222.79535 228.81392 233.83327
 237.75487 241.98589 246.28406 250.52385 254.58115 258.23642 261.08069 263.61871
 266.13858 268.51190 270.70755 272.76270 274.74057 276.36212 277.78421 279.67044
 281.00909 283.09418 284.89847 286.48276 287.85385 289.06689 290.17361 291.17624
 292.07797 292.88098 293.58246 294.47644
 366.78100 356.34402 345.78505 334.66007 323.07209 311.27512 299.15414 286.96617
 274.68719 262.59321 250.61124 239.92126 230.05228 221.16531 213.35633 206.36735
 200.21038 195.15740 191.74843 189.79945 188.84547 188.91850 189.76252 191.07954
 192.81357 194.91759 197.18961 199.55764 202.01166 204.50069 206.59771 208.44873
 210.08376 211.23778 211.47580 211.71283 211.65885 211.37287 211.01490 210.65392
 210.27995 209.99897 209.81599 209.68902 209.62604 209.96606 210.36109 210.75911
 211.56113 212.74816 214.00718 215.79921 217.73623 219.78825 221.89228 223.98430
 226.05332 228.14635 230.25237 232.36739 234.50542 236.68644 238.95147 241.33049
 243.96051 246.22054 248.23156 250.00558 251.43161 252.56363 253.39465 253.71968
 253.76570 253.54873 252.91775 251.87477 250.48980 248.65982 246.57784 244.41987
 242.21989 240.03291 237.86194 235.70996 233.57899 231.45501 229.49003 227.65606
 225.94808 224.42910 223.06813 221.84915 220.74018 219.70920 218.82222 217.97225
 217.22327 216.41229 215.51932 214.89234 214.35136 213.69244 212.02853 210.84389
 210.82138 211.56062 212.86789 214.87758 218.11440 222.69952 228.69637 233.71973
 237.63188 241.87022 246.18057 250.45972 254.58148 258.20227 261.09933 263.67963
 266.24899 268.64661 270.81644 272.92178 274.87167 276.43076 278.07233 279.48563
 281.91547 284.13571 286.05695 287.74396 289.20392 290.49557 291.67404 292.74167
 293.70184 294.55692 295.30386 296.25580
 366.78100 356.34667 345.79034 334.66801 323.08268 311.28835 299.17002 286.98469
 274.70835 262.61702 250.63769 239.95036 230.08403 221.19970 213.39337 206.40704
 200.25271 195.20238 191.79605 189.84972 188.89839 188.97406 189.82073 191.14040
 192.87706 194.98373 197.25840 199.62907 202.08574 204.57741 206.67708 208.53075
 210.16842 211.32509 211.56576 211.80543 211.75410 211.47077 211.11544 210.75711
 210.38577 210.10744 209.92711 209.80278 209.74245 210.08512 210.48279 210.88346
 211.68813 212.87780 214.13947 215.93414 217.87381 219.92848 222.03515 224.12981
 226.20148 228.29715 230.40582 232.52349 234.66416 236.84783 239.11550 241.49717
 244.12984 246.39251 248.40618 250.18285 251.61152 252.74619 253.57986 253.90752
 253.95619 253.74186 253.11353 252.07320 250.69087 248.86354 246.78421 244.62888
 242.43155 240.24722 238.07889 235.92956 233.80123 231.67990 229.71757 227.88623
 226.18090 224.66457 223.30624 222.08991 220.98358 219.95525 219.07092 218.22359
 217.47726 216.66893 215.77860 215.15427 214.61594 213.81386 211.91309 210.90710
 211.09972 211.83083 213.00060 214.85107 217.99168 222.57312 228.52171 233.50949
 237.39307 241.60138 245.90260 250.17932 254.25696 257.83682 260.79074 263.42059
 266.04156 268.59235 270.92377 273.12982 275.17563 276.90900 278.09933 279.97424
 282.10526 284.32916 286.32144 288.07083 289.58478 290.92422 292.14627 293.25336
 294.24905 295.13574 295.91031 296.89743
 366.78100 356.34783 345.79265 334.67148 323.08730 311.29413 299.17696 286.99278
 274.71761 262.62743 250.64926 239.96309 230.09791 221.21474 213.40956 206.42439
 200.27122 195.22204 191.81687 189.87169 188.92152 188.99835 189.84617 191.16700
 192.90482 195.01265 197.28848 199.66030 202.11813 204.61095 206.71178 208.56661
 210.20543 211.36326 211.60508 211.84591 211.79574 211.51356 211.15939 210.80221
 210.43204 210.15487 209.97569 209.85252 209.79334 210.13717 210.53600 210.93782
 211.74365 212.93447 214.19730 215.99312 217.93395 219.98978 222.09760 224.19343
 226.26625 228.36308 230.47291 232.59173 234.73356 236.91838 239.18721 241.57004
 244.20386 246.46769 248.48251 250.26034 251.69017 252.82599 253.66082 253.98964
 254.03947 253.82630 253.19912 252.15995 250.77877 248.95260 246.87443 244.72025
 242.52408 240.34090 238.17373 236.02556 233.89838 231.77821 229.81703 227.98686
 226.28269 224.76751 223.41034 222.19516 221.08999 220.06282 219.17964 218.33347
 217.58829 216.78112 215.89195 215.26877 214.73160 213.88113 211.88797 210.86752
 211.09218 211.85327 213.20319 215.07524 218.05040 222.64798 228.52148 233.46486
 237.32977 241.52890 245.80351 250.03255 254.04993 257.54547 260.45135 262.98331
 265.91339 268.46164 270.76224 272.91193 274.92999 276.79010 278.40472 279.90906
 281.91833 283.76852 285.47253 287.01160 288.34348 289.52188 290.59698 291.57095
 292.44693 293.22702 293.90845 294.77689
 366.78100 356.34624 345.78948 334.66673 323.08097 311.28621 299.16745 286.98170
 274.70494 262.61318 250.63342 239.94566 230.07891 221.19415 213.38739 206.40063
 200.24588 195.19512 191.78836 189.84160 188.88985 188.96509 189.81133 191.13057
 192.86681 194.97306 197.24730 199.61754 202.07378 204.56503 206.66427 208.51751
 210.15475 211.31099 211.55124 211.79048 211.73872 211.45496 211.09921 210.74045
 210.36869 210.08993 209.90918 209.78442 209.72366 210.06590 210.46314 210.86339
 211.66763 212.85687 214.11811 215.91236 217.85160 219.90584 222.01208 224.10632
 226.17757 228.27281 230.38105 232.49829 234.63854 236.82178 239.08902 241.47026
 244.10251 246.36475 248.37799 250.15423 251.58247 252.71672 253.54996 253.87720
 253.92544 253.71069 253.08193 252.04117 250.65841 248.83065 246.75090 244.59514
 242.39738 240.21262 238.04387 235.89411 233.76535 231.64359 229.68084 227.84908
 226.14332 224.62656 223.26780 222.05105 220.94429 219.91553 219.03077 218.18302
 217.43626 216.62750 215.73674 215.11198 214.57323 213.83556 212.04820 210.90948
 210.95065 211.66229 213.19553 215.21918 218.16417 222.62282 228.56012 233.49321
 237.36369 241.56708 245.85222 250.10300 254.15237 257.68588 260.51263 262.89709
 265.68549 268.26755 270.64011 272.84869 274.78473 276.51468 278.02969 279.64651
 281.40039 283.31451 285.09747 286.66306 288.01791 289.21661 290.31027 291.30103
 292.19211 292.98563 293.67880 294.56223
 366.78100 356.34241 345.78182 334.65524 323.06565 311.26706 299.14447 286.95488
 274.67429 262.57871 250.59512 239.90353 230.03294 221.14435 213.33377 206.34318
 200.18459 195.13000 191.71941 189.76883 188.81324 188.88465 189.72706 191.04247
 192.77488 194.87730 197.14771 199.51412 201.96653 204.45394 206.54936 208.39877
 210.03218 211.18459 211.42100 211.65641 211.60083 211.31324 210.95365 210.59106
 210.21547 209.93289 209.74830 209.61971 209.55512 209.89353 210.28695 210.68336
 211.48377 212.66918 213.92659 215.71700 217.65242 219.70283 221.80524 223.89565
 225.96306 228.05448 230.15889 232.27230 234.40871 236.58812 238.85154 241.22895
 243.85736 246.11577 248.12518 249.89759 251.32201 252.45242 253.28183 253.60524
 253.64965 253.43107 252.79848 251.75389 250.36730 248.53571 246.45212 244.29254
 242.09095 239.90236 237.72977 235.57618 233.44360 231.31801 229.35142 227.51583
 225.80624 224.28566 222.92307 221.70248 220.59189 219.55930 218.67071 217.81913
 217.06854 216.25595 215.36136 214.73277 214.19019 213.69066 212.30988 210.96519
 210.76689 211.51553 213.08594 215.28661 218.34441 222.68608 228.55154 233.50362
 237.39336 241.62515 245.92912 250.24054 254.36662 257.95590 260.81268 263.31061
 265.82220 268.27142 270.56985 272.75366 274.69720 276.28439 278.01776 279.68924
 281.55362 283.53629 285.25198 286.75845 288.06219 289.21567 290.26804 291.22141
 292.07886 292.84241 293.50946 294.35953
 366.78100 356.34312 345.78324 334.65736 323.06848 311.27061 299.14873 286.95985
 274.67997 262.58509 250.60221 239.91133 230.04145 221.15358 213.34370 206.35382
 200.19594 195.14206 191.73218 189.78230 188.82742 188.89955 189.74267 191.05879
 192.79191 194.89503 197.16615 199.53327 201.98639 204.47452 206.57064 208.42076
 210.05488 211.20800 211.44512 211.68124 211.62636 211.33949 210.98061 210.61873
 210.24385 209.96197 209.77809 209.65021 209.58633 209.92546 210.31958 210.71670
 211.51782 212.70394 213.96206 215.75318 217.68930 219.74043 221.84355 223.93467
 226.00279 228.09491 230.20003 232.31415 234.45127 236.63140 238.89552 241.27364
 243.90276 246.16188 248.17200 249.94512 251.37024 252.50137 253.33149 253.65561
 253.70073 253.48285 252.85097 251.80709 250.42121 248.59034 246.50746 244.34858
 242.14770 239.95982 237.78794 235.63506 233.50318 231.37831 229.41243 227.57755
 225.86867 224.34879 222.98691 221.76703 220.65715 219.62528 218.73740 217.88652
 217.13664 216.32476 215.43088 214.80300 214.26112 213.74217 212.36296 211.12770
 210.81950 211.45132 212.90257 215.05452 218.21373 222.62700 228.45357 233.41125
 237.30722 241.57001 245.90225 250.24596 254.46387 258.19772 261.20029 263.68103
 266.14908 268.56830 270.83978 273.03687 274.88828 276.30884 278.13132 279.73013
 281.48337 282.98615 284.28656 285.42844 286.41660 287.29089 288.08853 288.81116
 289.46106 290.03983 290.54541 291.18973
 366.78100 356.34845 345.79391 334.67336 323.08981 311.29727 299.18072 286.99717
 274.72263 262.63308 250.65553 239.96999 230.10544 221.22289 213.41835 206.43380
 200.28125 195.23271 191.82816 189.88361 188.93407 189.01152 189.85997 191.18143
 192.91988 195.02833 197.30478 199.67724 202.13569 204.62914 206.73060 208.58605
 210.22550 211.38396 211.62641 211.86786 211.81832 211.53677 211.18322 210.82668
 210.45713 210.18058 210.00204 209.87949 209.82094 210.16540 210.56485 210.96730
 211.77376 212.96521 214.22866 216.02512 217.96657 220.02302 222.13148 224.22793
 226.30138 228.39884 230.50929 232.62874 234.77120 236.95665 239.22610 241.60956
 244.24401 246.50846 248.52392 250.30237 251.73282 252.86928 253.70473 254.03418
 254.08464 253.87209 253.24554 252.20700 250.82645 249.00090 246.92335 244.76981
 242.57426 240.39171 238.22517 236.07762 233.95107 231.83153 229.87098 228.04143
 226.33789 224.82334 223.46679 222.25225 221.14770 220.12115 219.23861 218.39306
 217.64851 216.84197 215.95342 215.33087 214.79433 213.99457 212.13623 211.20029
 211.26683 211.89050 212.92329 214.82922 217.94412 222.44139 228.24496 233.16751
 237.03743 241.26167 245.61397 249.99944 254.16298 257.74731 260.72012 263.42523
 266.10486 268.74963 271.27994 273.58121 275.52826 277.12250 278.43134 280.28143
 282.52499 284.79047 286.75085 288.47220 289.96188 291.27991 292.48236 293.57172
 294.55148 295.42395 296.18613 297.15744
 366.78100 356.34815 345.79329 334.67244 323.08859 311.29573 299.17888 286.99503
 274.72017 262.63032 250.65247 239.96661 230.10176 221.21891 213.41405 206.42920
 200.27635 195.22749 191.82264 189.87779 188.92793 189.00508 189.85323 191.17437
 192.91252 195.02067 197.29681 199.66896 202.12711 204.62025 206.72140 208.57655
 210.21569 211.37384 211.61599 211.85714 211.80728 211.52543 211.17158 210.81472
 210.44487 210.16802 209.98916 209.86631 209.80746 210.15160 210.55075 210.95290
 211.75904 212.95019 214.21334 216.00948 217.95063 220.00678 222.11492 224.21107
 226.28422 228.38136 230.49151 232.61066 234.75280 236.93795 239.20710 241.59024
 244.22439 246.48854 248.50368 250.28183 251.71198 252.84812 253.68327 254.01242
 254.06256 253.84971 253.22286 252.18400 250.80315 248.97730 246.89944 244.74559
 242.54974 240.36688 238.20003 236.05218 233.92532 231.80547 229.84462 228.01476
 226.31091 224.79606 223.43920 222.22435 221.11950 220.09264 219.20979 218.36394
 217.61908 216.81223 215.92338 215.30053 214.76367 213.97464 212.12131 211.01672
 211.01331 211.92508 213.22560 215.07159 218.08698 222.52527 228.19664 233.12129
 236.98186 241.18388 245.48909 249.74974 253.76166 257.25296 260.20505 262.89188
 265.54730 268.17889 270.70224 273.06271 275.21255 277.16684 278.97903 280.68524
 282.26855 283.74258 285.17001 286.52124 287.73123 288.87347 289.93591 290.89841
 291.76407 292.53494 293.20837 294.06656
 366.78100 356.34721 345.79142 334.66963 323.08484 311.29105 299.17326 286.98847
 274.71268 262.62189 250.64310 239.95631 230.09052 221.20673 213.40094 206.41515
 200.26136 195.21157 191.80578 189.85999 188.90920 188.98541 189.83262 191.15283
 192.89004 194.99725 197.27246 199.64367 202.10088 204.59309 206.69329 208.54750
 210.18571 211.34292 211.58413 211.82434 211.77355 211.49076 211.13597 210.77818
 210.40739 210.12960 209.94981 209.82602 209.76623 210.10944 210.50765 210.90886
 211.71407 212.90428 214.16649 215.96170 217.90191 219.95712 222.06433 224.15954
 226.23175 228.32796 230.43717 232.55538 234.69659 236.88080 239.14901 241.53122
 244.16443 246.42764 248.44185 250.21906 251.64827 252.78348 253.61769 253.94590
 253.99511 253.78132 253.15353 252.11374 250.73195 248.90516 246.82637 244.67158
 242.47479 240.29100 238.12321 235.97442 233.84663 231.72584 229.76405 227.93326
 226.22846 224.71267 223.35488 222.13909 221.03330 220.00551 219.12172 218.27493
 217.52914 216.72135 215.83156 215.20777 214.66998 213.91255 212.12328 211.21359
 210.96628 211.73940 213.23599 215.04823 217.97580 222.40329 228.29413 233.07841
 237.02873 241.21983 245.55768 249.82097 253.88716 257.43195 260.34937 262.93054
 265.50082 268.06836 270.51990 272.80090 274.90692 276.84824 278.67926 280.40179
 282.00311 283.42651 284.66855 285.68298 286.56143 287.48160 288.16916 288.70267
 289.10385 289.40262 289.61673 289.94131
 366.78100 356.34604 345.78908 334.66612 323.08015 311.28519 299.16623 286.98027
 274.70331 262.61135 250.63139 239.94343 230.07646 221.19150 213.38454 206.39758
 200.24262 195.19166 191.78470 189.83774 188.88577 188.96081 189.80685 191.12589
 192.86193 194.96797 197.24201 199.61205 202.06808 204.55912 206.65816 208.51120
 210.14824 211.30428 211.54432 211.78336 211.73139 211.44743 211.09147 210.73251
 210.36055 210.08159 209.90063 209.77566 209.71470 210.05674 210.45378 210.85382
 211.65786 212.84690 214.10794 215.90197 217.84101 219.89505 222.00109 224.09513
 226.16617 228.26121 230.36925 232.48628 234.62632 236.80936 239.07640 241.45744
 244.08948 246.35152 248.36456 250.14059 251.56863 252.70267 253.53571 253.86275
 253.91079 253.69583 253.06687 252.02590 250.64294 248.81498 246.73502 244.57906
 242.38110 240.19614 238.02717 235.87721 233.74825 231.62629 229.66333 227.83137
 226.12541 224.60845 223.24948 222.03252 220.92556 219.89660 219.01164 218.16368
 217.41672 216.60776 215.71679 215.09183 214.55287 213.87268 212.26562 211.23717
 210.97192 211.71927 213.14352 214.96123 217.87967 222.34898 228.26735 233.05807
 236.97910 241.22311 245.57544 249.86623 253.99168 257.55975 260.43790 262.94537
 265.49918 268.07544 270.49146 272.72507 274.77002 276.66837 278.46933 280.18564
 281.82068 283.26837 284.58182 285.55435 286.27747 287.12994 287.90466 288.50876
 288.96780 289.32117 289.55362 290.00610
 366.78100 356.34499 345.78699 334.66298 323.07598 311.27997 299.15997 286.97296
 274.69496 262.60195 250.62094 239.93194 230.06393 221.17793 213.36992 206.38192
 200.22591 195.17390 191.76590 189.81789 188.86489 188.93888 189.78388 191.10187
 192.83687 194.94186 197.21485 199.58385 202.03884 204.52884 206.62683 208.47883
 210.11482 211.26982 211.50881 211.74680 211.69380 211.40879 211.05179 210.69178
 210.31878 210.03877 209.85677 209.73076 209.66875 210.00975 210.40574 210.80474
 211.60773 212.79573 214.05572 215.84871 217.78671 219.83970 221.94470 224.03769
 226.10769 228.20168 230.30868 232.42467 234.56366 236.74566 239.01165 241.39165
 244.02264 246.28364 248.29563 250.07063 251.49762 252.63061 253.46261 253.78860
 253.83560 253.61959 252.98959 251.94758 250.56357 248.73457 246.65356 244.49656
 242.29755 240.11155 237.94154 235.79054 233.66053 231.53752 229.57352 227.74051
 226.03351 224.51550 223.15550 221.93749 220.82949 219.79948 218.91347 218.06447
 217.31646 216.50646 215.61445 214.98845 214.44844 213.85507 212.44716 211.19582
 211.00136 211.57979 213.00140 215.02777 218.03258 222.44035 228.22987 233.07780
 236.94653 241.21361 245.56715 249.86758 253.98265 257.53848 260.41388 262.93079
 265.48776 268.04047 270.42517 272.63483 274.66248 276.53082 278.32224 280.06198
 281.69064 283.15756 284.41290 285.33868 286.04337 286.86423 287.61554 288.36850
 289.15479 289.93576 290.61966 291.49118
 366.78100 356.34324 345.78347 334.65771 323.06894 311.27118 299.14941 286.96065
 274.68089 262.58612 250.60336 239.91259 230.04283 221.15506 213.34530 206.35554
 200.19777 195.14401 191.73424 189.78448 188.82971 188.90195 189.74518 191.06142
 192.79466 194.89789 197.16913 199.53636 201.98960 204.47783 206.57407 208.42431
 210.05854 211.21178 211.44901 211.68525 211.63048 211.34372 210.98496 210.62319
 210.24843 209.96666 209.78290 209.65513 209.59137 209.93061 210.32484 210.72208
 211.52331 212.70955 213.96778 215.75902 217.69526 219.74649 221.84973 223.94096
 226.00920 228.10143 230.20667 232.32090 234.45814 236.63838 238.90261 241.28085
 243.91008 246.16932 248.17955 249.95279 251.37803 252.50926 253.33950 253.66373
 253.70897 253.49120 252.85944 251.81568 250.42991 248.59915 246.51638 244.35762
 242.15685 239.96909 237.79733 235.64456 233.51280 231.38803 229.42227 227.58750
 225.87874 224.35898 222.99721 221.77745 220.66768 219.63592 218.74815 217.89739
 217.14763 216.33586 215.44210 214.81433 214.27257 213.81429 212.66991 211.19666
 210.84012 211.35956 213.02620 215.21893 218.26868 222.57938 228.20264 233.04404
 236.89774 241.15015 245.49832 249.82959 253.92825 257.43683 260.30487 262.87399
 265.52286 268.12515 270.50272 272.63852 274.59280 276.41171 278.18069 279.90906
 281.55234 282.95029 284.05804 284.97763 286.13162 287.26068 288.37262 289.37997
 290.28595 291.09274 291.79755 292.69571
 366.78100 356.34168 345.78036 334.65305 323.06273 311.26341 299.14009 286.94977
 274.66845 262.57214 250.58782 239.89550 230.02418 221.13486 213.32355 206.33223
 200.17291 195.11759 191.70627 189.75496 188.79864 188.86932 189.71100 191.02568
 192.75736 194.85905 197.12873 199.49441 201.94609 204.43277 206.52746 208.37614
 210.00882 211.16050 211.39618 211.63087 211.57455 211.28623 210.92591 210.56259
 210.18627 209.90296 209.71764 209.58832 209.52300 209.86068 210.25337 210.64905
 211.44873 212.63341 213.89009 215.67978 217.61446 219.66414 221.76582 223.85550
 225.92218 228.01287 230.11655 232.22923 234.36491 236.54359 238.80628 241.18296
 243.81064 246.06832 248.07700 249.84869 251.27237 252.40205 253.23073 253.55341
 253.59709 253.37778 252.74446 251.69914 250.31182 248.47950 246.39519 244.23487
 242.03255 239.84323 237.66991 235.51560 233.38228 231.25596 229.28864 227.45232
 225.74200 224.22069 222.85737 221.63605 220.52473 219.49141 218.60210 217.74978
 216.99846 216.18514 215.28982 214.66051 214.11719 213.77960 212.83574 211.33588
 210.80327 211.48108 213.13879 215.30800 218.35922 222.62244 228.19722 232.99274
 236.83707 241.09323 245.45520 249.79243 253.91632 257.44232 260.33423 262.92093
 265.59741 268.24258 270.72455 272.90152 274.75055 276.43198 278.05075 279.66440
 281.10574 282.33496 283.89240 285.42514 286.78143 287.98138 289.07617 290.06796
 290.95999 291.75433 292.44824 293.33258
 366.78100 356.34369 345.78437 334.65906 323.07075 311.27344 299.15212 286.96381
 274.68450 262.59018 250.60787 239.91756 230.04824 221.16093 213.35162 206.36231
 200.20499 195.15168 191.74237 189.79305 188.83874 188.91143 189.75511 191.07180
 192.80549 194.90918 197.18086 199.54855 202.00224 204.49092 206.58761 208.43830
 210.07299 211.22667 211.46436 211.70105 211.64673 211.36042 211.00211 210.64079
 210.26648 209.98517 209.80186 209.67454 209.61123 209.95092 210.34560 210.74329
 211.54498 212.73166 213.99035 215.78204 217.71873 219.77041 221.87410 223.96579
 226.03447 228.12716 230.23285 232.34753 234.48522 236.66591 238.93060 241.30928
 243.93897 246.19866 248.20934 249.98303 251.40872 252.54041 253.37109 253.69578
 253.74147 253.52415 252.89284 251.84953 250.46421 248.63390 246.55159 244.39328
 242.19296 240.00565 237.83434 235.68202 233.55071 231.42640 229.46108 227.62677
 225.91846 224.39915 223.03783 221.81852 220.70921 219.67789 218.79058 217.94027
 217.19096 216.37964 215.48633 214.85902 214.31770 213.90167 212.81773 211.60327
 210.89743 211.34180 212.87498 215.10959 218.26053 222.49083 228.15451 232.99066
 236.85934 241.12483 245.50977 249.87228 254.00447 257.60678 260.52960 263.13931
 265.80222 268.43863 270.81525 272.98383 274.85580 276.44864 277.99756 279.48032
 281.15857 283.17767 285.08710 286.76373 288.21469 289.49844 290.66965 291.73068
 292.68497 293.53476 294.27713 295.22321
 366.78100 356.35067 345.79833 334.68000 323.09866 311.30833 299.19399 287.01266
 274.74032 262.65299 250.67765 239.99432 230.13198 221.25165 213.44931 206.46698
 200.31664 195.27031 191.86797 189.92564 188.97830 189.05797 189.90863 191.23230
 192.97296 195.08363 197.36229 199.73696 202.19762 204.69329 206.79695 208.65462
 210.29628 211.45695 211.70161 211.94528 211.89794 211.61861 211.26727 210.91294
 210.54560 210.27127 210.09493 209.97460 209.91826 210.26493 210.66659 211.07126
 211.87992 213.07359 214.33925 216.13792 218.08158 220.14025 222.25091 224.34958
 226.42524 228.52491 230.63757 232.75924 234.90390 237.09157 239.36323 241.74890
 244.38556 246.65223 248.66989 250.45056 251.88322 253.02189 253.85955 254.19122
 254.24388 254.03355 253.40921 252.37288 250.99454 249.17121 247.09587 244.94454
 242.75120 240.57087 238.40653 236.26120 234.13686 232.01953 230.06119 228.23386
 226.53252 225.02019 223.66585 222.45352 221.35118 220.32685 219.44651 218.60318
 217.86084 217.05651 216.17017 215.54984 215.01550 214.25215 212.55476 211.84012
 211.29555 211.36423 212.59419 214.78452 217.98474 222.33028 227.97025 232.86874
 236.77618 241.08011 245.49770 249.88429 254.06285 257.72522 260.70932 263.36710
 266.02679 268.67419 271.06863 273.25168 275.07443 276.62155 278.18604 279.72479
 281.83997 284.03918 286.01047 287.74139 289.23938 290.56470 291.77383 292.86923
 293.85443 294.73178 295.49817 296.47488
 366.78100 356.35569 345.80838 334.69507 323.11876 311.33345 299.22414 287.04783
 274.78052 262.69821 250.72791 240.04960 230.19229 221.31698 213.51967 206.54236
 200.39705 195.35574 191.95843 190.02112 189.07881 189.16350 190.01919 191.34788
 193.09357 195.20926 197.49295 199.87264 202.33833 204.83902 206.94772 208.81041
 210.45710 211.62279 211.87248 212.12117 212.07886 211.80455 211.45824 211.10893
 210.74662 210.47731 210.30600 210.19069 210.13938 210.49107 210.89776 211.30745
 212.12114 213.31984 214.59053 216.39422 218.34291 220.40660 222.52229 224.62598
 226.70667 228.81136 230.92905 233.05574 235.20543 237.39812 239.67481 242.06550
 244.70719 246.97888 249.00157 250.78726 252.22495 253.36865 254.21134 254.54803
 254.60572 254.40041 253.78110 252.74979 251.37648 249.55817 247.48786 245.34155
 243.15324 240.97793 238.81862 236.67831 234.55900 232.44669 230.49338 228.67107
 226.97477 225.46746 224.11815 222.91084 221.81353 220.79422 219.91891 219.08060
 218.34329 217.54398 216.66267 216.04736 215.51805 214.53636 212.33412 211.67572
 211.79878 211.89000 212.76808 214.57707 217.66914 222.14343 227.63136 232.61823
 236.52147 240.83594 245.26654 249.64761 253.76740 257.36551 260.41995 263.21112
 265.97665 268.71417 271.23325 273.45755 275.34271 276.95343 278.56827 280.21170
 282.13068 283.98590 285.76318 287.35699 288.73630 289.95663 291.07001 292.07861
 292.98578 293.79361 294.49930 295.39862
 366.78100 356.35237 345.80173 334.68510 323.10547 311.31683 299.20420 287.02457
 274.75393 262.66830 250.69467 240.01303 230.15240 221.27376 213.47313 206.49250
 200.34386 195.29923 191.89860 189.95796 189.01233 189.09370 189.94606 191.27143
 193.01380 195.12616 197.40653 199.78290 202.24526 204.74263 206.84800 208.70736
 210.35073 211.51310 211.75946 212.00483 211.95920 211.68156 211.33193 210.97929
 210.61366 210.34103 210.16639 210.04776 209.99313 210.34149 210.74486 211.15123
 211.96159 213.15696 214.42433 216.22469 218.17006 220.23043 222.34279 224.44316
 226.52053 228.62189 230.73626 232.85963 235.00599 237.19536 239.46873 241.85609
 244.49446 246.76282 248.78219 250.56456 251.99892 253.13929 253.97866 254.31202
 254.36639 254.15776 253.53512 252.50049 251.12386 249.30222 247.22859 245.07896
 242.88732 240.70869 238.54606 236.40242 234.27979 232.16416 230.20752 228.38189
 226.68226 225.17162 223.81899 222.60835 221.50772 220.48509 219.60645 218.76482
 218.02419 217.22155 216.33692 215.71829 215.18565 214.40913 212.55064 211.26840
 211.55890 212.32358 213.31227 214.95039 217.83324 222.10857 227.48451 232.42172
 236.29700 240.60712 245.02667 249.35838 253.37718 256.88974 259.97641 262.93652
 265.85284 268.64896 271.20532 273.44165 275.35953 277.06473 278.76865 280.53012
 282.27478 283.95297 285.46182 286.83237 288.09567 289.23294 290.27051 291.21045
 292.05585 292.80869 293.46634 294.30444
 366.78100 356.34758 345.79216 334.67074 323.08633 311.29291 299.17549 286.99107
 274.71565 262.62523 250.64681 239.96040 230.09498 221.21156 213.40614 206.42072
 200.26730 195.21788 191.81246 189.86705 188.91663 188.99321 189.84079 191.16137
 192.89895 195.00653 197.28212 199.65370 202.11128 204.60386 206.70444 208.55902
 210.19760 211.35519 211.59677 211.83735 211.78693 211.50451 211.15009 210.79267
 210.42226 210.14484 209.96542 209.84200 209.78258 210.12616 210.52474 210.92632
 211.73191 212.92249 214.18507 215.98065 217.92123 219.97681 222.08439 224.17998
 226.25256 228.34914 230.45872 232.57730 234.71888 236.90346 239.17205 241.55463
 244.18821 246.45179 248.46637 250.24395 251.67353 252.80912 253.64370 253.97228
 254.02186 253.80844 253.18102 252.14160 250.76018 248.93377 246.85535 244.70093
 242.50451 240.32109 238.15367 236.00525 233.87784 231.75742 229.79600 227.96558
 226.26116 224.74574 223.38832 222.17291 221.06749 220.04007 219.15665 218.31023
 217.56481 216.75739 215.86798 215.24456 214.70714 214.14890 212.81548 211.53246
 210.88628 211.93645 213.44647 215.18881 217.99286 222.15186 227.61131 232.36626
 236.33148 240.57822 244.97887 249.24954 253.19025 256.66321 259.75470 262.70331
 265.61560 268.42728 271.03455 273.35544 275.36694 277.16672 278.87338 280.58212
 282.21454 283.66415 284.92358 286.01175 286.91492 287.78049 288.69769 289.58847
 290.41284 291.14694 291.78824 292.60547
 366.78100 356.34824 345.79347 334.67271 323.08895 311.29618 299.17942 286.99566
 274.72090 262.63113 250.65337 239.96761 230.10284 221.22008 213.41532 206.43055
 200.27779 195.22903 191.82426 189.87950 188.92974 189.00697 189.85521 191.17645
 192.91469 195.02292 197.29916 199.67140 202.12963 204.62287 206.72411 208.57934
 210.21858 211.37682 211.61905 211.86029 211.81053 211.52877 211.17500 210.81824
 210.44848 210.17171 209.99295 209.87019 209.81142 210.15566 210.55490 210.95713
 211.76337 212.95461 214.21784 216.01408 217.95532 220.01156 222.11979 224.21603
 226.28927 228.38650 230.49674 232.61598 234.75821 236.94345 239.21269 241.59592
 244.23016 246.49440 248.50964 250.28787 251.71811 252.85435 253.68958 254.01882
 254.06906 253.85629 253.22953 252.19077 250.81000 248.98424 246.90648 244.75271
 242.55695 240.37419 238.20743 236.05966 233.93290 231.81314 229.85237 228.02261
 226.31885 224.80408 223.44732 222.23256 221.12779 220.10103 219.21827 218.37251
 217.62774 216.82098 215.93222 215.30945 214.77269 214.19276 212.82042 211.76978
 210.89282 211.48386 213.12289 215.12146 218.02657 222.21773 227.68210 232.45718
 236.35538 240.64037 245.04469 249.34303 253.32303 256.80835 259.85248 262.69354
 265.49155 268.20160 270.73120 273.04730 275.11731 276.99863 278.78247 280.50540
 282.10571 283.51682 284.71869 285.72968 286.61884 287.60336 288.61383 289.55963
 290.41028 291.16779 291.82953 292.67282
 366.78100 356.35082 345.79863 334.68045 323.09927 311.30908 299.19490 287.01372
 274.74153 262.65435 250.67917 239.99598 230.13380 221.25362 213.45143 206.46925
 200.31907 195.27288 191.87070 189.92852 188.98133 189.06115 189.91197 191.23578
 192.97660 195.08742 197.36623 199.74105 202.20187 204.69768 206.80150 208.65932
 210.30113 211.46195 211.70677 211.95058 211.90340 211.62422 211.27303 210.91885
 210.55167 210.27748 210.10130 209.98112 209.92493 210.27175 210.67357 211.07838
 211.88720 213.08102 214.34684 216.14565 218.08947 220.14829 222.25910 224.35792
 226.43374 228.53355 230.64637 232.76819 234.91300 237.10082 239.37264 241.75845
 244.39527 246.66209 248.67990 250.46072 251.89354 253.03235 253.87017 254.20199
 254.25480 254.04462 253.42044 252.38425 251.00607 249.18289 247.10770 244.95652
 242.76334 240.58315 238.41897 236.27379 234.14960 232.03242 230.07424 228.24705
 226.54587 225.03369 223.67950 222.46732 221.36514 220.34095 219.46077 218.61759
 217.87540 217.07122 216.18504 215.56485 215.03067 214.36267 212.79311 211.75758
 211.19025 211.56477 213.06264 215.13370 218.06004 222.27513 227.70946 232.45200
 236.34158 240.65298 245.07674 249.41191 253.44135 256.95129 260.01331 262.84918
 265.60510 268.24823 270.71790 272.99698 275.07956 277.00958 278.83203 280.55038
 282.09351 283.39127 284.52341 285.92368 287.28510 288.48959 289.58853 290.58408
 291.47946 292.27682 292.97336 293.86102
 366.78100 356.35010 345.79721 334.67831 323.09642 311.30552 299.19062 287.00873
 274.73583 262.64793 250.67204 239.98814 230.12525 221.24435 213.44145 206.45856
 200.30766 195.26076 191.85787 189.91497 188.96708 189.04618 189.89628 191.21939
 192.95949 195.06960 197.34770 199.72180 202.18191 204.67701 206.78011 208.63722
 210.27832 211.43843 211.68253 211.92563 211.87774 211.59784 211.24594 210.89105
 210.52315 210.24826 210.07136 209.95046 209.89357 210.23967 210.64078 211.04488
 211.85298 213.04609 214.31119 216.10929 218.05240 220.11050 222.22061 224.31871
 226.39381 228.49292 230.60502 232.72612 234.87023 237.05733 239.32844 241.71354
 244.34964 246.61575 248.63285 250.41296 251.84506 252.98316 253.82027 254.15137
 254.20347 253.99258 253.36768 252.33079 250.95189 249.12799 247.05210 244.90020
 242.70630 240.52541 238.36051 236.21462 234.08972 231.97182 230.01293 228.18503
 226.48314 224.97024 223.61534 222.40245 221.29955 220.27465 219.39376 218.54986
 217.80697 217.00207 216.11517 215.49428 214.95938 214.34300 212.87120 211.72488
 211.19296 211.59959 213.07393 215.09029 217.99135 222.22986 227.65773 232.39484
 236.27579 240.58688 245.00919 249.34390 253.38075 256.90060 259.98019 262.87103
 265.69321 268.37915 270.85696 273.13638 275.21335 277.13303 278.94495 280.65015
 282.22107 283.58469 284.83734 286.21823 287.61728 288.93655 290.14017 291.23056
 292.21127 293.08456 293.84747 294.81973
 366.78100 356.34925 345.79549 334.67574 323.09298 311.30123 299.18548 287.00272
 274.72897 262.64022 250.66346 239.97871 230.11495 221.23320 213.42945 206.44569
 200.29394 195.24618 191.84243 189.89868 188.94992 189.02817 189.87741 191.19966
 192.93891 195.04815 197.32540 199.69865 202.15789 204.65214 206.75438 208.61063
 210.25088 211.41012 211.65337 211.89561 211.84686 211.56611 211.21335 210.85760
 210.48884 210.21309 210.03534 209.91358 209.85583 210.20108 210.60132 211.00457
 211.81181 213.00406 214.26831 216.06555 218.00780 220.06504 222.17429 224.27154
 226.34578 228.44403 230.55527 232.67552 234.81877 237.00501 239.27526 241.65951
 244.29475 246.56000 248.57624 250.35549 251.78674 252.92398 253.76023 254.09047
 254.14172 253.92997 253.30421 252.26646 250.88670 249.06195 246.98520 244.83244
 242.63769 240.45594 238.29018 236.14343 234.01767 231.89892 229.93917 228.11041
 226.40766 224.89390 223.53815 222.32440 221.22064 220.19489 219.31313 218.46838
 217.72463 216.91887 216.03112 215.40937 214.87361 214.30794 212.94527 211.71819
 211.11925 211.63345 213.13457 215.11000 217.97456 222.18840 227.60037 232.33470
 236.20181 240.50098 244.90987 249.21342 253.18942 256.64841 259.72498 262.65213
 265.54321 268.28470 270.79532 273.09561 275.18246 277.11371 278.93427 280.66577
 282.25613 283.63998 284.89124 286.25604 287.50690 288.71045 289.82074 290.82660
 291.73123 292.53683 293.24057 294.13742
 366.78100 356.34905 345.79510 334.67515 323.09220 311.30025 299.18430 287.00135
 274.72741 262.63846 250.66151 239.97656 230.11261 221.23066 213.42671 206.44276
 200.29081 195.24286 191.83891 189.89496 188.94601 189.02406 189.87311 191.19516
 192.93422 195.04327 197.32032 199.69337 202.15242 204.64647 206.74852 208.60457
 210.24462 211.40367 211.64672 211.88877 211.83982 211.55887 211.20592 210.84998
 210.48103 210.20508 210.02713 209.90518 209.84723 210.19228 210.59233 210.99538
 211.80243 212.99448 214.25853 216.05558 217.99763 220.05468 222.16374 224.26079
 226.33484 228.43289 230.54394 232.66399 234.80704 236.99309 239.26314 241.64719
 244.28224 246.54729 248.56334 250.34239 251.77344 252.91049 253.74655 254.07660
 254.12765 253.91570 253.28975 252.25180 250.87185 249.04690 246.96995 244.81700
 242.62205 240.44010 238.27415 236.12720 234.00125 231.88231 229.92236 228.09341
 226.39046 224.87651 223.52056 222.30661 221.20266 220.17671 219.29476 218.44981
 217.70586 216.89991 216.01196 215.39001 214.85406 214.31262 212.99901 211.64429
 211.05130 211.65715 213.19914 215.16110 218.00591 222.18138 227.58911 232.30415
 236.17235 240.46913 244.88293 249.17711 253.12804 256.55307 259.60400 262.53168
 265.42398 268.16568 270.67941 272.99280 275.09531 277.05051 278.89417 280.60748
 282.19174 283.58307 284.92917 286.28223 287.49689 288.61484 289.67746 290.64011
 291.50592 292.27695 292.95047 293.80881
 366.78100 356.34936 345.79571 334.67607 323.09342 311.30178 299.18613 287.00349
 274.72985 262.64120 250.66456 239.97991 230.11627 221.23463 213.43098 206.44734
 200.29569 195.24805 191.84440 189.90076 188.95212 189.03047 189.87983 191.20218
 192.94154 195.05090 197.32825 199.70161 202.16096 204.65532 206.75767 208.61403
 210.25439 211.41374 211.65710 211.89945 211.85081 211.57017 211.21752 210.86188
 210.49323 210.21759 210.03994 209.91830 209.86066 210.20601 210.60637 211.00972
 211.81708 213.00944 214.27379 216.07115 218.01350 220.07086 222.18021 224.27757
 226.35193 228.45028 230.56164 232.68199 234.82535 237.01171 239.28206 241.66642
 244.30177 246.56713 248.58348 250.36284 251.79420 252.93155 253.76791 254.09826
 254.14962 253.93798 253.31233 252.27469 250.89504 249.07040 246.99375 244.84111
 242.64647 240.46482 238.29918 236.15253 234.02689 231.90825 229.94860 228.11996
 226.41731 224.90367 223.54802 222.33438 221.23074 220.20509 219.32345 218.47880
 217.73516 216.92952 216.04187 215.42023 214.88458 214.33067 213.00320 211.65565
 211.11290 211.68317 213.17378 215.14279 217.97627 222.13602 227.57750 232.23975
 236.13025 240.42776 244.85518 249.14223 253.08533 256.52902 259.58444 262.50623
 265.37469 268.10309 270.62231 272.93661 275.04501 277.01035 278.84793 280.54013
 282.06586 283.42566 284.67673 285.94919 287.11823 288.15414 289.10770 290.00430
 290.82208 291.55035 292.18655 292.99731
 366.78100 356.35094 345.79888 334.68082 323.09976 311.30970 299.19564 287.01458
 274.74252 262.65546 250.68040 239.99734 230.13528 221.25522 213.45316 206.47110
 200.32104 195.27498 191.87292 189.93086 188.98380 189.06374 189.91468 191.23862
 192.97956 195.09050 197.36944 199.74438 202.20532 204.70126 206.80520 208.66314
 210.30507 211.46601 211.71095 211.95489 211.90783 211.62877 211.27771 210.92365
 210.55659 210.28253 210.10647 209.98641 209.93035 210.27729 210.67923 211.08417
 211.89311 213.08705 214.35299 216.15193 218.09587 220.15481 222.26575 224.36469
 226.44063 228.54057 230.65351 232.77545 234.92039 237.10833 239.38027 241.76621
 244.40315 246.67009 248.68803 250.46897 251.90191 253.04085 253.87879 254.21073
 254.26367 254.05361 253.42955 252.39349 251.01543 249.19237 247.11731 244.96625
 242.77319 240.59313 238.42907 236.28401 234.15995 232.04289 230.08483 228.25777
 226.55671 225.04465 223.69059 222.47853 221.37647 220.35241 219.47234 218.62928
 217.88722 217.08316 216.19710 215.57704 215.04298 214.41919 212.93730 211.70073
 211.20964 211.72516 213.14122 215.11389 217.94557 222.09694 227.52431 232.16135
 236.04631 240.36000 244.79852 249.08548 253.01741 256.45755 259.52585 262.46454
 265.33820 268.06223 270.57898 272.89609 275.01822 277.00308 278.86151 280.55688
 282.06903 283.39362 284.57791 285.70688 286.79749 287.83304 288.77786 289.66888
 290.48929 291.21988 291.85809 292.67145
 366.78100 356.35237 345.80175 334.68512 323.10549 311.31687 299.20424 287.02461
 274.75399 262.66836 250.69473 240.01311 230.15248 221.27385 213.47323 206.49260
 200.34397 195.29935 191.89872 189.95809 189.01247 189.09384 189.94621 191.27159
 193.01396 195.12634 197.40671 199.78308 202.24546 204.74283 206.84820 208.70758
 210.35095 211.51332 211.75970 212.00507 211.95944 211.68182 211.33219 210.97956
 210.61394 210.34131 210.16668 210.04806 209.99343 210.34180 210.74518 211.15155
 211.96192 213.15730 214.42467 216.22504 218.17042 220.23079 222.34316 224.44354
 226.52091 228.62228 230.73666 232.86003 235.00640 237.19578 239.46915 241.85652
 244.49490 246.76327 248.78264 250.56502 251.99939 253.13976 253.97914 254.31251
 254.36689 254.15826 253.53563 252.50101 251.12438 249.30275 247.22913 245.07950
 242.88787 240.70925 238.54662 236.40299 234.28037 232.16474 230.20811 228.38249
 226.68286 225.17223 223.81961 222.60898 221.50835 220.48573 219.60710 218.76547
 218.02485 217.22222 216.33759 215.71897 215.18634 214.49998 212.87848 211.73672
 211.24916 211.68419 213.12340 215.14491 217.98457 222.11371 227.51642 232.12314
 235.99411 240.31253 244.75751 249.04321 252.96486 256.39899 259.48035 262.44193
 265.32895 268.05203 270.55780 272.86758 275.00058 277.01239 278.88016 280.55356
 282.03821 283.33307 284.46979 285.56320 286.70438 287.74567 288.69119 289.57828
 290.39798 291.12793 291.76559 292.57822
 366.78100 356.35229 345.80159 334.68488 323.10518 311.31647 299.20376 287.02406
 274.75335 262.66765 250.69394 240.01223 230.15153 221.27282 213.47211 206.49141
 200.34270 195.29800 191.89729 189.95658 189.01088 189.09217 189.94447 191.26976
 193.01205 195.12435 197.40464 199.78094 202.24323 204.74052 206.84582 208.70511
 210.34840 211.51070 211.75699 212.00229 211.95658 211.67887 211.32917 210.97646
 210.61076 210.33805 210.16334 210.04464 209.98993 210.33823 210.74152 211.14781
 211.95811 213.15340 214.42070 216.22099 218.16628 220.22658 222.33887 224.43916
 226.51646 228.61775 230.73205 232.85534 235.00163 237.19093 239.46422 241.85152
 244.48981 246.75810 248.77740 250.55969 251.99399 253.13428 253.97357 254.30687
 254.36116 254.15246 253.52975 252.49504 251.11834 249.29663 247.22292 245.07322
 242.88151 240.70281 238.54010 236.39639 234.27369 232.15798 230.20128 228.37557
 226.67586 225.16516 223.81245 222.60175 221.50104 220.47833 219.59963 218.75792
 218.01721 217.21451 216.32980 215.71110 215.17839 214.49309 212.87440 211.74893
 211.34541 211.66116 213.10315 215.18230 218.01317 222.12173 227.54259 232.07826
 235.95576 240.26753 244.71750 248.99382 252.90262 256.33344 259.42032 262.40057
 265.29132 268.01401 270.50809 272.80695 274.94763 276.95978 278.82590 280.50351
 281.99188 283.29355 284.41208 285.41226 286.42261 287.49020 288.43063 289.23444
 289.99988 290.71002 291.33041 292.12103
 366.78100 356.35128 345.79957 334.68185 323.10113 311.31142 299.19770 287.01698
 274.74527 262.65855 250.68383 240.00112 230.13940 221.25969 213.45797 206.47625
 200.32654 195.28082 191.87910 189.93739 188.99067 189.07095 189.92224 191.24652
 192.98780 195.09909 197.37837 199.75365 202.21494 204.71122 206.81550 208.67379
 210.31607 211.47735 211.72264 211.96692 211.92020 211.64149 211.29077 210.93706
 210.57034 210.29662 210.12091 210.00119 209.94547 210.29276 210.69504 211.10032
 211.90961 213.10389 214.37017 216.16946 218.11374 220.17302 222.28431 224.38359
 226.45987 228.56016 230.67344 232.79572 234.94101 237.12929 239.40158 241.78786
 244.42514 246.69243 248.71071 250.49199 251.92528 253.06456 253.90284 254.23513
 254.28841 254.07869 253.45498 252.41926 251.04154 249.21883 247.14411 244.99339
 242.80068 240.62096 238.45724 236.31253 234.18881 232.07209 230.11438 228.28766
 226.58695 225.07523 223.72151 222.50980 221.40808 220.38436 219.50465 218.66193
 217.92021 217.11650 216.23078 215.61106 215.07735 214.43919 212.93149 211.72409
 211.40593 211.69455 213.09583 215.19818 218.02155 222.12163 227.55646 232.03421
 235.90973 240.22223 244.67819 248.94646 252.83154 256.23880 259.32388 262.32901
 265.23560 267.96341 270.44846 272.73193 274.87918 276.90063 278.76050 280.41656
 281.88824 283.16473 284.25977 285.24878 286.29083 287.34952 288.30853 289.08566
 289.84378 290.55597 291.21454 292.05380
 366.78100 356.35127 345.79953 334.68180 323.10106 311.31133 299.19759 287.01686
 274.74512 262.65839 250.68366 240.00092 230.13919 221.25945 213.45772 206.47598
 200.32625 195.28052 191.87878 189.93705 188.99031 189.07058 189.92184 191.24611
 192.98737 195.09864 197.37791 199.75317 202.21444 204.71070 206.81497 208.67323
 210.31550 211.47677 211.72203 211.96630 211.91956 211.64083 211.29009 210.93636
 210.56962 210.29589 210.12016 210.00042 209.94469 210.29195 210.69422 211.09948
 211.90875 213.10302 214.36928 216.16855 218.11281 220.17208 222.28334 224.38261
 226.45887 228.55914 230.67241 232.79467 234.93994 237.12820 239.40047 241.78673
 244.42400 246.69126 248.70953 250.49080 251.92406 253.06333 253.90159 254.23386
 254.28712 254.07739 253.45366 252.41792 251.04019 249.21745 247.14272 244.99198
 242.79925 240.61951 238.45578 236.31105 234.18731 232.07058 230.11284 228.28611
 226.58537 225.07364 223.71991 222.50817 221.40644 220.38270 219.50297 218.66023
 217.91850 217.11476 216.22903 215.60930 215.07556 214.44357 212.94994 211.74561
 211.46980 211.70258 213.08118 215.21463 218.05362 222.13097 227.52155 231.99803
 235.85945 240.17738 244.62929 248.88448 252.74060 256.14044 259.25397 262.29126
 265.20557 267.92319 270.39398 272.66739 274.83124 276.88589 278.76645 280.43683
 281.90329 283.15942 284.22623 285.13928 286.06668 287.08719 288.05893 288.89780
 289.67688 290.39935 291.06027 291.90259
 366.78100 356.34963 345.79626 334.67689 323.09452 311.30315 299.18778 287.00542
 274.73205 262.64368 250.66731 239.98294 230.11957 221.23820 213.43483 206.45146
 200.30009 195.25272 191.84935 189.90598 188.95762 189.03625 189.88588 191.20851
 192.94814 195.05777 197.33540 199.70903 202.16866 204.66329 206.76592 208.62255
 210.26319 211.42282 211.66645 211.90908 211.86071 211.58034 211.22797 210.87260
 210.50423 210.22886 210.05149 209.93012 209.87275 210.21839 210.61902 211.02265
 211.83028 213.02291 214.28754 216.08517 218.02780 220.08543 222.19506 224.29269
 226.36732 228.46595 230.57759 232.69822 234.84185 237.02848 239.29911 241.68374
 244.31937 246.58500 248.60163 250.38126 251.81289 252.95052 253.78716 254.11779
 254.16942 253.95805 253.33268 252.29531 250.91594 249.09157 247.01520 244.86283
 242.66846 240.48709 238.32172 236.17536 234.04999 231.93162 229.97225 228.14388
 226.44151 224.92814 223.57277 222.35940 221.25603 220.23066 219.34929 218.50492
 217.76156 216.95619 216.06882 215.44745 214.91208 214.37935 213.10518 211.67123
 211.43607 211.75043 213.08762 215.22044 218.07486 222.12000 227.44185 231.99678
 235.80005 240.12978 244.57652 248.81969 252.65121 256.05591 259.20850 262.26035
 265.17493 267.88495 270.34464 272.60703 274.77039 276.83368 278.72885 280.44601
 281.96429 283.23755 284.28757 285.23444 286.16949 287.18597 288.12582 288.97116
 289.77994 290.50174 291.13232 291.93588
 366.78100 356.35025 345.79750 334.67874 323.09699 311.30624 299.19149 287.00973
 274.73698 262.64923 250.67348 239.98972 230.12697 221.24622 213.44347 206.46072
 200.30996 195.26321 191.86046 189.91771 188.96995 189.04920 189.89945 191.22270
 192.96294 195.07319 197.35144 199.72569 202.18594 204.68118 206.78443 208.64168
 210.28293 211.44317 211.68742 211.93067 211.88292 211.60316 211.25141 210.89666
 210.52891 210.25416 210.07740 209.95665 209.89990 210.24615 210.64739 211.05164
 211.85989 213.05314 214.31839 216.11663 218.05988 220.11813 222.22838 224.32662
 226.40187 228.50112 230.61337 232.73461 234.87886 237.06611 239.33736 241.72261
 244.35885 246.62510 248.64235 250.42260 251.85484 252.99309 253.83034 254.16159
 254.21383 254.00308 253.37833 252.34158 250.96283 249.13907 247.06332 244.91157
 242.71782 240.53706 238.37231 236.22656 234.10181 231.98405 230.02530 228.19755
 226.49580 224.98305 223.62829 222.41554 221.31279 220.28804 219.40728 218.56353
 217.82078 217.01603 216.12927 215.50852 214.97377 214.43062 213.11377 211.67252
 211.29533 211.51389 213.06319 215.38803 218.27742 222.22815 227.46475 232.01451
 235.78136 240.10448 244.56096 248.80132 252.60545 255.98145 259.13544 262.18863
 265.10901 267.82455 270.28296 272.52695 274.68790 276.75314 278.64755 280.33173
 281.79996 283.04913 284.12888 285.19980 286.32687 287.39233 288.43039 289.39005
 290.25317 291.02179 291.69324 292.54892
 366.78100 356.35124 345.79948 334.68172 323.10096 311.31120 299.19744 287.01668
 274.74492 262.65816 250.68340 240.00064 230.13888 221.25912 213.45736 206.47560
 200.32583 195.28007 191.87831 189.93655 188.98979 189.07003 189.92127 191.24551
 192.98675 195.09799 197.37723 199.75247 202.21371 204.70995 206.81419 208.67243
 210.31467 211.47591 211.72115 211.96539 211.91863 211.63987 211.28911 210.93535
 210.56859 210.29483 210.11907 209.99931 209.94355 210.29079 210.69303 211.09826
 211.90750 213.10174 214.36798 216.16722 218.11146 220.17070 222.28194 224.38118
 226.45742 228.55766 230.67090 232.79314 234.93838 237.12662 239.39886 241.78510
 244.42234 246.68958 248.70782 250.48906 251.92230 253.06154 253.89978 254.23202
 254.28526 254.07550 253.45174 252.41598 251.03822 249.21545 247.14069 244.98993
 242.79717 240.61741 238.45365 236.30889 234.18513 232.06837 230.11061 228.28385
 226.58309 225.07133 223.71757 222.50581 221.40405 220.38029 219.50053 218.65777
 217.91601 217.11225 216.22649 215.60673 215.07297 214.50522 213.10571 211.63893
 211.28030 211.58635 213.29625 215.62463 218.46098 222.32861 227.50197 231.97751
 235.75404 240.08025 244.55327 248.79846 252.58705 255.93867 259.09924 262.17108
 265.09106 267.78622 270.21902 272.44925 274.59128 276.63892 278.47446 280.10309
 281.55963 282.79520 283.96396 285.30878 286.57053 287.75537 288.83633 289.81564
 290.69641 291.48071 292.16589 293.03906
 366.78100 356.35052 345.79804 334.67956 323.09808 311.30760 299.19312 287.01164
 274.73916 262.65168 250.67620 239.99272 230.13024 221.24976 213.44729 206.46481
 200.31433 195.26785 191.86537 189.92289 188.97541 189.05493 189.90545 191.22897
 192.96949 195.08001 197.35853 199.73305 202.19357 204.68909 206.79261 208.65013
 210.29165 211.45217 211.69669 211.94021 211.89273 211.61325 211.26177 210.90729
 210.53982 210.26534 210.08886 209.96838 209.91190 210.25842 210.65994 211.06446
 211.87298 213.06650 214.33202 216.13054 218.07406 220.13258 222.24310 224.34162
 226.41714 228.51666 230.62918 232.75070 234.89522 237.08274 239.35426 241.73978
 244.37630 246.64282 248.66034 250.44087 251.87339 253.01191 253.84943 254.18095
 254.23347 254.02299 253.39851 252.36203 250.98355 249.16007 247.08459 244.93311
 242.73963 240.55915 238.39467 236.24919 234.12471 232.00723 230.04875 228.22127
 226.51979 225.00731 223.65283 222.44035 221.33787 220.31339 219.43292 218.58944
 217.84696 217.04248 216.15600 215.53552 215.00104 214.47066 213.16087 211.71988
 211.20235 211.69142 213.26752 215.45558 218.35835 222.31671 227.44052 231.94441
 235.75259 240.08670 244.56573 248.81898 252.61493 255.99979 259.19238 262.27618
 265.17487 267.83966 270.25128 272.46564 274.56107 276.51761 278.24838 279.77435
 281.20425 282.60764 284.06616 285.44113 286.71179 287.93027 289.04193 290.04901
 290.95477 291.76138 292.46600 293.36395
 366.78100 356.34918 345.79536 334.67554 323.09272 311.30090 299.18508 287.00226
 274.72844 262.63962 250.66280 239.97798 230.11416 221.23234 213.42852 206.44470
 200.29288 195.24506 191.84124 189.89742 188.94860 189.02678 189.87596 191.19814
 192.93732 195.04650 197.32369 199.69687 202.15605 204.65023 206.75241 208.60859
 210.24877 211.40795 211.65113 211.89331 211.84449 211.56367 211.21085 210.85503
 210.48621 210.21039 210.03257 209.91075 209.85293 210.19811 210.59829 211.00147
 211.80865 213.00083 214.26501 216.06219 218.00437 220.06155 222.17073 224.26791
 226.34209 228.44027 230.55145 232.67163 234.81481 237.00099 239.27117 241.65535
 244.29053 246.55571 248.57189 250.35107 251.78225 252.91943 253.75561 254.08579
 254.13697 253.92515 253.29933 252.26151 250.88169 249.05688 246.98006 244.82724
 242.63242 240.45060 238.28478 236.13796 234.01214 231.89332 229.93350 228.10468
 226.40186 224.88804 223.53222 222.31840 221.21458 220.18876 219.30694 218.46212
 217.71830 216.91248 216.02466 215.40284 214.86702 214.37245 213.18784 211.85013
 211.28461 211.72954 213.10562 215.17896 218.13394 222.15359 227.32896 231.80229
 235.70056 240.01096 244.46858 248.70682 252.52660 255.96992 259.19858 262.28775
 265.20242 267.90109 270.35889 272.59048 274.66083 276.61569 278.41229 280.00616
 281.38565 282.60587 283.69672 284.74353 285.81146 286.83252 287.79297 288.68161
 289.50870 290.24524 290.88864 291.70862
 366.78100 356.34813 345.79326 334.67239 323.08852 311.29565 299.17878 286.99491
 274.72004 262.63017 250.65230 239.96643 230.10156 221.21869 213.41382 206.42895
 200.27608 195.22721 191.82234 189.87747 188.92760 189.00474 189.85287 191.17400
 192.91213 195.02026 197.29639 199.66852 202.12665 204.61978 206.72091 208.57604
 210.21517 211.37330 211.61543 211.85656 211.80669 211.52482 211.17095 210.81408
 210.44421 210.16734 209.98847 209.86560 209.80673 210.15086 210.54999 210.95212
 211.75825 212.94938 214.21251 216.00864 217.94977 220.00590 222.11403 224.21016
 226.28329 228.38042 230.49055 232.60968 234.75181 236.93694 239.20607 241.58921
 244.22334 246.48747 248.50260 250.28073 251.71086 252.84699 253.68212 254.01125
 254.06138 253.84851 253.22164 252.18277 250.80190 248.97603 246.89816 244.74429
 242.54842 240.36555 238.19868 236.05081 233.92394 231.80407 229.84320 228.01333
 226.30946 224.79459 223.43772 222.22285 221.11798 220.09111 219.20824 218.36237
 217.61750 216.81063 215.92176 215.29889 214.76202 214.29283 213.18433 211.93571
 211.43520 211.92494 213.18506 215.12814 218.02409 222.06036 227.29158 231.55922
 235.59621 239.85654 244.29500 248.48135 252.26492 255.71631 259.00537 262.17389
 265.16165 267.91565 270.41000 272.64508 274.71155 276.68262 278.53482 280.15234
 281.52158 282.68552 283.71201 284.65057 285.53281 286.50757 287.48792 288.32297
 288.94583 289.48892 290.05350 290.81915
 366.78100 356.34847 345.79394 334.67341 323.08988 311.29735 299.18082 286.99729
 274.72276 262.63323 250.65570 239.97017 230.10564 221.22311 213.41858 206.43405
 200.28152 195.23299 191.82846 189.88393 188.93440 189.01187 189.86034 191.18181
 192.92028 195.02876 197.30523 199.67770 202.13617 204.62964 206.73111 208.58658
 210.22605 211.38452 211.62699 211.86846 211.81893 211.53740 211.18387 210.82734
 210.45781 210.18128 210.00275 209.88022 209.82169 210.16616 210.56563 210.96810
 211.77457 212.96604 214.22951 216.02598 217.96745 220.02392 222.13239 224.22886
 226.30233 228.39980 230.51027 232.62974 234.77221 236.95768 239.22715 241.61062
 244.24509 246.50956 248.52503 250.30350 251.73397 252.87044 253.70591 254.03538
 254.08585 253.87332 253.24680 252.20827 250.82774 249.00221 246.92468 244.77115
 242.57562 240.39309 238.22656 236.07903 233.95250 231.83297 229.87244 228.04291
 226.33938 224.82485 223.46832 222.25379 221.14926 220.12273 219.24020 218.39467
 217.65014 216.84361 215.95508 215.33255 214.79602 214.30968 213.16061 211.93936
 211.38568 211.91322 213.26543 215.25392 218.13445 222.15211 227.34659 231.58917
 235.62144 239.86415 244.27966 248.43796 252.17848 255.59459 258.87241 262.04858
 265.05051 267.83057 270.35986 272.62094 274.70895 276.71008 278.57059 280.15973
 281.47430 282.58997 283.54410 284.44913 285.41931 286.48019 287.48041 288.30069
 288.92990 289.37869 289.96609 290.74020
 366.78100 356.34688 345.79076 334.66864 323.08352 311.28940 299.17128 286.98616
 274.71003 262.61891 250.63979 239.95267 230.08655 221.20243 213.39631 206.41019
 200.25607 195.20595 191.79983 189.85371 188.90259 188.97847 189.82535 191.14522
 192.88210 194.98898 197.26386 199.63474 202.09162 204.58350 206.68338 208.53726
 210.17514 211.33202 211.57290 211.81278 211.76166 211.47853 211.12341 210.76529
 210.39417 210.11605 209.93593 209.81181 209.75169 210.09457 210.49245 210.89333
 211.69821 212.88809 214.14997 215.94485 217.88472 219.93960 222.04648 224.14136
 226.21324 228.30912 230.41800 232.53588 234.67676 236.86064 239.12852 241.51040
 244.14328 246.40616 248.42004 250.19691 251.62579 252.76067 253.59455 253.92243
 253.97131 253.75719 253.12907 252.08895 250.70683 248.87971 246.80059 244.64547
 242.44835 240.26423 238.09610 235.94698 233.81886 231.69774 229.73562 227.90450
 226.19938 224.68326 223.32514 222.10902 221.00290 219.97478 219.09066 218.24354
 217.49742 216.68929 215.79917 215.17505 214.63693 214.22780 213.26118 211.98492
 211.31175 211.74109 213.13164 215.24162 218.15964 222.20081 227.41479 231.72261
 235.68425 239.95386 244.37799 248.56929 252.32033 255.70940 258.92484 262.03314
 264.96472 267.68973 270.19611 272.46664 274.58069 276.59106 278.42252 279.98569
 281.30026 282.40317 283.34787 284.29984 285.39368 286.45187 287.43207 288.18585
 288.83716 289.50955 290.12015 290.95953
 366.78100 356.34506 345.78711 334.66317 323.07622 311.28028 299.16033 286.97339
 274.69544 262.60250 250.62155 239.93261 230.06466 221.17872 213.37077 206.38283
 200.22688 195.17494 191.76699 189.81905 188.86610 188.94016 189.78521 191.10327
 192.83832 194.94338 197.21643 199.58549 202.04054 204.53060 206.62865 208.48071
 210.11676 211.27182 211.51087 211.74893 211.69598 211.41104 211.05410 210.69415
 210.32121 210.04126 209.85932 209.73337 209.67143 210.01248 210.40854 210.80759
 211.61065 212.79870 214.05876 215.85181 217.78987 219.84292 221.94798 224.04103
 226.11109 228.20514 230.31220 232.42825 234.56731 236.74936 239.01542 241.39547
 244.02653 246.28758 248.29964 250.07469 251.50175 252.63480 253.46686 253.79291
 253.83997 253.62402 252.99408 251.95214 250.56819 248.73925 246.65830 244.50136
 242.30241 240.11647 237.94652 235.79558 233.66563 231.54269 229.57874 227.74580
 226.03885 224.52091 223.16096 221.94302 220.83507 219.80513 218.91918 218.07024
 217.32229 216.51235 215.62040 214.99446 214.45451 214.12903 213.36003 212.10178
 211.34023 211.59685 212.94365 215.16139 218.14062 222.17986 227.39481 231.74710
 235.66132 239.95264 244.39261 248.61551 252.38554 255.78360 258.98798 262.07089
 264.95993 267.62689 270.07635 272.31769 274.44226 276.45508 278.26025 279.80786
 281.11612 282.19781 283.15332 284.17529 285.29092 286.34567 287.30771 288.09622
 288.77734 289.47232 290.10999 290.96039
 366.78100 356.34661 345.79022 334.66783 323.08244 311.28805 299.16966 286.98427
 274.70788 262.61650 250.63711 239.94972 230.08333 221.19894 213.39255 206.40616
 200.25177 195.20138 191.79499 189.84860 188.89721 188.97282 189.81943 191.13904
 192.87565 194.98227 197.25688 199.62749 202.08410 204.57571 206.67532 208.52893
 210.16654 211.32315 211.56376 211.80337 211.75198 211.46859 211.11320 210.75481
 210.38342 210.10504 209.92465 209.80026 209.73987 210.08248 210.48009 210.88070
 211.68531 212.87492 214.13653 215.93114 217.87075 219.92536 222.03197 224.12658
 226.19819 228.29381 230.40242 232.52003 234.66064 236.84425 239.11186 241.49347
 244.12608 246.38869 248.40230 250.17891 251.60752 252.74213 253.57574 253.90335
 253.95196 253.73758 253.10919 252.06880 250.68641 248.85902 246.77963 244.62424
 242.42685 240.24246 238.07407 235.92468 233.79629 231.67490 229.71251 227.88112
 226.17573 224.65934 223.30096 222.08457 220.97818 219.94979 219.06540 218.21801
 217.47162 216.66323 215.77284 215.14845 214.61006 214.20135 213.23575 212.32860
 211.42366 211.55728 212.91338 215.06847 218.05243 222.11624 227.35620 231.69498
 235.60251 239.89987 244.34430 248.56557 252.32654 255.74054 258.98767 262.11819
 265.03320 267.69339 270.10339 272.29614 274.39584 276.38480 278.15207 279.67380
 280.96289 282.03732 283.02133 284.06390 285.15530 286.21524 287.18835 287.98755
 288.66467 289.35941 290.00269 290.85059
 366.78100 356.34849 345.79399 334.67348 323.08998 311.29747 299.18097 286.99746
 274.72296 262.63345 250.65594 239.97044 230.10593 221.22343 213.41892 206.43442
 200.28191 195.23341 191.82890 189.88439 188.93489 189.01238 189.86088 191.18237
 192.92087 195.02936 197.30586 199.67835 202.13685 204.63034 206.73183 208.58733
 210.22682 211.38532 211.62781 211.86931 211.81980 211.53830 211.18479 210.82828
 210.45878 210.18227 210.00377 209.88126 209.82276 210.16725 210.56675 210.96924
 211.77573 212.96723 214.23072 216.02722 217.96871 220.02521 222.13370 224.23020
 226.30369 228.40118 230.51168 232.63117 234.77367 236.95916 239.22866 241.61215
 244.24665 246.51114 248.52663 250.30513 251.73562 252.87212 253.70761 254.03711
 254.08760 253.87510 253.24859 252.21008 250.82958 249.00407 246.92657 244.77306
 242.57756 240.39505 238.22855 236.08104 233.95454 231.83503 229.87452 228.04502
 226.34151 224.82701 223.47050 222.25600 221.15149 220.12499 219.24248 218.39697
 217.65247 216.84596 215.95746 215.33495 214.79845 214.29160 213.09410 212.51418
 211.62517 211.54671 212.78140 214.90614 217.99570 222.07648 227.33990 231.65356
 235.58450 239.88013 244.32410 248.52386 252.24146 255.63969 258.91986 262.10812
 265.07657 267.76886 270.17545 272.32294 274.37997 276.32114 278.02896 279.52097
 280.80609 281.90921 282.92691 283.96524 285.05042 286.10770 287.08136 287.84961
 288.44141 289.09851 289.70786 290.51450
 366.78100 356.34728 345.79157 334.66985 323.08513 311.29142 299.17370 286.98898
 274.71327 262.62255 250.64383 239.95712 230.09140 221.20768 213.40197 206.41625
 200.26253 195.21281 191.80710 189.86138 188.91066 188.98695 189.83423 191.15451
 192.89180 194.99908 197.27436 199.64565 202.10293 204.59521 206.69550 208.54978
 210.18806 211.34535 211.58663 211.82691 211.77620 211.49348 211.13876 210.78105
 210.41033 210.13261 209.95290 209.82918 209.76946 210.11275 210.51103 210.91231
 211.71759 212.90788 214.17016 215.96544 217.90573 219.96101 222.06829 224.16358
 226.23586 228.33214 230.44143 232.55971 234.70099 236.88528 239.15356 241.53584
 244.16913 246.43241 248.44669 250.22398 251.65326 252.78854 253.62283 253.95111
 254.00039 253.78668 253.15896 252.11924 250.73753 248.91081 246.83209 244.67737
 242.48066 240.29694 238.12922 235.98051 233.85279 231.73207 229.77036 227.93964
 226.23492 224.71921 223.36149 222.14577 221.04006 220.01234 219.12862 218.28191
 217.53619 216.72847 215.83876 215.21504 214.67732 214.22888 213.16937 212.49707
 211.84715 211.58392 212.67490 214.76180 217.88020 222.00496 227.31537 231.63196
 235.59834 239.89958 244.35527 248.55066 252.22829 255.58038 258.84543 262.03680
 265.02258 267.75095 270.18903 272.33484 274.36594 276.26108 277.92355 279.39215
 280.67023 281.78207 282.80859 283.85992 284.97375 286.02542 286.99429 287.70667
 288.37125 289.04727 289.65555 290.48163
 366.78100 356.34543 345.78786 334.66429 323.07772 311.28215 299.16258 286.97601
 274.69844 262.60586 250.62529 239.93672 230.06915 221.18358 213.37601 206.38844
 200.23287 195.18130 191.77373 189.82616 188.87359 188.94802 189.79345 191.11188
 192.84731 194.95274 197.22617 199.59559 202.05102 204.54145 206.63988 208.49231
 210.12874 211.28417 211.52360 211.76203 211.70946 211.42489 211.06832 210.70875
 210.33618 210.05661 209.87504 209.74947 209.68790 210.02932 210.42575 210.82518
 211.62861 212.81704 214.07747 215.87090 217.80933 219.86276 221.96819 224.06162
 226.13205 228.22648 230.33391 232.45034 234.58977 236.77220 239.03862 241.41905
 244.05048 246.31191 248.32434 250.09977 251.52720 252.66063 253.49306 253.81949
 253.86692 253.65135 253.02178 251.98021 250.59664 248.76807 246.68750 244.53093
 242.33235 240.14678 237.97721 235.82664 233.69707 231.57450 229.61093 227.77836
 226.07179 224.55422 223.19465 221.97708 220.86951 219.83994 218.95437 218.10580
 217.35823 216.54866 215.65708 215.03151 214.49194 214.13690 213.29808 212.41983
 212.00687 211.62885 212.57108 214.69368 217.79260 221.95319 227.28946 231.61224
 235.59753 239.90991 244.38359 248.59572 252.26888 255.59389 258.82132 261.97009
 264.93311 267.67355 270.13882 272.29803 274.32367 276.18240 277.81656 279.28210
 280.57596 281.71158 282.75223 283.78787 284.88013 285.92551 286.89062 287.61722
 288.34866 289.03482 289.65079 290.50952
 366.78100 356.34456 345.78612 334.66168 323.07424 311.27780 299.15736 286.96992
 274.69148 262.59804 250.61660 239.92716 230.05872 221.17228 213.36384 206.37540
 200.21896 195.16652 191.75808 189.80964 188.85620 188.92976 189.77432 191.09188
 192.82644 194.93100 197.20356 199.57212 202.02668 204.51624 206.61380 208.46536
 210.10092 211.25548 211.49404 211.73160 211.67816 211.39272 211.03528 210.67484
 210.30140 210.02096 209.83852 209.71208 209.64964 209.99020 210.38576 210.78432
 211.58688 212.77444 214.03400 215.82656 217.76412 219.81668 221.92124 224.01380
 226.08336 228.17692 230.28348 232.39904 234.53760 236.71916 238.98472 241.36428
 243.99484 246.25540 248.26696 250.04152 251.46808 252.60064 253.43220 253.75776
 253.80432 253.58788 252.95744 251.91500 250.53056 248.70112 246.61968 244.46224
 242.26280 240.07636 237.90592 235.75448 233.62404 231.50060 229.53616 227.70272
 225.99528 224.47684 223.11640 221.89796 220.78952 219.75908 218.87264 218.02320
 217.27476 216.46432 215.57188 214.94544 214.40500 214.09792 213.37236 212.42200
 212.08762 211.63344 212.45499 214.67833 217.76064 221.92705 227.24658 231.59541
 235.55939 239.87979 244.35535 248.57693 252.27754 255.62930 258.85519 261.97424
 264.89160 267.60196 270.07599 272.25204 274.25647 276.06754 277.67200 279.14243
 280.47565 281.67114 282.75320 283.78732 284.82581 285.86749 286.81433 287.59592
 288.32590 289.01822 289.64478 290.47354
 366.78100 356.34387 345.78475 334.65962 323.07149 311.27436 299.15324 286.96511
 274.68598 262.59185 250.60973 239.91960 230.05047 221.16335 213.35422 206.36509
 200.20796 195.15484 191.74571 189.79658 188.84245 188.91533 189.75920 191.07607
 192.80995 194.91382 197.18569 199.55356 202.00744 204.49631 206.59318 208.44405
 210.07893 211.23280 211.47067 211.70755 211.65342 211.36729 211.00916 210.64804
 210.27391 209.99278 209.80965 209.68253 209.61940 209.95927 210.35415 210.75202
 211.55389 212.74076 213.99964 215.79151 217.72838 219.78025 221.88413 223.97600
 226.04487 228.13775 230.24362 232.35849 234.49636 236.67724 238.94211 241.32098
 243.95085 246.21073 248.22160 249.99547 251.42135 252.55322 253.38409 253.70896
 253.75484 253.53771 252.90658 251.86345 250.47833 248.64820 246.56607 244.40795
 242.20782 240.02069 237.84956 235.69744 233.56631 231.44218 229.47705 227.64293
 225.93480 224.41567 223.05455 221.83542 220.72629 219.69516 218.80804 217.95791
 217.20878 216.39765 215.50453 214.87740 214.33627 214.06660 213.42947 212.49658
 212.09467 211.59647 212.35805 214.66039 217.76831 221.92923 227.22482 231.61554
 235.52931 239.84793 244.30341 248.51044 252.22601 255.63078 258.90103 262.02777
 264.92584 267.61450 270.06378 272.23270 274.20569 275.95773 277.51935 278.97397
 280.31387 281.52579 282.65549 283.75992 284.84802 285.89441 286.84518 287.67297
 288.42615 289.12521 289.77246 290.60754
 366.78100 356.34382 345.78465 334.65947 323.07130 311.27412 299.15294 286.96477
 274.68559 262.59141 250.60924 239.91906 230.04989 221.16271 213.35353 206.36436
 200.20718 195.15400 191.74483 189.79565 188.84148 188.91430 189.75812 191.07495
 192.80877 194.91259 197.18442 199.55224 202.00607 204.49489 206.59171 208.44254
 210.07736 211.23118 211.46901 211.70583 211.65166 211.36548 211.00730 210.64613
 210.27195 209.99077 209.80760 209.68042 209.61725 209.95707 210.35189 210.74972
 211.55154 212.73836 213.99719 215.78901 217.72584 219.77766 221.88148 223.97331
 226.04213 228.13495 230.24078 232.35560 234.49343 236.67425 238.93907 241.31790
 243.94772 246.20754 248.21837 249.99219 251.41802 252.54984 253.38066 253.70549
 253.75131 253.53413 252.90296 251.85978 250.47461 248.64443 246.56225 244.40408
 242.20390 240.01672 237.84555 235.69337 233.56220 231.43802 229.47284 227.63867
 225.93049 224.41131 223.05014 221.83096 220.72179 219.69061 218.80343 217.95326
 217.20408 216.39290 215.49973 214.87255 214.33138 214.06229 213.42653 212.64603
 212.13783 211.48282 212.18576 214.61211 217.80659 221.97044 227.25856 231.67210
 235.54112 239.84875 244.27654 248.44809 252.13794 255.56827 258.88464 262.04227
 264.95334 267.62387 270.09833 272.28320 274.20325 275.89294 277.40973 278.80789
 280.12311 281.34180 282.52145 283.67706 284.77783 285.82135 286.77023 287.60635
 288.36664 289.06583 289.71378 290.55573
 366.78100 356.34438 345.78576 334.66115 323.07353 311.27691 299.15629 286.96867
 274.69005 262.59644 250.61482 239.92520 230.05658 221.16996 213.36134 206.37273
 200.21611 195.16349 191.75487 189.80625 188.85264 188.92602 189.77040 191.08778
 192.82216 194.92654 197.19893 199.56731 202.02169 204.51107 206.60845 208.45983
 210.09522 211.24960 211.48798 211.72536 211.67174 211.38613 211.02851 210.66789
 210.29427 210.01365 209.83103 209.70442 209.64180 209.98218 210.37756 210.77594
 211.57832 212.76571 214.02509 215.81747 217.75485 219.80723 221.91162 224.00400
 226.07338 228.16676 230.27314 232.38852 234.52691 236.70829 238.97367 241.35305
 243.98343 246.24381 248.25520 250.02958 251.45596 252.58834 253.41972 253.74511
 253.79149 253.57487 252.94425 251.90163 250.51701 248.68740 246.60578 244.44816
 242.24854 240.06192 237.89130 235.73969 233.60907 231.48545 229.52083 227.68721
 225.97960 224.46098 223.10036 221.88174 220.77312 219.74250 218.85589 218.00627
 217.25765 216.44703 215.55441 214.92779 214.38718 214.09036 213.38911 212.78539
 212.25542 211.36450 212.01302 214.54279 217.83179 221.99434 227.27461 231.73811
 235.56746 239.87465 244.27957 248.41600 252.06557 255.49106 258.82828 262.01303
 264.93323 267.60379 270.06729 272.22418 274.17093 275.81952 277.30893 278.72012
 280.06177 281.31253 282.51907 283.66217 284.75125 285.79367 286.73929 287.56836
 288.32574 289.02307 289.67288 290.50729
 366.78100 356.34466 345.78631 334.66197 323.07463 311.27828 299.15794 286.97059
 274.69225 262.59891 250.61756 239.92822 230.05988 221.17353 213.36519 206.37685
 200.22050 195.16816 191.75982 189.81147 188.85813 188.93178 189.77644 191.09410
 192.82875 194.93341 197.20607 199.57472 202.02938 204.51904 206.61669 208.46835
 210.10401 211.25866 211.49732 211.73497 211.68163 211.39629 211.03894 210.67860
 210.30526 210.02491 209.84257 209.71623 209.65388 209.99454 210.39020 210.78885
 211.59151 212.77916 214.03882 215.83148 217.76913 219.82179 221.92645 224.01910
 226.08876 228.18242 230.28907 232.40473 234.54339 236.72504 238.99070 241.37035
 244.00101 246.26167 248.27332 250.04798 251.47464 252.60729 253.43895 253.76461
 253.81126 253.59492 252.96458 251.92223 250.53789 248.70854 246.62720 244.46986
 242.27051 240.08417 237.91383 235.76248 233.63214 231.50880 229.54445 227.71111
 226.00377 224.48542 223.12508 221.90673 220.79839 219.76805 218.88170 218.03236
 217.28402 216.47367 215.58133 214.95499 214.41464 214.10800 213.38354 212.86189
 212.35507 211.35614 211.94785 214.44423 217.76714 221.93979 227.23877 231.75710
 235.57993 239.90015 244.30502 248.43484 252.06882 255.48271 258.81662 262.00583
 264.91956 267.57428 269.97263 272.22293 274.09982 275.68524 277.17722 278.63922
 280.03787 281.36227 282.57547 283.70093 284.79636 285.83994 286.78564 287.62152
 288.39304 289.10220 289.75592 290.58899
 366.78100 356.34581 345.78861 334.66542 323.07923 311.28403 299.16484 286.97864
 274.70145 262.60926 250.62906 239.94087 230.07368 221.18848 213.38129 206.39409
 200.23890 195.18771 191.78051 189.83332 188.88113 188.95593 189.80174 191.12055
 192.85635 194.96216 197.23596 199.60577 202.06158 204.55238 206.65119 208.50400
 210.14080 211.29661 211.53642 211.77522 211.72303 211.43883 211.08264 210.72345
 210.35125 210.07206 209.89087 209.76567 209.70448 210.04628 210.44309 210.84290
 211.64670 212.83551 214.09632 215.89012 217.82893 219.88274 221.98854 224.08235
 226.15315 228.24796 230.35577 232.47257 234.61238 236.79519 239.06199 241.44280
 244.07460 246.33641 248.34922 250.12502 251.55283 252.68664 253.51944 253.84625
 253.89406 253.67886 253.04967 252.00847 250.62528 248.79709 246.71689 244.56070
 242.36251 240.17731 238.00812 235.85793 233.72873 231.60654 229.64334 227.81115
 226.10496 224.58776 223.22857 222.01138 220.90418 219.87499 218.98979 218.14160
 217.39441 216.58521 215.69402 215.06883 214.52963 214.17108 213.32419 213.01039
 212.38031 211.35652 211.95850 214.34987 217.67860 221.85815 227.16754 231.73476
 235.56152 239.89330 244.29993 248.43048 252.07834 255.50406 258.84460 262.03851
 264.95770 267.59216 269.94385 272.15656 274.02771 275.56671 277.01752 278.49612
 279.96136 281.32355 282.56689 283.71378 284.82825 285.87540 286.83066 287.67642
 288.45624 289.18625 289.83673 290.66571
 366.78100 356.34675 345.79049 334.66824 323.08298 311.28873 299.17047 286.98522
 274.70897 262.61771 250.63846 239.95120 230.08495 221.20070 213.39444 206.40819
 200.25393 195.20368 191.79742 189.85117 188.89992 188.97566 189.82241 191.14215
 192.87890 194.98565 197.26039 199.63114 202.08788 204.57963 206.67937 208.53312
 210.17087 211.32761 211.56836 211.80810 211.75685 211.47359 211.11834 210.76009
 210.38883 210.11058 209.93032 209.80607 209.74582 210.08856 210.48631 210.88705
 211.69180 212.88154 214.14329 215.93804 217.87778 219.93253 222.03927 224.13402
 226.20577 228.30151 230.41026 232.52800 234.66875 236.85249 239.12024 241.50199
 244.13473 246.39748 248.41122 250.18797 251.61672 252.75146 253.58521 253.91295
 253.96170 253.74744 253.11919 252.07894 250.69668 248.86943 246.79017 244.63492
 242.43766 240.25341 238.08516 235.93590 233.80765 231.68639 229.72414 227.89289
 226.18763 224.67138 223.31312 222.09687 220.99061 219.96236 219.07811 218.23085
 217.48460 216.67634 215.78609 215.16184 214.62358 214.22911 213.30382 213.09042
 212.46973 211.36307 211.88837 214.23259 217.61568 221.81181 227.12070 231.73581
 235.55626 239.88484 244.27859 248.39401 252.05971 255.50833 258.86511 262.06693
 265.00308 267.62717 270.00598 272.20523 273.98737 275.39999 276.82394 278.35880
 279.85065 281.23526 282.57010 283.81409 284.97141 286.00720 286.94299 287.80414
 288.61832 289.36536 290.01797 290.84964
 366.78100 356.34405 345.78510 334.66015 323.07219 311.27524 299.15429 286.96634
 274.68739 262.59344 250.61149 239.92153 230.05258 221.16563 213.35668 206.36773
 200.21078 195.15782 191.74887 189.79992 188.84597 188.91902 189.76307 191.08012
 192.81416 194.91821 197.19026 199.55831 202.01236 204.50141 206.59846 208.44950
 210.08455 211.23860 211.47665 211.71370 211.65975 211.37379 211.01584 210.65489
 210.28094 209.99999 209.81704 209.69009 209.62713 209.96718 210.36223 210.76028
 211.56233 212.74938 214.00843 215.80047 217.73752 219.78957 221.89362 223.98567
 226.05472 228.14777 230.25381 232.36886 234.50691 236.68796 238.95301 241.33206
 243.96210 246.22215 248.23320 250.00725 251.43330 252.56535 253.39640 253.72144
 253.76749 253.55054 252.91959 251.87664 250.49169 248.66174 246.57978 244.42183
 242.22188 240.03493 237.86398 235.71203 233.58108 231.45712 229.49217 227.65822
 225.95027 224.43132 223.07037 221.85141 220.74246 219.71151 218.82456 217.97461
 217.22566 216.41471 215.52175 214.89480 214.35385 214.11041 213.52963 212.96867
 212.52084 211.46230 211.82065 214.06996 217.48262 221.74197 227.08260 231.74478
 235.57216 239.89862 244.28757 248.38988 252.06932 255.52286 258.87830 262.08521
 265.03616 267.57831 270.00046 272.26413 274.10266 275.45517 276.82211 278.21448
 279.76431 281.18460 282.47253 283.69647 284.87521 285.94424 286.92682 287.86224
 288.70792 289.46103 290.11890 290.95731
 366.78100 356.34163 345.78027 334.65290 323.06253 311.26316 299.13980 286.94943
 274.66806 262.57169 250.58733 239.89496 230.02359 221.13423 213.32286 206.33149
 200.17212 195.11676 191.70539 189.75402 188.79765 188.86829 189.70992 191.02455
 192.75619 194.85782 197.12745 199.49308 201.94472 204.43135 206.52598 208.37461
 210.00725 211.15888 211.39451 211.62915 211.57278 211.28441 210.92404 210.56068
 210.18431 209.90094 209.71558 209.58621 209.52084 209.85847 210.25111 210.64674
 211.44637 212.63100 213.88764 215.67727 217.61190 219.66154 221.76317 223.85280
 225.91943 228.01007 230.11370 232.22633 234.36196 236.54060 238.80323 241.17986
 243.80750 246.06513 248.07376 249.84539 251.26903 252.39866 253.22729 253.54992
 253.59356 253.37419 252.74082 251.69546 250.30809 248.47572 246.39135 244.23099
 242.02862 239.83925 237.66588 235.51152 233.37815 231.25178 229.28442 227.44805
 225.73768 224.21631 222.85295 221.63158 220.52021 219.48684 218.59748 217.74511
 216.99374 216.18038 215.28501 214.65564 214.11227 214.01442 213.72231 212.90913
 212.49905 211.71687 212.00792 214.07690 217.38448 221.63632 226.98929 231.65051
 235.53815 239.87512 244.26729 248.35207 252.04213 255.52628 258.90826 262.15018
 265.13632 267.71042 270.18188 272.33548 274.07559 275.47025 276.75974 278.19171
 279.74716 281.16724 282.54453 283.92642 285.20004 286.43008 287.55228 288.56891
 289.48328 290.29752 291.00882 291.91531
 366.78100 356.34233 345.78165 334.65498 323.06531 311.26664 299.14396 286.95429
 274.67362 262.57795 250.59427 239.90260 230.03193 221.14326 213.33258 206.34191
 200.18324 195.12857 191.71789 189.76722 188.81155 188.88288 189.72520 191.04053
 192.77286 194.87519 197.14551 199.51184 201.96417 204.45150 206.54682 208.39615
 210.02948 211.18181 211.41813 211.65346 211.59779 211.31012 210.95044 210.58777
 210.21210 209.92943 209.74475 209.61608 209.55141 209.88974 210.28306 210.67939
 211.47972 212.66505 213.92237 215.71270 217.64803 219.69836 221.80068 223.89101
 225.95834 228.04967 230.15399 232.26732 234.40365 236.58298 238.84630 241.22363
 243.85196 246.11029 248.11961 249.89194 251.31627 252.44660 253.27592 253.59925
 253.64358 253.42491 252.79223 251.74756 250.36089 248.52922 246.44554 244.28587
 242.08420 239.89553 237.72285 235.56918 233.43651 231.31084 229.34416 227.50849
 225.79882 224.27815 222.91547 221.69480 220.58413 219.55146 218.66278 217.81111
 217.06044 216.24777 215.35309 214.72442 214.18175 214.04944 213.70412 213.05872
 212.32822 211.79221 212.25729 214.13664 217.28809 221.52348 226.85321 231.54797
 235.46848 239.82080 244.20714 248.28679 251.97493 255.46408 258.86029 262.12759
 265.15210 267.84052 270.32767 272.50848 274.27945 275.63113 276.94815 278.41016
 279.95898 281.35205 282.81241 284.20575 285.50375 286.79184 287.96701 289.03165
 289.98917 290.84183 291.58670 292.53598
 366.78100 356.34234 345.78169 334.65503 323.06537 311.26672 299.14406 286.95440
 274.67375 262.57809 250.59443 239.90278 230.03212 221.14346 213.33280 206.34215
 200.18349 195.12883 191.71818 189.76752 188.81186 188.88321 189.72555 191.04089
 192.77324 194.87558 197.14592 199.51227 201.96461 204.45195 206.54730 208.39664
 210.02998 211.18233 211.41867 211.65401 211.59835 211.31070 210.95104 210.58838
 210.21273 209.93007 209.74541 209.61676 209.55210 209.89044 210.28379 210.68013
 211.48047 212.66582 213.92316 215.71350 217.64885 219.69919 221.80153 223.89188
 225.95922 228.05056 230.15491 232.26825 234.40459 236.58393 238.84728 241.22462
 243.85296 246.11131 248.12065 249.89299 251.31734 252.44768 253.27702 253.60037
 253.64471 253.42605 252.79340 251.74874 250.36208 248.53043 246.44677 244.28711
 242.08546 239.89680 237.72414 235.57048 233.43783 231.31217 229.34551 227.50986
 225.80020 224.27954 222.91689 221.69623 220.58557 219.55292 218.66426 217.81260
 217.06195 216.24929 215.35463 214.72598 214.18332 214.03627 213.68826 213.35161
 212.27922 211.36072 212.05519 214.25220 217.37541 221.52904 226.82245 231.47871
 235.40147 239.75377 244.12103 248.19856 251.89444 255.38022 258.76227 261.99707
 264.99777 267.68655 270.16315 272.33853 274.12265 275.56201 277.01382 278.59238
 280.16327 281.59494 282.97180 284.32968 285.52710 286.59723 287.65985 288.64206
 289.52545 290.31213 290.99936 291.87512
 366.78100 356.34296 345.78292 334.65688 323.06784 311.26980 299.14776 286.95872
 274.67868 262.58364 250.60060 239.90956 230.03952 221.15148 213.34144 206.35139
 200.19335 195.13931 191.72927 189.77923 188.82419 188.89615 189.73911 191.05507
 192.78803 194.89099 197.16195 199.52891 201.98187 204.46983 206.56579 208.41575
 210.04971 211.20267 211.43963 211.67559 211.62055 211.33351 210.97447 210.61243
 210.23739 209.95535 209.77131 209.64326 209.57922 209.91818 210.31214 210.70910
 211.51006 212.69602 213.95398 215.74494 217.68090 219.73186 221.83482 223.92578
 225.99374 228.08570 230.19066 232.30462 234.44158 236.62154 238.88550 241.26346
 243.89242 246.15138 248.16134 249.93430 251.35926 252.49022 253.32018 253.64413
 253.68909 253.47105 252.83901 251.79497 250.40893 248.57789 246.49485 244.33581
 242.13477 239.94673 237.77469 235.62165 233.48961 231.36457 229.39853 227.56349
 225.85445 224.33441 222.97237 221.75233 220.64229 219.61025 218.72221 217.87117
 217.12113 216.30909 215.41505 214.78700 214.24496 214.09212 213.72952 213.35652
 212.41585 211.41779 212.06490 214.35999 217.59523 221.72388 226.96585 231.51135
 235.38664 239.70280 244.05566 248.11194 251.79768 255.31335 258.72824 261.97189
 264.94720 267.62851 270.03815 272.12708 273.81555 275.30359 276.83481 278.50543
 280.15485 281.87973 283.45639 284.95291 286.34409 287.57495 288.69791 289.71521
 290.63019 291.44498 292.15674 293.06381
 366.78100 356.34570 345.78840 334.66510 323.07881 311.28351 299.16421 286.97791
 274.70061 262.60831 250.62801 239.93972 230.07242 221.18712 213.37982 206.39252
 200.23722 195.18593 191.77863 189.83133 188.87903 188.95373 189.79943 191.11813
 192.85384 194.95954 197.23324 199.60294 202.05864 204.54934 206.64804 208.50075
 210.13745 211.29315 211.53285 211.77155 211.71925 211.43496 211.07866 210.71936
 210.34706 210.06776 209.88646 209.76116 209.69987 210.04157 210.43827 210.83797
 211.64167 212.83037 214.09107 215.88478 217.82348 219.87718 221.98288 224.07658
 226.14728 228.24199 230.34969 232.46639 234.60609 236.78879 239.05549 241.43619
 244.06790 246.32960 248.34230 250.11800 251.54570 252.67940 253.51210 253.83881
 253.88651 253.67121 253.04191 252.00061 250.61731 248.78902 246.70872 244.55242
 242.35412 240.16882 237.99952 235.84922 233.71993 231.59763 229.63433 227.80203
 226.09573 224.57843 223.21913 222.00184 220.89454 219.86524 218.97994 218.13164
 217.38434 216.57505 215.68375 215.05845 214.51915 214.26347 213.68301 213.30789
 212.45480 211.50079 212.00778 214.24521 217.59549 221.72458 227.11566 231.64789
 235.45964 239.70898 243.99451 248.02991 251.77293 255.35712 258.83163 262.12286
 265.12320 267.81506 270.19464 272.18646 273.80447 275.23395 276.63043 278.50092
 280.65015 282.87643 284.91907 286.71265 288.26483 289.63809 290.89102 292.02606
 293.04691 293.95599 294.75015 295.76221
 366.78100 356.34624 345.78949 334.66673 323.08098 311.28622 299.16746 286.98171
 274.70495 262.61320 250.63344 239.94568 230.07893 221.19417 213.38742 206.40066
 200.24590 195.19515 191.78839 189.84164 188.88988 188.96512 189.81137 191.13061
 192.86685 194.97310 197.24734 199.61759 202.07383 204.56507 206.66432 208.51756
 210.15481 211.31105 211.55129 211.79054 211.73878 211.45503 211.09927 210.74051
 210.36876 210.09000 209.90925 209.78449 209.72373 210.06598 210.46322 210.86347
 211.66771 212.85695 214.11820 215.91244 217.85169 219.90593 222.01217 224.10642
 226.17766 228.27291 230.38115 232.49839 234.63864 236.82188 239.08912 241.47037
 244.10261 246.36486 248.37810 250.15434 251.58259 252.71683 253.55008 253.87732
 253.92556 253.71081 253.08205 252.04130 250.65854 248.83078 246.75103 244.59527
 242.39752 240.21276 238.04400 235.89425 233.76549 231.64374 229.68098 227.84922
 226.14347 224.62671 223.26796 222.05120 220.94444 219.91569 219.03093 218.18318
 217.43642 216.62766 215.73691 215.11215 214.57339 214.30334 213.69539 213.35913
 212.57738 211.56761 211.83823 213.97557 217.42003 221.70532 227.12451 231.68068
 235.48361 239.72054 243.99178 248.01131 251.74178 255.33623 258.84879 262.19971
 265.27222 268.01376 270.41470 272.42352 273.99371 275.28818 276.47180 278.56097
 280.71478 282.96515 285.08249 286.94168 288.55063 289.97415 291.27292 292.44949
 293.50769 294.45001 295.27322 296.32230
 366.78100 356.34463 345.78626 334.66190 323.07453 311.27816 299.15779 286.97042
 274.69206 262.59869 250.61732 239.92795 230.05958 221.17322 213.36485 206.37648
 200.22011 195.16774 191.75938 189.81101 188.85764 188.93127 189.77590 191.09354
 192.82817 194.93280 197.20543 199.57406 202.02870 204.51833 206.61596 208.46759
 210.10322 211.25786 211.49649 211.73412 211.68075 211.39538 211.03802 210.67765
 210.30428 210.02391 209.84154 209.71518 209.65281 209.99344 210.38907 210.78770
 211.59034 212.77797 214.03760 215.83023 217.76786 219.82050 221.92513 224.01776
 226.08739 228.18102 230.28766 232.40329 234.54192 236.72355 238.98918 241.36882
 243.99945 246.26008 248.27171 250.04634 251.47298 252.60561 253.43724 253.76287
 253.80950 253.59314 252.96277 251.92040 250.53603 248.70666 246.62530 244.46793
 242.26856 240.08219 237.91182 235.76046 233.63009 231.50672 229.54235 227.70898
 226.00162 224.48325 223.12288 221.90451 220.79614 219.76578 218.87941 218.03004
 217.28167 216.47130 215.57894 214.95257 214.41220 214.23779 213.78706 213.33144
 212.79684 211.83693 211.83182 213.73436 217.12856 221.55327 226.94952 231.58571
 235.41351 239.66438 243.93024 247.93404 251.64528 255.23393 258.76163 262.14706
 265.28030 268.04446 270.41876 272.42523 274.05829 275.47369 276.74210 278.51251
 280.64682 282.61191 284.56784 286.28528 287.77158 289.08658 290.28632 291.37317
 292.35071 293.22119 293.98163 294.95074
 366.78100 356.34293 345.78285 334.65678 323.06770 311.26963 299.14755 286.95848
 274.67840 262.58333 250.60025 239.90918 230.03910 221.15103 213.34095 206.35088
 200.19281 195.13873 191.72866 189.77858 188.82351 188.89543 189.73836 191.05428
 192.78721 194.89013 197.16106 199.52798 201.98091 204.46883 206.56476 208.41468
 210.04861 211.20154 211.43846 211.67439 211.61931 211.33224 210.97316 210.61109
 210.23601 209.95394 209.76986 209.64179 209.57771 209.91664 210.31056 210.70749
 211.50842 212.69434 213.95227 215.74319 217.67912 219.73004 221.83297 223.92389
 225.99182 228.08374 230.18867 232.30259 234.43952 236.61944 238.88337 241.26129
 243.89022 246.14915 248.15907 249.93200 251.35692 252.48785 253.31777 253.64170
 253.68662 253.46855 252.83647 251.79240 250.40632 248.57525 246.49217 244.33310
 242.13203 239.94395 237.77188 235.61880 233.48673 231.36165 229.39558 227.56050
 225.85143 224.33135 222.96928 221.74920 220.63913 219.60705 218.71898 217.86790
 217.11783 216.30576 215.41168 214.78361 214.24153 214.17636 213.90279 213.19246
 212.77145 212.19681 212.18097 213.77206 216.94403 221.36035 226.69946 231.39738
 235.26524 239.53911 243.80608 247.80704 251.52884 255.15363 258.72995 262.16638
 265.36621 268.18689 270.55927 272.51825 274.10947 275.57422 276.94150 278.61774
 280.75443 282.74387 284.69345 286.40530 287.88678 289.19748 290.39331 291.47665
 292.45099 293.31866 294.07663 295.04257
 366.78100 356.34348 345.78397 334.65845 323.06994 311.27242 299.15091 286.96239
 274.68288 262.58836 250.60584 239.91533 230.04581 221.15830 213.34878 206.35927
 200.20175 195.14823 191.73872 189.78920 188.83469 188.90717 189.75066 191.06714
 192.80063 194.90411 197.17559 199.54308 201.99656 204.48505 206.58153 208.43202
 210.06650 211.21999 211.45747 211.69395 211.63944 211.35292 210.99441 210.63289
 210.25838 209.97686 209.79334 209.66583 209.60231 209.94180 210.33628 210.73377
 211.53525 212.72174 213.98022 215.77170 217.70819 219.75967 221.86316 223.95464
 226.02313 228.11561 230.22109 232.33558 234.47306 236.65355 238.91803 241.29652
 243.92600 246.18549 248.19597 249.96945 251.39494 252.52642 253.35691 253.68139
 253.72688 253.50936 252.87785 251.83433 250.44881 248.61830 246.53578 244.37727
 242.17675 239.98924 237.81772 235.66520 233.53369 231.40917 229.44366 227.60914
 225.90063 224.38111 223.01960 221.80008 220.69056 219.65905 218.77153 217.92102
 217.17150 216.35999 215.46647 214.83896 214.29744 214.20819 213.92110 213.22208
 212.51935 212.19473 212.51155 214.14392 217.11093 221.37175 226.59779 231.29848
 235.16054 239.42311 243.65698 247.62747 251.34787 255.00461 258.62979 262.12094
 265.40198 268.28610 270.65863 272.55914 274.07944 275.52536 277.00595 278.82959
 280.96683 282.86179 284.77222 286.46210 287.92456 289.21844 290.39896 291.46838
 292.43024 293.28674 294.03500 294.98856
 366.78100 356.34620 345.78941 334.66661 323.08081 311.28602 299.16722 286.98143
 274.70463 262.61283 250.63304 239.94524 230.07844 221.19365 213.38685 206.40005
 200.24526 195.19446 191.78767 189.84087 188.88907 188.96428 189.81048 191.12968
 192.86589 194.97209 197.24630 199.61650 202.07270 204.56391 206.66311 208.51631
 210.15352 211.30972 211.54992 211.78913 211.73733 211.45354 211.09774 210.73894
 210.36715 210.08835 209.90755 209.78276 209.72196 210.06416 210.46137 210.86157
 211.66578 212.85498 214.11618 215.91039 217.84959 219.90379 222.01000 224.10420
 226.17541 228.27061 230.37881 232.49602 234.63622 236.81942 239.08663 241.46783
 244.10003 246.36224 248.37544 250.15165 251.57985 252.71405 253.54726 253.87446
 253.92266 253.70787 253.07907 252.03827 250.65548 248.82768 246.74789 244.59209
 242.39429 240.20950 238.04070 235.89090 233.76211 231.64031 229.67752 227.84572
 226.13992 224.62313 223.26433 222.04753 220.94074 219.91194 219.02714 218.17935
 217.43255 216.62376 215.73296 215.10816 214.56937 214.34157 213.82547 213.41696
 212.48668 211.83101 212.31378 214.31346 217.37903 221.55096 226.72626 231.36110
 235.19858 239.43834 243.64282 247.56700 251.23134 254.84563 258.44794 261.94409
 265.26266 268.20279 270.58701 272.44165 273.87476 275.30957 276.89423 278.85199
 280.98288 282.89362 284.73172 286.38431 287.81451 289.07983 290.23428 291.28012
 292.22073 293.05835 293.79007 294.72260
 366.78100 356.34759 345.79219 334.67078 323.08637 311.29296 299.17556 286.99115
 274.71574 262.62534 250.64693 239.96052 230.09511 221.21171 213.40630 206.42089
 200.26749 195.21808 191.81267 189.86726 188.91686 188.99345 189.84104 191.16163
 192.89923 195.00682 197.28241 199.65401 202.11160 204.60419 206.70478 208.55938
 210.19797 211.35556 211.59716 211.83775 211.78734 211.50493 211.15053 210.79312
 210.42271 210.14531 209.96590 209.84249 209.78308 210.12668 210.52527 210.92686
 211.73246 212.92305 214.18564 215.98123 217.92183 219.97742 222.08501 224.18061
 226.25320 228.34979 230.45938 232.57798 234.71957 236.90416 239.17276 241.55535
 244.18894 246.45253 248.46713 250.24472 251.67431 252.80990 253.64450 253.97309
 254.02268 253.80928 253.18187 252.14246 250.76105 248.93465 246.85624 244.70183
 242.50543 240.32202 238.15461 236.00620 233.87880 231.75839 229.79698 227.96658
 226.26217 224.74676 223.38935 222.17395 221.06854 220.04113 219.15773 218.31132
 217.56591 216.75850 215.86910 215.24569 214.70828 214.42670 213.79036 213.47331
 212.71204 211.61090 211.92201 214.11604 217.40622 221.62302 226.87636 231.47205
 235.29741 239.53244 243.74718 247.68005 251.32336 254.88512 258.41998 261.85294
 265.15286 268.10678 270.51416 272.36398 273.76007 275.17310 276.84918 278.84845
 280.98773 282.93198 284.80399 286.47226 287.91602 289.19339 290.35876 291.41452
 292.36407 293.20966 293.94833 294.88968
 366.78100 356.34538 345.78777 334.66415 323.07753 311.28191 299.16230 286.97568
 274.69806 262.60544 250.62483 239.93621 230.06859 221.18297 213.37536 206.38774
 200.23212 195.18050 191.77289 189.82527 188.87265 188.94703 189.79242 191.11080
 192.84618 194.95156 197.22495 199.59433 202.04971 204.54010 206.63848 208.49086
 210.12724 211.28263 211.52201 211.76039 211.70777 211.42316 211.06654 210.70692
 210.33430 210.05469 209.87307 209.74745 209.68583 210.02722 210.42360 210.82298
 211.62636 212.81475 214.07513 215.86851 217.80689 219.86028 221.96566 224.05904
 226.12942 228.22381 230.33119 232.44757 234.58696 236.76934 239.03572 241.41610
 244.04749 246.30887 248.32125 250.09663 251.52402 252.65740 253.48978 253.81616
 253.86355 253.64793 253.01831 251.97669 250.59308 248.76446 246.68384 244.52722
 242.32861 240.14299 237.97337 235.82275 233.69314 231.57052 229.60690 227.77429
 226.06767 224.55005 223.19043 221.97282 220.86520 219.83558 218.94996 218.10135
 217.35373 216.54411 215.65249 215.02688 214.48726 214.33357 213.91531 213.36716
 212.91441 211.74155 211.77794 213.78513 217.16797 221.53813 226.78836 231.45760
 235.31317 239.58488 243.83801 247.81146 251.47095 255.01527 258.51117 261.88654
 265.12775 268.09781 270.58072 272.44666 273.82660 275.19931 276.99829 278.88690
 280.92526 282.81259 284.52841 286.17355 287.59729 288.85690 290.00613 291.04724
 291.98361 292.81744 293.54587 294.47418
 366.78100 356.34162 345.78024 334.65286 323.06249 311.26311 299.13973 286.94935
 274.66797 262.57159 250.58721 239.89483 230.02346 221.13408 213.32270 206.33132
 200.17194 195.11656 191.70518 189.75380 188.79743 188.86805 189.70967 191.02429
 192.75591 194.85753 197.12715 199.49278 201.94440 204.43102 206.52564 208.37426
 210.00688 211.15850 211.39412 211.62875 211.57237 211.28399 210.92361 210.56023
 210.18385 209.90047 209.71509 209.58572 209.52034 209.85796 210.25058 210.64620
 211.44582 212.63044 213.88706 215.67669 217.61131 219.66093 221.76255 223.85217
 225.91879 228.00941 230.11304 232.22566 234.36128 236.53990 238.80252 241.17914
 243.80676 246.06438 248.07301 249.84463 251.26825 252.39787 253.22649 253.54911
 253.59273 253.37335 252.73998 251.69460 250.30722 248.47484 246.39046 244.23008
 242.02770 239.83833 237.66495 235.51057 233.37719 231.25081 229.28343 227.44705
 225.73667 224.21530 222.85192 221.63054 220.51916 219.48578 218.59640 217.74402
 216.99264 216.17927 215.28389 214.65451 214.11113 214.15190 214.14508 213.25706
 212.84567 212.11760 211.93753 213.55031 216.85118 221.27777 226.55902 231.29698
 235.19482 239.47868 243.75450 247.78404 251.50902 255.09583 258.60919 261.95410
 265.13498 268.05945 270.54803 272.48743 273.92972 275.32266 277.12231 279.07553
 280.88974 282.69250 284.28687 285.70654 287.09283 288.33548 289.46924 290.49631
 291.42007 292.24268 292.96130 293.87708
 366.78100 356.34194 345.78088 334.65382 323.06376 311.26470 299.14164 286.95158
 274.67052 262.57446 250.59040 239.89834 230.02728 221.13822 213.32716 206.33610
 200.17704 195.12198 191.71092 189.75986 188.80380 188.87474 189.71668 191.03162
 192.76356 194.86550 197.13544 199.50138 201.95332 204.44026 206.53520 208.38414
 210.01708 211.16902 211.40496 211.63990 211.58384 211.29578 210.93572 210.57266
 210.19660 209.91354 209.72848 209.59942 209.53436 209.87230 210.26524 210.66118
 211.46112 212.64606 213.90300 215.69293 217.62787 219.67781 221.77975 223.86969
 225.93663 228.02757 230.13151 232.24445 234.38039 236.55933 238.82227 241.19921
 243.82715 246.08509 248.09403 249.86597 251.28991 252.41985 253.24879 253.57173
 253.61567 253.39661 252.76355 251.71849 250.33143 248.49937 246.41531 244.25525
 242.05319 239.86413 237.69107 235.53701 233.40395 231.27789 229.31083 227.47477
 225.76471 224.24365 222.88059 221.65953 220.54847 219.51541 218.62635 217.77429
 217.02323 216.21017 215.31511 214.68605 214.14299 214.17073 214.16357 213.38753
 212.59361 212.20844 212.34755 213.74030 216.76410 221.11530 226.37398 231.10709
 235.01282 239.28729 243.55200 247.60112 251.40109 255.09109 258.67828 262.04739
 265.21088 268.09293 270.55502 272.49838 273.91299 275.24112 277.04892 279.06314
 280.94131 282.65149 284.21387 285.60538 286.94177 288.16718 289.28519 290.29803
 291.20898 292.02017 292.72882 293.63190
 366.78100 356.34548 345.78795 334.66443 323.07790 311.28238 299.16285 286.97633
 274.69880 262.60628 250.62576 239.93723 230.06971 221.18418 213.37666 206.38913
 200.23361 195.18208 191.77456 189.82703 188.87451 188.94899 189.79446 191.11294
 192.84841 194.95389 197.22736 199.59684 202.05231 204.54279 206.64127 208.49374
 210.13022 211.28569 211.52517 211.76364 211.71112 211.42659 211.07007 210.71055
 210.33802 210.05850 209.87697 209.75145 209.68992 210.03140 210.42787 210.82735
 211.63082 212.81930 214.07978 215.87325 217.81173 219.86520 221.97068 224.06415
 226.13463 228.22910 230.33658 232.45306 234.59253 236.77501 239.04148 241.42196
 244.05343 246.31491 248.32738 250.10286 251.53034 252.66381 253.49629 253.82276
 253.87024 253.65471 253.02519 251.98366 250.60014 248.77161 246.69109 244.53457
 242.33604 240.15052 237.98099 235.83047 233.70094 231.57842 229.61489 227.78237
 226.07585 224.55832 223.19880 221.98127 220.87375 219.84422 218.95870 218.11017
 217.36265 216.55312 215.66160 215.03608 214.49655 214.36073 214.02872 213.55360
 212.54912 212.00627 212.49379 214.08278 216.97670 221.18401 226.38071 231.04742
 234.91823 239.16748 243.39777 247.43192 251.27075 255.04044 258.69577 262.12378
 265.30438 268.16028 270.59906 272.50162 273.90601 275.27844 277.03738 279.04340
 280.96255 282.77005 284.38776 285.99960 287.43152 288.69839 289.85425 290.90134
 291.84311 292.68173 293.41437 294.34799
 366.78100 356.34518 345.78737 334.66355 323.07673 311.28091 299.16110 286.97428
 274.69646 262.60364 250.62283 239.93401 230.06619 221.18037 213.37256 206.38474
 200.22892 195.17710 191.76929 189.82147 188.86865 188.94283 189.78802 191.10620
 192.84138 194.94656 197.21975 199.58893 202.04411 204.53429 206.63248 208.48466
 210.12084 211.27602 211.51521 211.75339 211.70057 211.41575 211.05894 210.69912
 210.32630 210.04648 209.86467 209.73885 209.67703 210.01821 210.41440 210.81358
 211.61676 212.80494 214.06513 215.85831 217.79649 219.84967 221.95486 224.04804
 226.11822 228.21241 230.31959 232.43577 234.57495 236.75714 239.02332 241.40350
 244.03468 246.29587 248.30805 250.08323 251.51041 252.64360 253.47578 253.80196
 253.84914 253.63333 253.00351 251.96169 250.57787 248.74906 246.66824 244.51142
 242.31260 240.12679 237.95697 235.80615 233.67633 231.55352 229.58970 227.75688
 226.05006 224.53225 223.17243 221.95461 220.84679 219.81698 218.93116 218.08234
 217.33452 216.52471 215.63289 215.00707 214.46725 214.36371 214.08885 213.58504
 212.64986 211.77089 212.27284 214.16043 217.13530 221.29756 226.49277 231.09079
 234.92508 239.13541 243.33203 247.34097 251.17609 254.96886 258.66180 262.13004
 265.34897 268.22867 270.68289 272.60379 274.00394 275.28192 277.04822 279.05893
 281.05725 282.88498 284.51767 286.14920 287.57889 288.84378 289.99780 291.04327
 291.98355 292.82089 293.55237 294.48453
 366.78100 356.34330 345.78361 334.65791 323.06921 311.27151 299.14982 286.96112
 274.68142 262.58673 250.60403 239.91333 230.04364 221.15594 213.34624 206.35654
 200.19885 195.14515 191.73545 189.78576 188.83106 188.90336 189.74667 191.06297
 192.79627 194.89957 197.17088 199.53818 201.99148 204.47979 206.57609 208.42639
 210.06069 211.21400 211.45130 211.68760 211.63291 211.34621 210.98751 210.62582
 210.25112 209.96942 209.78572 209.65803 209.59433 209.93363 210.32794 210.72524
 211.52654 212.71285 213.97115 215.76245 217.69875 219.75006 221.85336 223.94466
 226.01297 228.10527 230.21057 232.32488 234.46218 236.64248 238.90678 241.28509
 243.91439 246.17369 248.18400 249.95730 251.38260 252.51390 253.34421 253.66851
 253.71381 253.49612 252.86442 251.82072 250.43503 248.60433 246.52163 244.36293
 242.16224 239.97454 237.80284 235.65015 233.51845 231.39375 229.42806 227.59336
 225.88466 224.36496 223.00327 221.78357 220.67387 219.64218 218.75448 217.90378
 217.15408 216.34239 215.44869 214.82099 214.27930 214.28278 214.21985 213.57271
 212.83749 211.76024 211.96257 213.91646 217.07146 221.30467 226.53377 231.12927
 234.94867 239.13536 243.31235 247.29607 251.09444 254.87526 258.57208 262.05017
 265.28915 268.18964 270.66000 272.64435 274.06335 275.36523 277.09439 279.12503
 281.06134 282.84064 284.42529 285.88190 287.22916 288.42114 289.50864 290.49384
 291.37991 292.16898 292.85831 293.73672
 366.78100 356.34307 345.78314 334.65721 323.06828 311.27035 299.14843 286.95950
 274.67957 262.58464 250.60171 239.91078 230.04085 221.15292 213.34299 206.35306
 200.19513 195.14121 191.73128 189.78135 188.82642 188.89849 189.74156 191.05763
 192.79070 194.89377 197.16484 199.53191 201.98498 204.47306 206.56913 208.41920
 210.05327 211.20634 211.44341 211.67948 211.62455 211.33762 210.97869 210.61676
 210.24184 209.95991 209.77598 209.64805 209.58412 209.92319 210.31726 210.71433
 211.51540 212.70147 213.95954 215.75062 217.68669 219.73776 221.84083 223.93190
 225.99997 228.09204 230.19711 232.31118 234.44825 236.62832 238.89239 241.27047
 243.89954 246.15861 248.16868 249.94175 251.36682 252.49789 253.32796 253.65203
 253.69710 253.47917 252.84725 251.80332 250.41739 248.58646 246.50353 244.34460
 242.14367 239.95574 237.78381 235.63088 233.49895 231.37403 229.40810 227.57317
 225.86424 224.34431 222.98238 221.76245 220.65252 219.62059 218.73266 217.88173
 217.13180 216.31988 215.42595 214.79802 214.25609 214.29102 214.28021 213.55898
 212.90199 211.94844 211.95995 213.71663 216.89145 221.21022 226.50652 231.11743
 234.94034 239.13060 243.31392 247.29504 251.08899 254.85800 258.54272 262.01212
 265.25064 268.15326 270.63354 272.63641 274.05753 275.36758 277.09946 279.13480
 281.07748 282.86621 284.46088 285.94818 287.28290 288.46381 289.54120 290.51724
 291.39508 292.17682 292.85971 293.72998
 366.78100 356.34353 345.78406 334.65860 323.07013 311.27266 299.15119 286.96273
 274.68326 262.58879 250.60632 239.91586 230.04639 221.15892 213.34945 206.35998
 200.20252 195.14905 191.73958 189.79011 188.83565 188.90818 189.75171 191.06824
 192.80178 194.90531 197.17684 199.54437 201.99790 204.48644 206.58297 208.43350
 210.06803 211.22157 211.45910 211.69563 211.64116 211.35470 210.99623 210.63476
 210.26029 209.97882 209.79536 209.66789 209.60442 209.94395 210.33849 210.73602
 211.53755 212.72408 213.98262 215.77415 217.71068 219.76221 221.86574 223.95728
 226.02581 228.11834 230.22387 232.33841 234.47594 236.65647 238.92100 241.29954
 243.92907 246.18860 248.19913 249.97266 251.39820 252.52973 253.36026 253.68479
 253.73033 253.51286 252.88139 251.83792 250.45246 248.62199 246.53952 244.38105
 242.18058 239.99312 237.82165 235.66918 233.53771 231.41325 229.44778 227.61331
 225.90484 224.38538 223.02391 221.80444 220.69497 219.66350 218.77604 217.92557
 217.17610 216.36463 215.47117 214.84370 214.30223 214.33246 214.30995 213.58470
 212.81548 212.05020 212.09334 213.69101 216.78737 221.13243 226.47231 231.10060
 234.92110 239.11871 243.31174 247.31123 251.11678 254.88269 258.55624 262.01230
 265.24554 268.15439 270.65308 272.65070 274.09454 275.37225 277.14404 279.17224
 281.11740 282.90778 284.52005 286.05261 287.39294 288.57880 289.66071 290.64084
 291.52237 292.30737 292.99313 293.86707
 366.78100 356.34409 345.78517 334.66026 323.07235 311.27544 299.15452 286.96661
 274.68770 262.59378 250.61187 239.92196 230.05305 221.16613 213.35722 206.36831
 200.21139 195.15848 191.74957 189.80066 188.84674 188.91983 189.76392 191.08100
 192.81509 194.91918 197.19127 199.55935 202.01344 204.50253 206.59961 208.45070
 210.08579 211.23987 211.47796 211.71505 211.66114 211.37522 211.01731 210.65640
 210.28248 210.00157 209.81866 209.69175 209.62883 209.96892 210.36401 210.76209
 211.56418 212.75127 214.01036 215.80244 217.73953 219.79162 221.89570 223.98779
 226.05688 228.14997 230.25605 232.37114 234.50923 236.69031 238.95540 241.33449
 243.96458 246.22466 248.23575 250.00984 251.43592 252.56801 253.39910 253.72419
 253.77027 253.55336 252.92245 251.87953 250.49462 248.66471 246.58280 244.42488
 242.22497 240.03806 237.86714 235.71523 233.58432 231.46041 229.49549 227.66158
 225.95367 224.43475 223.07384 221.85493 220.74601 219.71510 218.82819 217.97828
 217.22936 216.41845 215.52554 214.89862 214.35771 214.37703 214.33769 213.64706
 212.76265 212.07265 212.17387 213.71483 216.72638 221.06239 226.40466 231.03682
 234.85446 239.05385 243.25755 247.28113 251.11588 254.90193 258.57910 262.02359
 265.24438 268.15399 270.65894 272.66531 274.11890 275.36740 277.15369 279.18848
 281.19464 283.03452 284.69287 286.21954 287.54074 288.70966 289.77612 290.74225
 291.61118 292.38498 293.06094 293.92239
 366.78100 356.34410 345.78521 334.66031 323.07241 311.27551 299.15462 286.96672
 274.68782 262.59392 250.61203 239.92213 230.05323 221.16633 213.35744 206.36854
 200.21164 195.15874 191.74985 189.80095 188.84705 188.92015 189.76426 191.08136
 192.81546 194.91956 197.19167 199.55977 202.01387 204.50297 206.60008 208.45118
 210.08628 211.24038 211.47849 211.71559 211.66169 211.37579 211.01790 210.65700
 210.28310 210.00220 209.81931 209.69241 209.62951 209.96961 210.36472 210.76282
 211.56492 212.75202 214.01113 215.80323 217.74033 219.79243 221.89654 223.98864
 226.05774 228.15084 230.25695 232.37205 234.51015 236.69125 238.95636 241.33546
 243.96556 246.22566 248.23677 250.01087 251.43697 252.56907 253.40018 253.72528
 253.77138 253.55448 252.92359 251.88069 250.49579 248.66589 246.58400 244.42610
 242.22620 240.03930 237.86841 235.71651 233.58561 231.46171 229.49682 227.66292
 225.95502 224.43613 223.07523 221.85633 220.74743 219.71654 218.82964 217.97974
 217.23084 216.41995 215.52705 214.90015 214.35925 214.39542 214.39114 213.67062
 212.73758 212.10431 212.23109 213.77628 216.72610 221.02115 226.31294 230.94083
 234.75055 238.95169 243.16260 247.21162 251.08881 254.91661 258.62152 262.06827
 265.28101 268.19302 270.71475 272.75391 274.20221 275.37085 277.14044 279.13123
 281.12091 282.96420 284.60873 286.15228 287.48810 288.66995 289.74820 290.72501
 291.60358 292.38593 293.06937 293.94034
 366.78100 356.34305 345.78311 334.65716 323.06822 311.27027 299.14832 286.95938
 274.67943 262.58449 250.60154 239.91059 230.04065 221.15270 213.34276 206.35281
 200.19486 195.14092 191.73097 189.78102 188.82608 188.89813 189.74119 191.05724
 192.79029 194.89335 197.16440 199.53146 201.98451 204.47256 206.56862 208.41867
 210.05273 211.20578 211.44283 211.67889 211.62394 211.33700 210.97805 210.61610
 210.24116 209.95921 209.77527 209.64732 209.58337 209.92243 210.31648 210.71354
 211.51459 212.70064 213.95870 215.74975 217.68581 219.73686 221.83991 223.93097
 225.99902 228.09107 230.19613 232.31018 234.44724 236.62729 238.89134 241.26940
 243.89845 246.15751 248.16756 249.94061 251.36567 252.49672 253.32678 253.65083
 253.69588 253.47794 252.84599 251.80205 250.41610 248.58515 246.50221 244.34326
 242.14232 239.95437 237.78242 235.62948 233.49753 231.37259 229.40664 227.57169
 225.86275 224.34280 222.98086 221.76091 220.65096 219.61902 218.73107 217.88012
 217.13018 216.31823 215.42429 214.79634 214.25439 214.35854 214.49869 213.69193
 212.70816 212.05914 212.22194 213.83563 216.79158 221.01964 226.24886 230.85318
 234.65480 238.84700 243.05188 247.11110 251.02275 254.89198 258.63043 262.08450
 265.29230 268.21246 270.76230 272.87561 274.35388 275.54214 277.20685 279.15781
 280.93842 282.67105 284.27612 285.75037 287.06464 288.22745 289.28833 290.24942
 291.11380 291.88354 292.55597 293.41290
 366.78100 356.34176 345.78053 334.65329 323.06306 311.26382 299.14058 286.95035
 274.66911 262.57288 250.58864 239.89640 230.02517 221.13593 213.32470 206.33346
 200.17422 195.11899 191.70775 189.75652 188.80028 188.87104 189.71281 191.02757
 192.75934 194.86110 197.13086 199.49663 201.94839 204.43516 206.52992 208.37868
 210.01145 211.16321 211.39897 211.63374 211.57750 211.28927 210.92903 210.56579
 210.18956 209.90632 209.72109 209.59185 209.52661 209.86438 210.25714 210.65291
 211.45267 212.63743 213.89420 215.68396 217.61873 219.66849 221.77025 223.86002
 225.92678 228.01755 230.12131 232.23407 234.36984 236.54860 238.81137 241.18813
 243.81589 246.07366 248.08242 249.85419 251.27795 252.40771 253.23648 253.55924
 253.60301 253.38377 252.75053 251.70530 250.31806 248.48583 246.40159 244.24135
 242.03912 239.84988 237.67665 235.52241 233.38917 231.26294 229.29570 227.45947
 225.74923 224.22799 222.86476 221.64352 220.53228 219.49905 218.60981 217.75758
 217.00634 216.19310 215.29787 214.66863 214.12540 214.31375 214.62111 213.69595
 212.75195 212.00021 212.11089 213.83443 216.86020 221.05646 226.23576 230.81396
 234.59309 238.76649 242.95432 247.01805 250.95538 254.85699 258.61444 262.06747
 265.26883 268.18750 270.75870 272.91843 274.42020 275.64194 277.28915 279.22778
 280.92264 282.55643 284.15875 285.61636 286.92108 288.07544 289.12860 290.08270
 290.94083 291.70496 292.37250 293.22321
 366.78100 356.34229 345.78159 334.65488 323.06517 311.26646 299.14376 286.95405
 274.67334 262.57764 250.59393 239.90222 230.03152 221.14281 213.33210 206.34139
 200.18269 195.12798 191.71727 189.76657 188.81086 188.88215 189.72445 191.03974
 192.77203 194.87432 197.14462 199.51091 201.96320 204.45050 206.54579 208.39508
 210.02838 211.18067 211.41696 211.65225 211.59655 211.30884 210.94913 210.58643
 210.21072 209.92801 209.74331 209.61460 209.54989 209.88818 210.28148 210.67777
 211.47806 212.66336 213.92065 215.71094 217.64624 219.69653 221.79882 223.88911
 225.95641 228.04770 230.15199 232.26529 234.40158 236.58087 238.84417 241.22146
 243.84975 246.10804 248.11734 249.88963 251.31392 252.44422 253.27351 253.59680
 253.64110 253.42239 252.78968 251.74497 250.35827 248.52656 246.44285 244.28315
 242.08144 239.89273 237.72003 235.56632 233.43361 231.30790 229.34120 227.50549
 225.79578 224.27508 222.91237 221.69166 220.58096 219.54825 218.65954 217.80783
 217.05713 216.24442 215.34971 214.72101 214.17830 214.36128 214.64767 213.75107
 212.79866 211.95708 212.02364 213.81702 216.91425 221.10393 226.28687 230.81659
 234.58138 238.73943 242.90891 246.96304 250.91090 254.82327 258.58115 262.02844
 265.21942 268.14145 270.73987 272.91489 274.49667 275.72311 277.29254 279.12799
 280.77570 282.49805 284.12985 285.58252 286.84253 287.95731 288.97437 289.89575
 290.72443 291.46237 292.10703 292.92859
 366.78100 356.34490 345.78681 334.66271 323.07561 311.27952 299.15942 286.97232
 274.69422 262.60113 250.62003 239.93093 230.06284 221.17674 213.36864 206.38055
 200.22445 195.17235 191.76425 189.81616 188.86306 188.93696 189.78187 191.09977
 192.83467 194.93958 197.21248 199.58138 202.03628 204.52619 206.62409 208.47599
 210.11190 211.26680 211.50570 211.74361 211.69051 211.40541 211.04831 210.68822
 210.31512 210.03502 209.85293 209.72683 209.66473 210.00564 210.40154 210.80044
 211.60334 212.79125 214.05115 215.84405 217.78196 219.83486 221.93976 224.03267
 226.10257 228.19647 230.30337 232.41928 234.55818 236.74008 239.00599 241.38589
 244.01679 246.27770 248.28960 250.06450 251.49140 252.62431 253.45621 253.78211
 253.82902 253.61292 252.98282 251.94073 250.55663 248.72753 246.64643 244.48934
 242.29024 240.10414 237.93405 235.78295 233.65285 231.52976 229.56566 227.73256
 226.02546 224.50737 223.14727 221.92917 220.82108 219.79098 218.90488 218.05579
 217.30769 216.49759 215.60549 214.97940 214.43930 214.52203 214.58315 213.84709
 212.82986 211.95293 211.96976 213.73032 216.82829 221.05109 226.31334 230.81340
 234.56351 238.68930 242.85646 246.92397 250.89865 254.83037 258.57193 261.98990
 265.13925 268.02725 270.62894 272.81140 274.46323 275.87469 277.46335 279.18268
 280.95813 282.92081 284.69122 286.24579 287.59113 288.78140 289.86734 290.85114
 291.73593 292.52386 293.21219 294.08939
 366.78100 356.34776 345.79252 334.67128 323.08704 311.29380 299.17656 286.99232
 274.71708 262.62684 250.64860 239.96236 230.09712 221.21387 213.40863 206.42339
 200.27015 195.22091 191.81567 189.87043 188.92019 188.99695 189.84471 191.16547
 192.90323 195.01099 197.28675 199.65851 202.11627 204.60903 206.70979 208.56455
 210.20331 211.36107 211.60283 211.84359 211.79335 211.51111 211.15686 210.79962
 210.42938 210.15214 209.97290 209.84966 209.79042 210.13418 210.53294 210.93470
 211.74046 212.93122 214.19398 215.98974 217.93050 219.98626 222.09402 224.18978
 226.26254 228.35930 230.46906 232.58782 234.72958 236.91434 239.18310 241.56586
 244.19961 246.46337 248.47813 250.25589 251.68565 252.82141 253.65617 253.98493
 254.03469 253.82145 253.19421 252.15497 250.77373 248.94749 246.86925 244.71501
 242.51877 240.33553 238.16829 236.02005 233.89281 231.77257 229.81133 227.98109
 226.27685 224.76160 223.40436 222.18912 221.08388 220.05664 219.17340 218.32716
 217.58192 216.77468 215.88544 215.26220 214.72496 214.69592 214.52608 213.85809
 212.81554 211.88519 211.86797 213.83319 216.94724 221.02487 226.28163 230.78128
 234.53568 238.66174 242.83699 246.91891 250.90779 254.86766 258.62744 262.04822
 265.17645 268.01544 270.59055 272.80569 274.43631 275.72382 277.30020 279.64984
 282.10629 284.24490 286.09555 287.72055 289.12683 290.37106 291.50620 292.53458
 293.45947 294.28311 295.00262 295.91956
 366.78100 356.34655 345.79009 334.66764 323.08218 311.28773 299.16927 286.98382
 274.70736 262.61591 250.63645 239.94900 230.08254 221.19809 213.39163 206.40518
 200.25072 195.20027 191.79381 189.84736 188.89590 188.97145 189.81799 191.13754
 192.87408 194.98063 197.25517 199.62572 202.08226 204.57381 206.67335 208.52690
 210.16444 211.32099 211.56154 211.80108 211.74963 211.46617 211.11072 210.75226
 210.38081 210.10235 209.92190 209.79744 209.73699 210.07953 210.47708 210.87762
 211.68217 212.87171 214.13326 215.92780 217.86735 219.92189 222.02844 224.12298
 226.19453 228.29007 230.39862 232.51616 234.65671 236.84025 239.10780 241.48934
 244.12189 246.38444 248.39798 250.17453 251.60307 252.73762 253.57116 253.89871
 253.94725 253.73280 253.10434 252.06389 250.68143 248.85398 246.77452 244.61907
 242.42161 240.23716 238.06870 235.91925 233.79079 231.66934 229.70688 227.87543
 226.16997 224.65352 223.29506 222.07861 220.97215 219.94370 219.05924 218.21179
 217.46533 216.65688 215.76643 215.14197 214.60352 214.65263 214.61726 213.77599
 212.78781 211.91289 211.95874 213.74438 216.90971 221.13844 226.29062 230.84090
 234.57600 238.67802 242.82178 246.88362 250.87558 254.81052 258.55344 261.97546
 265.12991 268.03677 270.65192 272.84073 274.52719 275.93240 277.35367 278.94034
 280.84625 282.81158 284.58838 286.14856 287.49875 288.69333 289.78320 290.77054
 291.65854 292.44931 293.14014 294.02048
 366.78100 356.34429 345.78559 334.66088 323.07318 311.27647 299.15576 286.96806
 274.68935 262.59565 250.61394 239.92423 230.05553 221.16882 213.36012 206.37141
 200.21470 195.16200 191.75329 189.80459 188.85088 188.92417 189.76847 191.08576
 192.82006 194.92435 197.19664 199.56494 202.01923 204.50853 206.60582 208.45711
 210.09241 211.24670 211.48500 211.72229 211.66858 211.38288 211.02517 210.66447
 210.29076 210.01006 209.82735 209.70064 209.63794 209.97823 210.37353 210.77182
 211.57411 212.76141 214.02070 215.81300 217.75029 219.80258 221.90688 223.99917
 226.06847 228.16176 230.26805 232.38335 234.52164 236.70294 238.96823 241.34752
 243.97782 246.23811 248.24941 250.02370 251.44999 252.58229 253.41358 253.73888
 253.78517 253.56846 252.93776 251.89505 250.51035 248.68064 246.59893 244.44123
 242.24152 240.05482 237.88411 235.73240 233.60170 231.47799 229.51329 227.67958
 225.97187 224.45317 223.09246 221.87376 220.76505 219.73434 218.84764 217.99793
 217.24923 216.43852 215.54581 214.91911 214.37840 214.52748 214.79211 213.84351
 212.64731 211.65717 211.78577 213.69337 216.95053 221.17093 226.28018 230.84952
 234.59882 238.68546 242.82033 246.87029 250.83772 254.73224 258.44482 261.86469
 265.00970 267.90848 270.50647 272.72821 274.54248 276.09515 277.64032 279.18268
 280.54767 281.56778 282.37024 283.13745 284.33572 285.47983 286.52368 287.46933
 288.31982 289.07721 289.73883 290.58200
 366.78100 356.34416 345.78532 334.66048 323.07264 311.27579 299.15495 286.96711
 274.68827 262.59443 250.61259 239.92275 230.05391 221.16707 213.35823 206.36938
 200.21254 195.15970 191.75086 189.80202 188.84818 188.92134 189.76550 191.08266
 192.81682 194.92097 197.19313 199.56129 202.01545 204.50461 206.60177 208.45293
 210.08809 211.24225 211.48041 211.71756 211.66372 211.37788 211.02004 210.65920
 210.28536 210.00452 209.82168 209.69484 209.63200 209.97215 210.36731 210.76547
 211.56763 212.75479 214.01395 215.80611 217.74327 219.79543 221.89959 223.99174
 226.06090 228.15406 230.26022 232.37538 234.51354 236.69470 238.95986 241.33902
 243.96918 246.22933 248.24049 250.01465 251.44081 252.57297 253.40413 253.72929
 253.77545 253.55861 252.92777 251.88492 250.50008 248.67024 246.58840 244.43056
 242.23072 240.04388 237.87304 235.72120 233.59035 231.46651 229.50167 227.66783
 225.95999 224.44115 223.08031 221.86147 220.75263 219.72179 218.83494 217.98510
 217.23626 216.42542 215.53258 214.90574 214.36490 214.52037 214.84605 213.94061
 212.73871 211.49292 211.47122 213.41704 216.76413 221.04094 226.26546 230.76790
 234.58556 238.67657 242.83310 246.89749 250.87341 254.76726 258.46979 261.87082
 264.99884 267.89160 270.50641 272.76468 274.56586 276.02927 277.50470 279.03860
 280.45218 281.50134 282.17917 283.00369 283.92621 284.64981 285.62372 286.56824
 287.41772 288.17419 288.83502 289.67719
 366.78100 356.34418 345.78535 334.66053 323.07270 311.27588 299.15506 286.96723
 274.68841 262.59458 250.61276 239.92294 230.05411 221.16729 213.35846 206.36964
 200.21281 195.15999 191.75117 189.80234 188.84852 188.92169 189.76587 191.08305
 192.81722 194.92140 197.19357 199.56175 202.01593 204.50510 206.60228 208.45345
 210.08863 211.24281 211.48098 211.71816 211.66433 211.37851 211.02069 210.65986
 210.28604 210.00521 209.82239 209.69556 209.63274 209.97292 210.36809 210.76627
 211.56844 212.75562 214.01480 215.80697 217.74415 219.79632 221.90050 223.99268
 226.06185 228.15503 230.26120 232.37638 234.51456 236.69573 238.96091 241.34008
 243.97026 246.23044 248.24161 250.01579 251.44196 252.57414 253.40531 253.73049
 253.77667 253.55984 252.92902 251.88619 250.50137 248.67155 246.58972 244.43190
 242.23207 240.04525 237.87443 235.72260 233.59178 231.46795 229.50313 227.66931
 225.96148 224.44266 223.08183 221.86301 220.75419 219.72336 218.83654 217.98671
 217.23789 216.42706 215.53424 214.90742 214.36659 214.53593 214.89267 213.93925
 212.67874 211.46957 211.46573 213.40071 216.76321 221.04097 226.24840 230.75648
 234.58066 238.68750 242.86115 246.94055 250.92383 254.81824 258.51120 261.89062
 265.00003 267.88367 270.51089 272.81076 274.63327 276.09009 277.53970 279.00275
 280.32596 281.25024 281.82745 282.61258 283.64511 284.59851 285.54791 286.45404
 287.26898 287.99469 288.62866 289.43658
 366.78100 356.34509 345.78718 334.66326 323.07635 311.28044 299.16053 286.97361
 274.69570 262.60279 250.62188 239.93297 230.06505 221.17914 213.37123 206.38332
 200.22740 195.17549 191.76758 189.81967 188.86676 188.94084 189.78593 191.10402
 192.83911 194.94419 197.21728 199.58637 202.04146 204.53155 206.62963 208.48172
 210.11781 211.27290 211.51198 211.75007 211.69716 211.41225 211.05534 210.69542
 210.32251 210.04260 209.86069 209.73477 209.67286 210.01395 210.41004 210.80913
 211.61221 212.80030 214.06039 215.85348 217.79157 219.84465 221.94974 224.04283
 226.11292 228.20700 230.31409 232.43018 234.56927 236.75136 239.01744 241.39753
 244.02862 246.28971 248.30179 250.07688 251.50397 252.63706 253.46915 253.79523
 253.84232 253.62641 252.99650 251.95458 250.57067 248.74176 246.66085 244.50394
 242.30502 240.11911 237.94920 235.79829 233.66837 231.54546 229.58155 227.74864
 226.04173 224.52381 223.16390 221.94599 220.83808 219.80816 218.92225 218.07334
 217.32543 216.51552 215.62360 214.99769 214.45778 214.58742 214.87234 214.09885
 212.60991 211.36087 211.43513 213.41072 216.77000 221.00049 226.26538 230.75581
 234.59621 238.70412 242.88046 246.95186 250.92455 254.80260 258.47778 261.84027
 264.94009 267.82819 270.47910 272.81476 274.68250 276.18884 277.63528 279.03156
 280.30322 281.20041 281.71567 282.16345 282.94888 284.04611 285.04315 285.93866
 286.76025 287.49185 288.13098 288.94547
 366.78100 356.34671 345.79041 334.66812 323.08283 311.28853 299.17024 286.98495
 274.70865 262.61736 250.63806 239.95077 230.08448 221.20018 213.39389 206.40760
 200.25330 195.20301 191.79672 189.85042 188.89913 188.97484 189.82154 191.14125
 192.87795 194.98466 197.25937 199.63007 202.08678 204.57849 206.67819 208.53190
 210.16961 211.32631 211.56702 211.80673 211.75543 211.47214 211.11684 210.75855
 210.38726 210.10896 209.92867 209.80438 209.74408 210.08679 210.48450 210.88520
 211.68991 212.87962 214.14132 215.93603 217.87573 219.93044 222.03715 224.13185
 226.20356 228.29927 230.40797 232.52568 234.66639 236.85009 239.11780 241.49951
 244.13221 246.39492 248.40863 250.18533 251.61404 252.74874 253.58245 253.91016
 253.95886 253.74457 253.11628 252.07598 250.69369 248.86640 246.78710 244.63181
 242.43452 240.25022 238.08193 235.93263 233.80434 231.68305 229.72075 227.88946
 226.18417 224.66787 223.30958 222.09329 220.98699 219.95870 219.07441 218.22711
 217.48082 216.67252 215.78223 215.15794 214.61964 214.67487 214.80037 214.23012
 212.71944 211.25847 211.28998 213.34201 216.74077 220.93694 226.28709 230.75801
 234.61351 238.72069 242.89635 246.95625 250.91684 254.77858 258.43549 261.77463
 264.86130 267.75070 270.41895 272.78748 274.71332 276.26682 277.69861 279.05325
 280.26453 281.10120 281.54294 281.91476 282.71756 283.75391 284.75098 285.59561
 286.39789 287.12790 287.76559 288.57831
 366.78100 356.34709 345.79118 334.66927 323.08436 311.29045 299.17253 286.98762
 274.71171 262.62080 250.64189 239.95498 230.08907 221.20516 213.39925 206.41334
 200.25943 195.20952 191.80360 189.85769 188.90678 188.98287 189.82996 191.15005
 192.88714 194.99423 197.26932 199.64041 202.09750 204.58958 206.68967 208.54376
 210.18185 211.33894 211.58003 211.82012 211.76921 211.48630 211.13139 210.77348
 210.40257 210.12465 209.94474 209.82083 209.76092 210.10401 210.50210 210.90319
 211.70828 212.89837 214.16046 215.95555 217.89563 219.95072 222.05781 224.15290
 226.22499 228.32108 230.43017 232.54826 234.68935 236.87344 239.14153 241.52362
 244.15670 246.41979 248.43388 250.21097 251.64006 252.77515 253.60924 253.93733
 253.98642 253.77251 253.14460 252.10468 250.72277 248.89586 246.81695 244.66204
 242.46513 240.28122 238.11331 235.96440 233.83649 231.71558 229.75367 227.92275
 226.21784 224.70193 223.34402 222.12811 221.02220 219.99429 219.11038 218.26347
 217.51756 216.70965 215.81973 215.19582 214.65791 214.70425 214.81375 214.20705
 212.87354 211.21733 211.11113 213.24492 216.69966 220.87791 226.31367 230.77570
 234.63768 238.74855 242.92712 246.98242 250.93939 254.79015 258.43027 261.74185
 264.80887 267.69138 270.36771 272.76553 274.74280 276.32510 277.73672 279.04379
 280.15668 280.89468 281.20969 281.57590 282.49304 283.56778 284.58594 285.49442
 286.29895 287.03787 287.68341 288.50604
 366.78100 356.34699 345.79098 334.66896 323.08395 311.28994 299.17193 286.98691
 274.71090 262.61989 250.64088 239.95387 230.08785 221.20384 213.39783 206.41182
 200.25781 195.20779 191.80178 189.85577 188.90476 188.98074 189.82773 191.14772
 192.88471 194.99170 197.26668 199.63767 202.09466 204.58665 206.68663 208.54062
 210.17861 211.33560 211.57659 211.81657 211.76556 211.48255 211.12754 210.76952
 210.39851 210.12050 209.94049 209.81648 209.75646 210.09945 210.49744 210.89843
 211.70342 212.89340 214.15539 215.95038 217.89037 219.94535 222.05234 224.14733
 226.21932 228.31531 230.42429 232.54228 234.68327 236.86726 239.13524 241.51723
 244.15022 246.41321 248.42720 250.20418 251.63317 252.76816 253.60215 253.93013
 253.97912 253.76511 253.13710 252.09709 250.71507 248.88806 246.80905 244.65404
 242.45703 240.27301 238.10500 235.95599 233.82798 231.70696 229.74495 227.91394
 226.20893 224.69292 223.33490 222.11889 221.01288 219.98487 219.10085 218.25384
 217.50783 216.69982 215.80981 215.18579 214.64778 214.70660 214.84558 214.16968
 212.97102 211.21397 210.94711 213.15611 216.64804 220.81084 226.33458 230.78069
 234.65291 238.76822 242.95000 247.00458 250.96548 254.81020 258.43555 261.72098
 264.76920 267.64133 270.31934 272.74146 274.75858 276.36688 277.77307 279.03833
 280.10211 280.77905 281.06573 281.36215 282.11859 283.12704 284.12369 285.03281
 285.82672 286.54190 287.18140 287.99637
 366.78100 356.34748 345.79196 334.67044 323.08592 311.29239 299.17487 286.99035
 274.71483 262.62431 250.64579 239.95927 230.09375 221.21023 213.40471 206.41918
 200.26566 195.21614 191.81062 189.86510 188.91458 188.99106 189.83854 191.15902
 192.89650 195.00397 197.27945 199.65093 202.10841 204.60089 206.70137 208.55585
 210.19433 211.35181 211.59329 211.83376 211.78324 211.50072 211.14620 210.78868
 210.41816 210.14064 209.96112 209.83760 209.77808 210.12155 210.52003 210.92151
 211.72699 212.91747 214.17995 215.97543 217.91591 219.97139 222.07887 224.17434
 226.24682 228.34330 230.45278 232.57126 234.71274 236.89722 239.16570 241.54818
 244.18166 246.44513 248.45961 250.23709 251.66657 252.80205 253.63653 253.96501
 254.01449 253.80097 253.17345 252.13392 250.75240 248.92588 246.84736 244.69284
 242.49632 240.31280 238.14528 235.99676 233.86924 231.74871 229.78719 227.95667
 226.25215 224.73663 223.37911 222.16359 221.05807 220.03055 219.14703 218.30050
 217.55498 216.74746 215.85794 215.23442 214.69690 214.73668 214.83064 214.18098
 213.04254 211.22664 210.90044 213.11502 216.59502 220.73575 226.33955 230.77046
 234.65376 238.77492 242.95766 247.01201 250.98160 254.82471 258.43741 261.70032
 264.73380 267.59586 270.27405 272.71655 274.75742 276.38461 277.78235 279.00986
 280.06738 280.73312 281.04785 281.30704 281.85266 282.56314 283.41470 284.31760
 285.17340 285.91443 286.55713 287.38980
 366.78100 356.34807 345.79313 334.67220 323.08827 311.29533 299.17840 286.99447
 274.71953 262.62960 250.65166 239.96573 230.10080 221.21786 213.41293 206.42800
 200.27506 195.22613 191.82120 189.87626 188.92633 189.00340 189.85146 191.17253
 192.91059 195.01866 197.29473 199.66679 202.12486 204.61793 206.71899 208.57406
 210.21313 211.37119 211.61326 211.85433 211.80439 211.52246 211.16853 210.81159
 210.44166 210.16472 209.98579 209.86286 209.80392 210.14799 210.54706 210.94912
 211.75519 212.94626 214.20932 216.00539 217.94646 220.00252 222.11059 224.20666
 226.27972 228.37679 230.48685 232.60592 234.74799 236.93305 239.20212 241.58519
 244.21925 246.48332 248.49839 250.27645 251.70652 252.84259 253.67765 254.00672
 254.05678 253.84385 253.21692 252.17798 250.79705 248.97112 246.89318 244.73925
 242.54332 240.36038 238.19345 236.04552 233.91858 231.79865 229.83772 228.00778
 226.30385 224.78891 223.43198 222.21705 221.11211 220.08518 219.20225 218.35631
 217.61138 216.80445 215.91551 215.29258 214.75565 214.77328 214.81494 214.19585
 213.10025 211.21942 210.82733 213.08795 216.56297 220.68291 226.32451 230.76706
 234.64893 238.77666 242.95918 247.01578 250.99431 254.83437 258.43387 261.67999
 264.70374 267.55664 270.23141 272.68329 274.73856 276.38486 277.77045 278.96460
 280.00836 280.63623 280.88452 281.07178 281.60431 282.32574 283.27588 284.16360
 284.99500 285.73529 286.36981 287.19055
 366.78100 356.34832 345.79365 334.67297 323.08929 311.29662 299.17994 286.99626
 274.72158 262.63191 250.65423 239.96855 230.10388 221.22120 213.41652 206.43185
 200.27917 195.23049 191.82582 189.88114 188.93146 189.00879 189.85711 191.17843
 192.91675 195.02508 197.30140 199.67372 202.13205 204.62537 206.72669 208.58202
 210.22134 211.37966 211.62199 211.86331 211.81363 211.53196 211.17828 210.82160
 210.45192 210.17525 209.99657 209.87389 209.81522 210.15954 210.55886 210.96119
 211.76751 212.95883 214.22216 216.01848 217.95980 220.01612 222.12445 224.22077
 226.29409 228.39142 230.50174 232.62106 234.76339 236.94871 239.21803 241.60136
 244.23568 246.50000 248.51533 250.29365 251.72397 252.86029 253.69562 254.02494
 254.07526 253.86259 253.23591 252.19723 250.81656 248.99088 246.91320 244.75953
 242.56385 240.38117 238.21450 236.06682 233.94014 231.82046 229.85979 228.03011
 226.32643 224.81176 223.45508 222.24040 221.13573 220.10905 219.22637 218.38070
 217.63602 216.82934 215.94066 215.31799 214.78131 214.79358 214.82257 214.20206
 213.13530 211.19846 210.72925 213.03371 216.52751 220.62933 226.30170 230.77699
 234.64262 238.78111 242.96346 247.02295 251.00670 254.84196 258.42868 261.66614
 264.68250 267.52655 270.19376 272.64078 274.69998 276.36182 277.73560 278.89963
 279.91852 280.50986 280.71695 280.92526 281.50189 282.24725 283.18832 284.07458
 284.89969 285.65225 286.32437 287.19028
 366.78100 356.34847 345.79394 334.67341 323.08988 311.29735 299.18082 286.99729
 274.72277 262.63324 250.65571 239.97018 230.10565 221.22312 213.41859 206.43406
 200.28153 195.23300 191.82847 189.88394 188.93441 189.01188 189.86035 191.18183
 192.92030 195.02877 197.30524 199.67771 202.13618 204.62965 206.73112 208.58659
 210.22606 211.38453 211.62700 211.86847 211.81894 211.53741 211.18389 210.82736
 210.45783 210.18130 210.00277 209.88024 209.82171 210.16618 210.56565 210.96812
 211.77459 212.96606 214.22953 216.02600 217.96747 220.02395 222.13242 224.22889
 226.30236 228.39983 230.51030 232.62977 234.77224 236.95771 239.22718 241.61065
 244.24512 246.50959 248.52506 250.30353 251.73401 252.87048 253.70595 254.03542
 254.08589 253.87336 253.24683 252.20830 250.82777 249.00224 246.92471 244.77118
 242.57565 240.39312 238.22659 236.07907 233.95254 231.83301 229.87248 228.04295
 226.33942 224.82489 223.46836 222.25383 221.14930 220.12277 219.24024 218.39471
 217.65018 216.84365 215.95512 215.33260 214.79607 214.80679 214.83215 214.20538
 213.16760 211.19237 210.64581 212.96910 216.48912 220.58299 226.27432 230.78062
 234.63515 238.78275 242.96516 247.02641 251.01443 254.84863 258.42865 261.66318
 264.67429 267.50714 270.15985 272.58969 274.63931 276.30215 277.66473 278.81708
 279.81891 280.38708 280.60309 280.86240 281.45114 282.23273 283.16574 284.05209
 284.87762 285.62933 286.30649 287.17709
 366.78100 356.34871 345.79442 334.67413 323.09083 311.29854 299.18225 286.99896
 274.72467 262.63538 250.65808 239.97279 230.10850 221.22621 213.42192 206.43763
 200.28533 195.23704 191.83275 189.88846 188.93917 189.01688 189.86558 191.18729
 192.92600 195.03471 197.31142 199.68413 202.14284 204.63654 206.73825 208.59396
 210.23367 211.39238 211.63509 211.87679 211.82750 211.54621 211.19292 210.83663
 210.46734 210.19104 210.01275 209.89046 209.83217 210.17688 210.57659 210.97929
 211.78600 212.97771 214.24142 216.03813 217.97984 220.03654 222.14525 224.24196
 226.31567 228.41338 230.52409 232.64380 234.78650 236.97221 239.24192 241.62563
 244.26034 246.52505 248.54075 250.31946 251.75017 252.88688 253.72259 254.05230
 254.10300 253.89071 253.26442 252.22613 250.84584 249.02055 246.94325 244.78996
 242.59467 240.41238 238.24609 236.09880 233.97251 231.85321 229.89292 228.06363
 226.36034 224.84605 223.48976 222.27546 221.17117 220.14488 219.26259 218.41730
 217.67301 216.86671 215.97842 215.35613 214.81984 214.82471 214.83620 214.20421
 213.21503 211.19576 210.56250 212.89598 216.45061 220.53680 226.23334 230.76947
 234.61713 238.77397 242.95752 247.02119 251.01543 254.85287 258.43295 261.67239
 264.68002 267.49985 270.13174 272.53256 274.55838 276.21054 277.56378 278.71530
 279.70322 280.27307 280.53195 280.84726 281.45404 282.29419 283.24078 284.13242
 284.97235 285.73267 286.41016 287.27350
 366.78100 356.34885 345.79469 334.67454 323.09139 311.29924 299.18308 286.99993
 274.72578 262.63662 250.65947 239.97432 230.11017 221.22801 213.42386 206.43971
 200.28755 195.23940 191.83525 189.89109 188.94194 189.01979 189.86864 191.19048
 192.92933 195.03818 197.31502 199.68787 202.14672 204.64057 206.74241 208.59826
 210.23811 211.39695 211.63980 211.88165 211.83250 211.55134 211.19819 210.84204
 210.47288 210.19673 210.01858 209.89643 209.83827 210.18312 210.58297 210.98581
 211.79266 212.98451 214.24835 216.04520 217.98705 220.04390 222.15274 224.24959
 226.32344 228.42128 230.53213 232.65198 234.79483 236.98067 239.25052 241.63437
 244.26921 246.53406 248.54991 250.32876 251.75960 252.89645 253.73230 254.06214
 254.11299 253.90084 253.27469 252.23653 250.85638 249.03123 246.95407 244.80092
 242.60577 240.42361 238.25746 236.11031 233.98416 231.86500 229.90485 228.07570
 226.37254 224.85839 223.50224 222.28809 221.18393 220.15778 219.27563 218.43047
 217.68632 216.88017 215.99202 215.36986 214.83371 214.83946 214.85306 214.19269
 213.25737 211.18724 210.47162 212.84415 216.41373 220.50713 226.17033 230.75865
 234.58478 238.75357 242.94235 247.01768 251.01631 254.85818 258.44080 261.69229
 264.69739 267.50360 270.11136 272.46979 274.46036 276.09116 277.43384 278.59982
 279.57062 280.19003 280.49307 280.84766 281.47891 282.39224 283.36063 284.26956
 285.12570 285.91541 286.61002 287.49521
 366.78100 356.34860 345.79420 334.67379 323.09039 311.29799 299.18159 286.99819
 274.72379 262.63438 250.65698 239.97158 230.10718 221.22478 213.42038 206.43597
 200.28357 195.23517 191.83077 189.88637 188.93696 189.01456 189.86316 191.18476
 192.92336 195.03196 197.30855 199.68115 202.13975 204.63335 206.73495 208.59055
 210.23014 211.38874 211.63134 211.87294 211.82354 211.54213 211.18873 210.83233
 210.46293 210.18653 210.00813 209.88572 209.82732 210.17192 210.57152 210.97412
 211.78071 212.97231 214.23591 216.03251 217.97411 220.03071 222.13930 224.23590
 226.30950 228.40710 230.51770 232.63730 234.77989 236.96549 239.23509 241.61869
 244.25329 246.51788 248.53348 250.31208 251.74268 252.87928 253.71488 254.04447
 254.09507 253.88267 253.25627 252.21787 250.83747 249.01206 246.93466 244.78126
 242.58586 240.40346 238.23705 236.08965 233.96325 231.84385 229.88345 228.05405
 226.35064 224.83624 223.47984 222.26544 221.16104 220.13464 219.25223 218.40683
 217.66243 216.85603 215.96763 215.34522 214.80882 214.83478 214.89612 214.16504
 213.27853 211.18517 210.49348 212.81107 216.37428 220.48961 226.10216 230.74083
 234.55182 238.73109 242.92940 247.02065 251.02409 254.87010 258.45697 261.72110
 264.72406 267.51379 270.09241 272.40054 274.34625 275.95084 277.28717 278.47672
 279.46436 280.15781 280.48471 280.90024 281.57614 282.49103 283.46487 284.38391
 285.27399 286.09250 286.80756 287.71878
 366.78100 356.34794 345.79287 334.67181 323.08775 311.29469 299.17762 286.99356
 274.71850 262.62844 250.65037 239.96431 230.09925 221.21619 213.41112 206.42606
 200.27300 195.22394 191.81887 189.87381 188.92375 189.00068 189.84862 191.16956
 192.90750 195.01543 197.29137 199.66331 202.12125 204.61418 206.71512 208.57006
 210.20900 211.36693 211.60887 211.84981 211.79975 211.51768 211.16362 210.80656
 210.43649 210.15943 209.98037 209.85731 209.79824 210.14218 210.54112 210.94306
 211.74899 212.93993 214.20287 215.99881 217.93974 219.99568 222.10362 224.19956
 226.27249 228.36943 230.47937 232.59830 234.74024 236.92518 239.19412 241.57705
 244.21099 246.47493 248.48987 250.26780 251.69774 252.83368 253.66862 253.99755
 254.04749 253.83443 253.20737 252.16830 250.78724 248.96118 246.88311 244.72905
 242.53299 240.34993 238.18286 236.03480 233.90774 231.78768 229.82661 227.99655
 226.29249 224.77743 223.42036 222.20530 221.10024 220.07318 219.19011 218.34405
 217.59899 216.79192 215.90286 215.27980 214.74274 214.80711 214.95352 214.12375
 213.27890 211.20496 210.48677 212.76851 216.33011 220.46088 226.04466 230.71210
 234.52240 238.71085 242.91924 247.02251 251.02983 254.88080 258.47623 261.75375
 264.75601 267.52576 270.06891 272.32602 274.22668 275.80444 277.13086 278.32120
 279.33893 280.04550 280.46228 280.95001 281.61420 282.62332 283.59781 284.51453
 285.44843 286.28131 287.00888 287.93607
 366.78100 356.34739 345.79178 334.67017 323.08556 311.29195 299.17433 286.98972
 274.71411 262.62350 250.64489 239.95828 230.09267 221.20906 213.40345 206.41784
 200.26423 195.21462 191.80900 189.86339 188.91278 188.98917 189.83656 191.15695
 192.89434 195.00173 197.27712 199.64851 202.10590 204.59828 206.69867 208.55306
 210.19145 211.34884 211.59023 211.83062 211.78001 211.49740 211.14279 210.78518
 210.41456 210.13695 209.95734 209.83373 209.77412 210.11751 210.51590 210.91729
 211.72268 212.91307 214.17546 215.97085 217.91123 219.96662 222.07401 224.16940
 226.24179 228.33818 230.44757 232.56596 234.70735 236.89174 239.16013 241.54251
 244.17590 246.43929 248.45368 250.23107 251.66046 252.79585 253.63024 253.95863
 254.00802 253.79441 253.16679 252.12718 250.74557 248.91896 246.84035 244.68574
 242.48913 240.30552 238.13791 235.98930 233.86169 231.74108 229.77946 227.94885
 226.24424 224.72863 223.37102 222.15541 221.04980 220.02219 219.13858 218.29197
 217.54636 216.73874 215.84913 215.22552 214.68791 214.78232 214.99474 214.10947
 213.27831 211.22314 210.48230 212.70541 216.27908 220.43512 225.99187 230.67271
 234.48973 238.68765 242.90712 247.01979 251.03035 254.88614 258.49304 261.78464
 264.78616 267.53598 270.04434 272.25439 274.10965 275.65430 276.96198 278.14062
 279.17188 279.92004 280.42667 280.98404 281.79071 282.82687 283.80560 284.75238
 285.67227 286.49149 287.20709 288.11908
 366.78100 356.34734 345.79168 334.67002 323.08535 311.29169 299.17403 286.98937
 274.71371 262.62305 250.64438 239.95772 230.09206 221.20840 213.40274 206.41708
 200.26342 195.21375 191.80809 189.86243 188.91177 188.98811 189.83545 191.15578
 192.89312 195.00046 197.27580 199.64714 202.10448 204.59682 206.69715 208.55149
 210.18983 211.34717 211.58851 211.82885 211.77818 211.49552 211.14086 210.78320
 210.41254 210.13488 209.95522 209.83155 209.77189 210.11523 210.51357 210.91491
 211.72025 212.91058 214.17292 215.96826 217.90860 219.96394 222.07128 224.16662
 226.23895 228.33529 230.44463 232.56297 234.70431 236.88865 239.15698 241.53932
 244.17266 246.43600 248.45034 250.22768 251.65702 252.79235 253.62669 253.95503
 254.00437 253.79071 253.16305 252.12338 250.74172 248.91506 246.83640 244.68174
 242.48508 240.30142 238.13375 235.98509 233.85743 231.73677 229.77511 227.94445
 226.23978 224.72412 223.36646 222.15080 221.04514 220.01748 219.13382 218.28715
 217.54149 216.73383 215.84417 215.22051 214.68285 214.77934 214.99770 214.13388
 213.28731 211.23112 210.47998 212.66841 216.22307 220.38460 225.94275 230.62527
 234.45253 238.66006 242.88979 247.00984 251.02483 254.88800 258.51172 261.82141
 264.82605 267.55746 270.02618 272.18307 273.98242 275.48273 276.77182 277.95468
 279.01294 279.82547 280.42102 281.03613 282.06113 283.13538 284.15366 285.09830
 285.97440 286.75458 287.43613 288.30469
 366.78100 356.34782 345.79263 334.67145 323.08726 311.29408 299.17689 286.99271
 274.71752 262.62734 250.64915 239.96297 230.09778 221.21460 213.40941 206.42423
 200.27104 195.22186 191.81667 189.87149 188.92130 188.99812 189.84593 191.16675
 192.90456 195.01238 197.28819 199.66001 202.11782 204.61064 206.71145 208.56627
 210.20508 211.36290 211.60471 211.84553 211.79535 211.51316 211.15898 210.80179
 210.43161 210.15442 209.97524 209.85205 209.79287 210.13668 210.53550 210.93731
 211.74313 212.93394 214.19676 215.99257 217.93339 219.98920 222.09702 224.19283
 226.26565 228.36246 230.47228 232.59109 234.73291 236.91772 239.18654 241.56935
 244.20317 246.46698 248.48180 250.25961 251.68943 252.82525 253.66006 253.98888
 254.03869 253.82551 253.19832 252.15914 250.77795 248.95177 246.87358 244.71940
 242.52321 240.34003 238.17284 236.02466 233.89747 231.77729 229.81610 227.98592
 226.28173 224.76655 223.40936 222.19418 221.08899 220.06181 219.17862 218.33244
 217.58725 216.78007 215.89088 215.26770 214.73051 214.80069 214.96294 214.17603
 213.34966 211.25096 210.46724 212.54790 216.13840 220.36839 225.90475 230.57491
 234.41483 238.63051 242.87085 246.99733 251.01654 254.88853 258.53409 261.86523
 264.86908 267.57593 270.00168 272.10922 273.85431 275.30899 276.58655 277.78082
 278.86426 279.77957 280.54150 281.31708 282.17358 283.22803 284.23773 285.16019
 286.00516 286.75854 287.41666 288.25534
 366.78100 356.34794 345.79288 334.67183 323.08777 311.29471 299.17765 286.99360
 274.71854 262.62848 250.65042 239.96437 230.09931 221.21625 213.41119 206.42614
 200.27308 195.22402 191.81896 189.87391 188.92385 189.00079 189.84873 191.16968
 192.90762 195.01556 197.29150 199.66344 202.12139 204.61433 206.71527 208.57021
 210.20916 211.36710 211.60904 211.84998 211.79993 211.51787 211.16381 210.80675
 210.43670 210.15964 209.98058 209.85752 209.79847 210.14241 210.54135 210.94329
 211.74924 212.94018 214.20312 215.99906 217.94000 219.99595 222.10389 224.19983
 226.27277 228.36972 230.47966 232.59860 234.74054 236.92549 239.19443 241.57737
 244.21131 246.47526 248.49020 250.26814 251.69808 252.83403 253.66897 253.99791
 254.04785 253.83480 253.20774 252.16868 250.78762 248.96157 246.88351 244.72945
 242.53339 240.35033 238.18328 236.03522 233.90816 231.78810 229.82705 227.99699
 226.29293 224.77787 223.42082 222.20576 221.10070 220.07364 219.19059 218.34453
 217.59947 216.79241 215.90336 215.28030 214.74324 214.80606 214.95451 214.16583
 213.45668 211.29396 210.39632 212.44038 216.08017 220.34428 225.86147 230.51688
 234.37109 238.59607 242.84917 246.98885 251.01807 254.89999 258.56073 261.90622
 264.91220 267.60410 269.99155 272.03531 273.70374 275.10583 276.37411 277.57700
 278.70380 279.73386 280.65543 281.54858 282.42181 283.41235 284.39923 285.28702
 286.10059 286.83493 287.47644 288.29395
 366.78100 356.34753 345.79207 334.67060 323.08614 311.29267 299.17521 286.99074
 274.71528 262.62481 250.64635 239.95988 230.09441 221.21095 213.40548 206.42002
 200.26655 195.21709 191.81162 189.86616 188.91569 188.99223 189.83976 191.16029
 192.89783 195.00536 197.28090 199.65243 202.10997 204.60250 206.70304 208.55757
 210.19611 211.35364 211.59517 211.83571 211.78524 211.50278 211.14831 210.79085
 210.42038 210.14292 209.96345 209.83999 209.78052 210.12405 210.52259 210.92412
 211.72966 212.92019 214.18273 215.97826 217.91880 219.97433 222.08186 224.17740
 226.24993 228.34647 230.45600 232.57454 234.71607 236.90061 239.16914 241.55168
 244.18521 246.44874 248.46328 250.24081 251.67035 252.80588 253.64042 253.96895
 254.01849 253.80502 253.17756 252.13809 250.75662 248.93016 246.85169 244.69723
 242.50076 240.31730 238.14983 236.00137 233.87390 231.75344 229.79197 227.96150
 226.25704 224.74157 223.38411 222.16864 221.06318 220.03571 219.15225 218.30578
 217.56032 216.75285 215.86338 215.23992 214.70245 214.78596 214.98318 214.14752
 213.44150 211.38304 210.41855 212.29933 216.01862 220.37697 225.81168 230.45871
 234.31725 238.54927 242.81367 246.96094 250.99168 254.89073 258.59470 261.98944
 264.99936 267.64279 269.94949 271.91293 273.52228 274.88724 276.15512 277.38882
 278.59641 279.73883 280.79172 281.75754 282.71616 283.83340 284.81992 285.36465
 286.04971 286.77670 287.41177 288.22110
 366.78100 356.34686 345.79072 334.66858 323.08343 311.28929 299.17115 286.98601
 274.70987 262.61873 250.63959 239.95244 230.08630 221.20216 213.39602 206.40988
 200.25574 195.20560 191.79945 189.85331 188.90217 188.97803 189.82489 191.14475
 192.88161 194.98846 197.26332 199.63418 202.09104 204.58290 206.68276 208.53662
 210.17447 211.33133 211.57219 211.81205 211.76091 211.47777 211.12263 210.76448
 210.39334 210.11520 209.93506 209.81092 209.75078 210.09364 210.49149 210.89235
 211.69721 212.88707 214.14893 215.94379 217.88365 219.93850 222.04536 224.14022
 226.21208 228.30794 230.41680 232.53466 234.67551 236.85937 239.12723 241.50909
 244.14195 246.40481 248.41867 250.19552 251.62438 252.75924 253.59310 253.92096
 253.96982 253.75568 253.12753 252.08739 250.70525 248.87811 246.79897 244.64383
 242.44669 240.26254 238.09440 235.94526 233.81712 231.69598 229.73384 227.90270
 226.19755 224.68141 223.32327 222.10713 221.00099 219.97285 219.08871 218.24156
 217.49542 216.68728 215.79714 215.17300 214.63486 214.72295 214.92975 214.15903
 213.41747 211.44379 210.49055 212.17183 215.94986 220.42186 225.77350 230.41875
 234.27101 238.51112 242.78825 246.93929 250.96181 254.87230 258.61823 262.05807
 265.06027 267.64307 269.86761 271.75943 273.31406 274.64166 275.91519 277.18793
 278.45776 279.69669 280.88254 281.95285 282.93726 284.05109 285.07507 285.56549
 286.29462 287.00378 287.62329 288.41275
 366.78100 356.34602 345.78904 334.66605 323.08007 311.28509 299.16611 286.98012
 274.70314 262.61116 250.63118 239.94319 230.07621 221.19123 213.38425 206.39726
 200.24228 195.19130 191.78432 189.83733 188.88535 188.96037 189.80639 191.12540
 192.86142 194.96744 197.24146 199.61147 202.06749 204.55851 206.65753 208.51054
 210.14756 211.30358 211.54360 211.78261 211.73063 211.44665 211.09067 210.73168
 210.35970 210.08072 209.89974 209.77475 209.71377 210.05579 210.45281 210.85282
 211.65684 212.84586 214.10688 215.90089 217.83991 219.89393 221.99995 224.09396
 226.16498 228.26000 230.36802 232.48503 234.62505 236.80807 239.07509 241.45610
 244.08812 246.35014 248.36316 250.13917 251.56719 252.70121 253.53423 253.86124
 253.90926 253.69428 253.06530 252.02431 250.64133 248.81335 246.73337 244.57738
 242.37940 240.19442 238.02544 235.87545 233.74647 231.62449 229.66151 227.82952
 226.12354 224.60656 223.24758 222.03059 220.92361 219.89463 219.00965 218.16166
 217.41468 216.60570 215.71472 215.08973 214.55075 214.63667 214.83575 214.16394
 213.41537 211.47391 210.55136 212.08980 215.88147 220.43192 225.73711 230.38594
 234.23409 238.48425 242.77577 246.93166 250.94466 254.85713 258.62885 262.09439
 265.08652 267.62341 269.78995 271.63309 273.14072 274.43979 275.72644 277.03336
 278.35162 279.66745 280.96124 282.13309 283.13385 284.27707 285.30609 285.79132
 286.50275 287.13626 287.68970 288.39499
 354.97500 345.04800 334.58700 324.11500 313.32600 302.53700 291.65000 280.76700
 269.93100 259.19300 248.62200 238.61700 229.08700 220.35500 212.54000 205.53500
 199.46400 194.49300 191.14300 189.19000 188.08900 188.01400 188.72400 189.90600
 191.46900 193.38200 195.40300 197.55600 199.80700 202.06000 204.28800 206.47900
 208.55200 210.37800 212.02500 213.65900 214.99800 216.11800 217.17200 218.25900
 219.49400 220.64500 221.67900 222.61400 223.54500 224.98200 226.57100 228.19000
 229.79700 231.81100 233.86500 235.97200 238.24200 240.55300 242.89900 245.25300
 247.48800 249.53500 251.36600 252.84800 254.09800 255.16700 256.02700 256.25300
 256.09500 255.54300 253.93500 252.56600 251.38400 250.24500 249.05200 247.70100
 246.01600 243.99600 241.78400 239.39300 236.81300 234.22300 231.65800 229.14400
 226.74000 224.47300 222.33500 220.32500 218.44000 216.67700 214.96200 213.47200
 212.20000 211.10800 210.26000 209.63900 209.24400 209.03100 209.05800 209.33300
 209.78400 210.62600 211.33100 212.39100 213.62500 214.84668 217.72949 219.47640
 220.32566 220.86828 220.88710 220.27371 219.43733 218.84250 219.04934 220.86203
 222.60583 225.72206 229.03064 232.61777 236.12270 239.51333 242.70767 245.68587
 248.41061 250.90679 253.19353 254.91714 256.48655 257.94920 259.39966 260.69384
 261.81714 262.77997 263.71679 264.54570 265.26305 265.89772 266.47676 267.00133
 267.47312 267.89325 268.26027 268.72800
