|-------------------------------------------------------------------------|
|   File Name : in_temp.dat
|   Subject   : temperature profiles used for initial guess atmosphere
|   File Type : input of gmtr
|   Data Type : atmospherical data
|   Author/s  : WRF-Chem
|   Date      : Fri Jul 26 15:39:24 2024
|-------------------------------------------------------------------------|

 WRF-Chem temperature
#
 values of T (K)    (8f10.5)
#
 354.97500 345.04800 334.58700 324.11500 313.32600 302.53700 291.65000 280.76700
 269.93100 259.19300 248.62200 238.61700 229.08700 220.35500 212.54000 205.53500
 199.46400 194.49300 191.14300 189.19000 188.08900 188.01400 188.72400 189.90600
 191.46900 193.38200 195.40300 197.55600 199.80700 202.06000 204.28800 206.47900
 208.55200 210.37800 212.02500 213.65900 214.99800 216.11800 217.17200 218.25900
 219.49400 220.64500 221.67900 222.61400 223.54500 224.98200 226.57100 228.19000
 229.79700 231.81100 233.86500 235.97200 238.24200 240.55300 242.89900 245.25300
 247.48800 249.53500 251.36600 252.84800 254.09800 255.16700 256.02700 256.25300
 256.09500 255.54300 253.93500 252.56600 251.38400 250.24500 249.05200 247.70100
 246.01600 243.99600 241.78400 239.39300 236.81300 234.22300 231.65800 229.14400
 226.74000 224.47300 222.33500 220.32500 218.44000 216.67700 214.96200 213.47200
 212.20000 211.10800 210.26000 209.63900 209.24400 209.03100 209.05800 209.33300
 209.78400 210.62600 211.33100 212.39100 213.62500 214.84668 217.72949 219.47640
 220.32566 220.86828 220.88710 220.27371 219.43733 218.84250 219.04934 220.86203
 222.60583 225.72206 229.03064 232.61777 236.12270 239.51333 242.70767 245.68587
 248.41061 250.90679 253.19353 254.91714 256.48655 257.94920 259.39966 260.69384
 261.81714 262.77997 263.71679 264.54570 265.26305 265.89772 266.47676 267.00133
 267.47312 267.89325 268.26027 268.72800
 366.78100 356.33500 345.76700 334.63300 323.03600 311.23000 299.10000 286.90300
 274.61500 262.51200 250.52100 239.82200 229.94400 221.04800 213.23000 206.23200
 200.06600 195.00400 191.58600 189.62800 188.66500 188.72900 189.56400 190.87200
 192.59700 194.69200 196.95500 199.31400 201.75900 204.23900 206.32700 208.16900
 209.79500 210.94000 211.16900 211.39700 211.33400 211.03900 210.67200 210.30200
 209.91900 209.62900 209.43700 209.30100 209.22900 209.56000 209.94600 210.33500
 211.12800 212.30600 213.55600 215.33900 217.26700 219.31000 221.40500 223.48800
 225.54800 227.63200 229.72900 231.83500 233.96400 236.13600 238.39200 240.76200
 243.38300 245.63400 247.63600 249.40100 250.81800 251.94100 252.76300 253.07900
 253.11600 252.89000 252.25000 251.19800 249.80400 247.96500 245.87400 243.70700
 241.49800 239.30200 237.12200 234.96100 232.82100 230.68800 228.71400 226.87100
 225.15400 223.62600 222.25600 221.02800 219.91000 218.87000 217.97400 217.11500
 216.35700 215.53700 214.63500 213.99900 213.44900 212.85855 212.01316 212.61654
 214.26826 216.08686 218.14273 220.53346 223.40855 226.78828 231.49734 235.90155
 239.42278 243.28576 247.23140 251.11907 254.80144 258.23331 261.38913 264.27520
 266.89312 269.26852 271.44504 273.08845 274.58484 275.98591 277.39845 278.65879
 279.75272 280.69038 281.56708 282.34086 283.01050 283.60295 284.14348 284.63317
 285.07358 285.46577 285.80838 286.24500
 381.81900 372.39900 361.20600 349.77600 337.62200 324.85300 311.81000 298.35300
 284.86000 271.32400 258.56100 246.30400 236.08700 226.79600 218.44800 211.29000
 205.52200 200.89400 197.38100 194.84800 193.01500 192.31500 192.25000 192.43100
 192.91200 193.53700 194.13600 194.71200 195.26200 195.83100 196.39300 196.97600
 197.60400 198.14900 198.58400 199.05700 199.69500 200.37800 201.05400 201.70800
 202.31300 202.85700 203.35500 203.86200 204.56900 205.29700 206.02600 206.98700
 208.19300 209.44100 210.96900 212.57600 214.46200 216.51300 218.63000 220.85300
 223.34100 225.96200 228.73900 231.69700 234.70600 237.70600 240.69200 243.65700
 246.73700 249.69900 252.52100 255.06300 257.29000 259.23300 260.63300 261.68000
 262.46100 262.79800 262.69100 262.22400 261.06900 259.52500 257.70700 255.50700
 253.00100 250.30200 247.39800 244.45200 241.65400 239.05400 236.73300 234.59000
 232.59500 230.72500 228.83400 226.82600 224.66600 222.38700 220.10400 217.71500
 215.45900 213.06600 210.54600 208.09300 205.35400 202.08130 196.05959 200.71215
 209.01611 216.90438 223.84126 229.78593 235.00632 240.20838 245.98943 250.68668
 254.32982 257.93487 261.55666 264.96801 268.15192 271.06452 273.76717 276.25691
 278.57680 280.74479 282.77456 284.60533 286.27232 287.81705 289.31715 290.65561
 291.81734 292.81312 293.70701 294.49387 295.17482 295.77730 296.32696 296.82492
 297.27278 297.67160 298.02000 298.46400
 399.33000 389.90700 379.81300 368.66800 357.52200 345.30100 333.07400 320.22700
 307.21600 293.84800 280.37600 267.29600 254.61000 242.98700 232.15100 221.97700
 212.67200 204.28600 197.66900 192.82100 189.48600 187.45200 186.81400 187.08900
 187.78100 189.05400 190.64800 192.54200 194.63000 196.75200 198.67100 200.15800
 201.53500 202.48700 202.97500 203.34000 203.53900 203.49700 203.38500 203.24700
 203.00500 202.78600 202.60300 202.43700 202.42600 202.88800 203.42000 203.95100
 204.89500 205.99200 207.30100 208.95800 210.73800 213.10000 215.56400 218.18000
 220.96600 223.91800 226.96100 230.09200 233.29300 236.55700 239.95500 243.53700
 246.84500 249.39000 251.54200 253.47400 255.19500 256.48400 257.43100 258.05900
 258.21200 258.04000 257.58200 256.64300 255.23900 253.50700 251.40800 249.05600
 246.57600 243.99400 241.38900 238.83000 236.34400 233.98600 231.96900 230.11800
 228.42300 226.89900 225.54800 224.29700 223.10500 221.96500 220.95800 220.11300
 219.49000 218.92000 218.32500 217.88100 217.42300 216.96366 216.35568 216.80261
 217.73415 218.28582 218.64258 219.10077 220.44626 222.53987 226.38451 230.35736
 233.59734 237.39164 241.29814 245.22796 248.98002 252.51130 255.78595 258.80109
 261.54781 264.05210 266.34239 268.04198 269.58951 271.01303 272.35754 273.55718
 274.59842 275.49092 276.28989 276.99307 277.60161 278.14001 278.63122 279.07623
 279.47646 279.83287 280.14422 280.54100
 399.73800 389.78500 379.66200 368.15100 356.64100 344.35000 331.79200 318.88800
 305.72600 292.49300 279.20900 266.73800 254.69600 244.21100 234.45700 225.43300
 217.56900 210.45100 204.30000 199.30600 195.45800 192.57600 191.02700 190.38600
 190.23900 190.53400 191.16600 191.92500 192.79500 193.76600 194.73200 195.31200
 195.80000 196.05200 196.11500 196.11500 196.03900 195.72300 195.34000 194.98900
 194.75100 194.79200 195.13300 195.59800 196.50600 198.13600 199.85800 201.56600
 204.17900 206.82300 209.89300 213.28400 216.82800 220.60500 224.38700 228.20900
 232.03200 235.82500 239.56000 243.25800 246.84500 250.20100 253.70900 257.46800
 261.53000 264.22100 266.60100 268.68100 270.32900 271.74100 272.83600 273.47400
 273.89800 274.00200 273.75700 273.28800 272.37100 271.10000 269.58900 267.77900
 265.81600 263.72100 261.39300 258.91600 256.29800 253.42300 250.33100 247.11400
 243.83700 240.52900 237.24900 233.99900 230.72800 227.51500 224.25400 220.95200
 217.62700 213.65600 210.12100 206.78900 204.01000 201.99491 199.07309 198.76551
 199.40006 200.48994 201.46112 202.31912 203.45100 204.96110 207.47502 210.85391
 213.70530 217.29629 220.99574 224.72316 228.28753 231.64854 234.68024 237.40893
 239.70644 241.60899 243.46854 245.67368 247.68154 249.52395 251.24767 252.78566
 254.12057 255.26479 256.23740 257.09036 257.82852 258.48160 259.07744 259.61723
 260.10271 260.53504 260.91270 261.39400
 399.73800 389.78500 379.66200 368.15100 356.64100 344.35000 331.79200 318.88800
 305.72600 292.49300 279.20900 266.73800 254.69600 244.21100 234.45700 225.43300
 217.56900 210.45100 204.30000 199.30600 195.45800 192.57600 191.02700 190.38600
 190.23900 190.53400 191.16600 191.92500 192.79500 193.76600 194.73200 195.31200
 195.80000 196.05200 196.11500 196.11500 196.03900 195.72300 195.34000 194.98900
 194.75100 194.79200 195.13300 195.59800 196.50600 198.13600 199.85800 201.56600
 204.17900 206.82300 209.89300 213.28400 216.82800 220.60500 224.38700 228.20900
 232.03200 235.82500 239.56000 243.25800 246.84500 250.20100 253.70900 257.46800
 261.53000 264.22100 266.60100 268.68100 270.32900 271.74100 272.83600 273.47400
 273.89800 274.00200 273.75700 273.28800 272.37100 271.10000 269.58900 267.77900
 265.81600 263.72100 261.39300 258.91600 256.29800 253.42300 250.33100 247.11400
 243.83700 240.52900 237.24900 233.99900 230.72800 227.51500 224.25400 220.95200
 217.62700 213.65600 210.12100 206.78900 204.01000 201.99491 199.07309 198.76551
 199.40006 200.48994 201.46112 202.31912 203.45100 204.96110 207.47502 210.85391
 213.70530 217.29629 220.99574 224.72316 228.28753 231.64854 234.68024 237.40893
 239.70644 241.60899 243.46854 245.67368 247.68154 249.52395 251.24767 252.78566
 254.12057 255.26479 256.23740 257.09036 257.82852 258.48160 259.07744 259.61723
 260.10271 260.53504 260.91270 261.39400
 399.33000 389.90700 379.81300 368.66800 357.52200 345.30100 333.07400 320.22700
 307.21600 293.84800 280.37600 267.29600 254.61000 242.98700 232.15100 221.97700
 212.67200 204.28600 197.66900 192.82100 189.48600 187.45200 186.81400 187.08900
 187.78100 189.05400 190.64800 192.54200 194.63000 196.75200 198.67100 200.15800
 201.53500 202.48700 202.97500 203.34000 203.53900 203.49700 203.38500 203.24700
 203.00500 202.78600 202.60300 202.43700 202.42600 202.88800 203.42000 203.95100
 204.89500 205.99200 207.30100 208.95800 210.73800 213.10000 215.56400 218.18000
 220.96600 223.91800 226.96100 230.09200 233.29300 236.55700 239.95500 243.53700
 246.84500 249.39000 251.54200 253.47400 255.19500 256.48400 257.43100 258.05900
 258.21200 258.04000 257.58200 256.64300 255.23900 253.50700 251.40800 249.05600
 246.57600 243.99400 241.38900 238.83000 236.34400 233.98600 231.96900 230.11800
 228.42300 226.89900 225.54800 224.29700 223.10500 221.96500 220.95800 220.11300
 219.49000 218.92000 218.32500 217.88100 217.42300 216.96366 216.35568 216.80261
 217.73415 218.28582 218.64258 219.10077 220.44626 222.53987 226.38451 230.35736
 233.59734 237.39164 241.29814 245.22796 248.98002 252.51130 255.78595 258.80109
 261.54781 264.05210 266.34239 268.04198 269.58951 271.01303 272.35754 273.55718
 274.59842 275.49092 276.28989 276.99307 277.60161 278.14001 278.63122 279.07623
 279.47646 279.83287 280.14422 280.54100
 381.81900 372.39900 361.20600 349.77600 337.62200 324.85300 311.81000 298.35300
 284.86000 271.32400 258.56100 246.30400 236.08700 226.79600 218.44800 211.29000
 205.52200 200.89400 197.38100 194.84800 193.01500 192.31500 192.25000 192.43100
 192.91200 193.53700 194.13600 194.71200 195.26200 195.83100 196.39300 196.97600
 197.60400 198.14900 198.58400 199.05700 199.69500 200.37800 201.05400 201.70800
 202.31300 202.85700 203.35500 203.86200 204.56900 205.29700 206.02600 206.98700
 208.19300 209.44100 210.96900 212.57600 214.46200 216.51300 218.63000 220.85300
 223.34100 225.96200 228.73900 231.69700 234.70600 237.70600 240.69200 243.65700
 246.73700 249.69900 252.52100 255.06300 257.29000 259.23300 260.63300 261.68000
 262.46100 262.79800 262.69100 262.22400 261.06900 259.52500 257.70700 255.50700
 253.00100 250.30200 247.39800 244.45200 241.65400 239.05400 236.73300 234.59000
 232.59500 230.72500 228.83400 226.82600 224.66600 222.38700 220.10400 217.71500
 215.45900 213.06600 210.54600 208.09300 205.35400 202.08130 196.05959 200.71215
 209.01611 216.90438 223.84126 229.78593 235.00632 240.20838 245.98943 250.68668
 254.32982 257.93487 261.55666 264.96801 268.15192 271.06452 273.76717 276.25691
 278.57680 280.74479 282.77456 284.60533 286.27232 287.81705 289.31715 290.65561
 291.81734 292.81312 293.70701 294.49387 295.17482 295.77730 296.32696 296.82492
 297.27278 297.67160 298.02000 298.46400
 366.78100 356.33622 345.76944 334.63666 323.04088 311.23610 299.10732 286.91153
 274.62475 262.52297 250.53319 239.83541 229.95863 221.06385 213.24707 206.25029
 200.08551 195.02473 191.60795 189.65117 188.68938 188.75460 189.59082 190.90004
 192.62626 194.72248 196.98670 199.34692 201.79314 204.27436 206.36358 208.20680
 209.83402 210.98023 211.21045 211.43967 211.37789 211.08411 210.71833 210.34955
 209.96777 209.67899 209.48821 209.35343 209.28265 209.61487 210.00208 210.39230
 211.18652 212.36574 213.61696 215.40118 217.33040 219.37462 221.47084 223.55506
 225.61628 227.70150 229.79972 231.90693 234.03715 236.21037 238.46759 240.83881
 243.46103 245.71325 247.71647 249.48269 250.90091 252.02513 252.84835 253.16557
 253.20378 252.97900 252.34022 251.28944 249.89666 248.05888 245.96910 243.80332
 241.59554 239.40076 237.22198 235.06220 232.92342 230.79163 228.81885 226.97707
 225.26129 223.73451 222.36573 221.13895 220.02217 218.98339 218.08861 217.23083
 216.47405 215.65527 214.75448 214.11970 213.57092 213.02983 211.75920 212.33284
 213.84573 215.74673 217.09138 217.50029 218.61754 222.68552 228.56329 233.41962
 237.20212 240.96817 244.73592 248.44626 251.99980 255.07393 257.67413 260.13510
 262.73782 265.31104 267.72775 269.85980 271.89890 273.85910 275.50012 277.09146
 278.75714 280.41339 281.93488 283.29453 284.47614 285.52457 286.48569 287.36313
 288.15433 288.86453 289.49121 290.32590
 366.78100 356.33563 345.76825 334.63488 323.03850 311.23313 299.10375 286.90738
 274.62000 262.51763 250.52725 239.82888 229.95150 221.05613 213.23875 206.24138
 200.07601 195.01463 191.59726 189.63988 188.67751 188.74213 189.57776 190.88638
 192.61201 194.70763 196.97126 199.33088 201.77651 204.25714 206.34576 208.18839
 209.81501 210.96064 211.19026 211.41889 211.35651 211.06214 210.69576 210.32639
 209.94401 209.65464 209.46326 209.32789 209.25652 209.58814 209.97477 210.36439
 211.15802 212.33664 213.58727 215.37089 217.29952 219.34314 221.43877 223.52239
 225.58302 227.66765 229.76527 231.87190 234.00152 236.17415 238.43077 240.80140
 243.42302 245.67465 247.67727 249.44290 250.86052 251.98415 252.80677 253.12340
 253.16103 252.93565 252.29628 251.24490 249.85153 248.01315 245.92278 243.75640
 241.54803 239.35265 237.17328 235.01290 232.87353 230.74116 228.76778 226.92541
 225.20903 223.68166 222.31228 221.08491 219.96753 218.92816 218.03278 217.17441
 216.41703 215.59766 214.69628 214.06091 213.51154 213.00777 211.82411 212.44138
 213.96901 215.86855 217.12233 217.61189 218.62630 222.72729 228.49902 233.32910
 237.10660 240.88065 244.66180 248.35374 251.82507 254.87158 257.52136 260.03732
 262.58084 265.11993 267.57922 269.74271 271.78568 273.73547 275.37164 276.96585
 278.63281 280.29346 281.81750 283.17804 284.36093 285.41052 286.37265 287.24838
 288.04178 288.75162 289.37888 290.21432
 366.78100 356.33499 345.76698 334.63297 323.03596 311.22995 299.09994 286.90293
 274.61492 262.51191 250.52090 239.82189 229.94389 221.04788 213.22987 206.23186
 200.06585 195.00384 191.58583 189.62782 188.66481 188.72880 189.56379 190.87178
 192.59677 194.69176 196.95475 199.31374 201.75873 204.23872 206.32671 208.16870
 209.79469 210.93968 211.16867 211.39667 211.33366 211.03865 210.67164 210.30163
 209.91862 209.62861 209.43660 209.30059 209.22858 209.55957 209.94556 210.33455
 211.12754 212.30553 213.55552 215.33851 217.26650 219.30949 221.40448 223.48747
 225.54746 227.63145 229.72845 231.83444 233.96343 236.13542 238.39141 240.76140
 243.38239 245.63338 247.63537 249.40036 250.81735 251.94034 252.76233 253.07832
 253.11531 252.88930 252.24929 251.19728 249.80327 247.96426 245.87325 243.70624
 241.49724 239.30123 237.12122 234.96021 232.82020 230.68719 228.71318 226.87017
 225.15316 223.62515 222.25514 221.02713 219.90912 218.86911 217.97310 217.11409
 216.35608 215.53607 214.63406 213.99805 213.44804 212.98428 211.89391 212.54709
 214.07961 215.96660 217.17645 217.70250 218.68767 222.76904 228.44727 233.24396
 237.01115 240.78822 244.57962 248.25323 251.64352 254.66605 257.37183 259.94543
 262.42618 264.93054 267.42273 269.61877 271.66833 273.60767 275.23749 276.83536
 278.51398 280.18204 281.71085 283.07294 284.25531 285.30600 286.26733 287.14389
 287.93835 288.64774 289.27454 290.11191
 366.78100 356.33446 345.76591 334.63137 323.03383 311.22728 299.09674 286.89920
 274.61066 262.50711 250.51557 239.81603 229.93748 221.04094 213.22240 206.22385
 200.05731 194.99477 191.57623 189.61768 188.65414 188.71760 189.55205 190.85951
 192.58397 194.67842 196.94088 199.29934 201.74380 204.22325 206.31071 208.15217
 209.77762 210.92208 211.15054 211.37799 211.31445 211.01891 210.65137 210.28082
 209.89728 209.60674 209.41419 209.27765 209.20511 209.53556 209.92102 210.30948
 211.10194 212.27939 213.52885 215.31131 217.23876 219.28122 221.37568 223.45813
 225.51759 227.60105 229.69751 231.80296 233.93142 236.10288 238.35833 240.72779
 243.34825 245.59870 247.60016 249.36462 250.78108 251.90353 252.72499 253.04045
 253.07690 252.85036 252.20982 251.15727 249.76273 247.92319 245.83165 243.66410
 241.45456 239.25802 237.07747 234.91593 232.77539 230.64184 228.66730 226.82376
 225.10622 223.57767 222.20713 220.97859 219.86004 218.81950 217.92296 217.06341
 216.30487 215.48433 214.58179 213.94524 213.39470 212.96526 211.95490 212.67094
 214.19011 216.03409 217.24310 217.77090 218.78584 222.79124 228.40462 233.16499
 236.91515 240.69424 244.49240 248.14978 251.46078 254.45947 257.22308 259.85339
 262.27139 264.73068 267.25424 269.48737 271.55228 273.48663 275.11176 276.70859
 278.40192 280.07364 281.60663 282.96869 284.15222 285.20306 286.16449 287.04181
 287.83484 288.54587 289.17181 290.01233
 366.78100 356.33381 345.76462 334.62942 323.03123 311.22404 299.09285 286.89465
 274.60546 262.50127 250.50908 239.80888 229.92969 221.03250 213.21331 206.21411
 200.04692 194.98373 191.56454 189.60534 188.64115 188.70396 189.53777 190.84457
 192.56838 194.66219 196.92400 199.28180 201.72561 204.20442 206.29123 208.13203
 209.75684 210.90065 211.12846 211.35527 211.29107 210.99488 210.62669 210.25550
 209.87130 209.58011 209.38692 209.24973 209.17653 209.50634 209.89115 210.27896
 211.07076 212.24757 213.49638 215.27819 217.20499 219.24680 221.34061 223.42242
 225.48122 227.56403 229.65984 231.76465 233.89245 236.06326 238.31807 240.68688
 243.30668 245.55649 247.55730 249.32111 250.73692 251.85872 252.67953 252.99434
 253.03015 252.80295 252.16176 251.10857 249.71338 247.87318 245.78099 243.61280
 241.40261 239.20541 237.02422 234.86203 232.72084 230.58664 228.61145 226.76726
 225.04907 223.51987 222.14868 220.91949 219.80030 218.75910 217.86191 217.00172
 216.24253 215.42133 214.51814 213.88095 213.32976 212.93939 212.02025 212.80087
 214.30118 216.09734 217.30600 217.83363 218.90181 222.79633 228.36620 233.09068
 236.81779 240.59798 244.39891 248.03877 251.27357 254.24962 257.07303 259.76080
 262.12982 264.53070 267.08273 269.34894 271.43082 273.36478 274.99966 276.60349
 278.30148 279.97055 281.50455 282.86682 284.05078 285.10175 286.06561 286.94113
 287.73499 288.44559 289.07272 289.90662
 366.78100 356.33302 345.76305 334.62707 323.02810 311.22012 299.08815 286.88917
 274.59920 262.49422 250.50125 239.80027 229.92030 221.02232 213.20235 206.20237
 200.03440 194.97042 191.55045 189.59047 188.62550 188.68752 189.52055 190.82657
 192.54960 194.64262 196.90364 199.26067 201.70369 204.18172 206.26774 208.10777
 209.73179 210.87482 211.10184 211.32787 211.26289 210.96592 210.59694 210.22497
 209.83999 209.54802 209.35404 209.21607 209.14209 209.47112 209.85514 210.24217
 211.03319 212.20922 213.45724 215.23826 217.16429 219.20531 221.29834 223.37936
 225.43739 227.51941 229.61444 231.71846 233.84549 236.01551 238.26954 240.63756
 243.25659 245.50561 247.50564 249.26866 250.68369 251.80471 252.62474 252.93876
 252.97379 252.74581 252.10384 251.04986 249.65388 247.81291 245.71993 243.55096
 241.33998 239.14201 236.96003 234.79706 232.65508 230.52011 228.54413 226.69916
 224.98018 223.45021 222.07823 220.84826 219.72828 218.68631 217.78833 216.92736
 216.16738 215.34541 214.44143 213.80346 213.25148 212.90717 212.09569 212.92366
 214.40538 216.16629 217.36845 217.90456 219.01956 222.80568 228.33530 233.02115
 236.72456 240.50168 244.30301 247.92068 251.08154 254.03473 256.91443 259.65967
 261.99170 264.34528 266.91357 269.20236 271.30096 273.24094 274.89542 276.51752
 278.21887 279.87982 281.41379 282.77701 283.96021 285.01169 285.97452 286.85089
 287.64417 288.35541 288.98410 289.82086
 366.78100 356.33229 345.76157 334.62486 323.02515 311.21643 299.08372 286.88401
 274.59329 262.48758 250.49387 239.79215 229.91144 221.01273 213.19201 206.19130
 200.02259 194.95787 191.53716 189.57645 188.61073 188.67202 189.50430 190.80959
 192.53188 194.62416 196.88445 199.24074 201.68302 204.16031 206.24560 208.08488
 209.70817 210.85046 211.07674 211.30203 211.23632 210.93860 210.56889 210.19618
 209.81046 209.51775 209.32304 209.18432 209.10961 209.43790 209.82118 210.20747
 210.99776 212.17304 213.42033 215.20062 217.12590 219.16619 221.25848 223.33876
 225.39605 227.47734 229.57162 231.67491 233.80119 235.97048 238.22377 240.59105
 243.20934 245.45763 247.45691 249.21920 250.63349 251.75377 252.57306 252.88635
 252.92063 252.69192 252.04921 250.99449 249.59778 247.75607 245.66235 243.49264
 241.28093 239.08221 236.89950 234.73579 232.59307 230.45736 228.48065 226.63493
 224.91522 223.38451 222.01179 220.78108 219.66037 218.61765 217.71894 216.85723
 216.09651 215.27380 214.36908 213.73037 213.17766 212.87817 212.17155 213.04701
 214.49919 216.23331 217.43416 217.97371 219.12848 222.82642 228.31024 232.95702
 236.63995 240.41170 244.21210 247.80371 250.89351 253.81998 256.74692 259.54810
 261.84525 264.16724 266.73657 269.04245 271.16006 273.11017 274.77979 276.42111
 278.12552 279.82498 281.36780 282.73242 283.91833 284.97220 285.93896 286.81827
 287.62234 288.34103 288.97263 289.81454
 366.78100 356.33159 345.76018 334.62276 323.02235 311.21294 299.07953 286.87912
 274.58770 262.48129 250.48688 239.78447 229.90305 221.00364 213.18223 206.18082
 200.01141 194.94599 191.52458 189.56317 188.59676 188.65735 189.48893 190.79352
 192.51511 194.60670 196.86628 199.22187 201.66346 204.14005 206.22464 208.06322
 209.68581 210.82740 211.05299 211.27758 211.21116 210.91275 210.54234 210.16893
 209.78252 209.48910 209.29369 209.15428 209.07887 209.40645 209.78904 210.17463
 210.96422 212.13881 213.38539 215.16498 217.08957 219.12916 221.22075 223.30033
 225.35692 227.43751 229.53110 231.63368 233.75927 235.92786 238.18045 240.54704
 243.16462 245.41221 247.41080 249.17239 250.58598 251.70556 252.52415 252.83674
 252.87033 252.64092 251.99750 250.94209 249.54468 247.70227 245.60785 243.43744
 241.22503 239.02562 236.84221 234.67779 232.53438 230.39797 228.42056 226.57415
 224.85373 223.32232 221.94891 220.71750 219.59609 218.55267 217.65326 216.79085
 216.02944 215.20602 214.30061 213.66120 213.10779 212.85168 212.24658 213.17363
 214.58789 216.29843 217.50354 218.03131 219.23956 222.84587 228.29124 232.89391
 236.55727 240.32741 244.12643 247.68906 250.71042 253.60515 256.57172 259.42645
 261.69940 263.99673 266.55603 268.88019 271.02200 272.98480 274.66760 276.32281
 278.04523 279.77859 281.32501 282.69138 283.87823 284.93219 285.89981 286.78452
 287.58856 288.31046 288.94415 289.78754
 366.78100 356.33100 345.75900 334.62100 323.02000 311.21000 299.07600 286.87500
 274.58300 262.47600 250.48100 239.77799 229.89599 220.99599 213.17399 206.17199
 200.00199 194.93599 191.51399 189.55199 188.58499 188.64499 189.47599 190.77999
 192.50099 194.59199 196.85099 199.20599 201.64699 204.12299 206.20699 208.04498
 209.66698 210.80798 211.03298 211.25698 211.18998 210.89098 210.51998 210.14598
 209.75898 209.46498 209.26898 209.12898 209.05298 209.37998 209.76198 210.14698
 210.93598 212.10998 213.35598 215.13497 217.05897 219.09797 221.18897 223.26797
 225.32397 227.40397 229.49697 231.59897 233.72397 235.89197 238.14397 240.50997
 243.12697 245.37397 247.37197 249.13297 250.54597 251.66497 252.48297 252.79496
 252.82796 252.59796 251.95396 250.89796 249.49996 247.65696 245.56196 243.39096
 241.17796 238.97796 236.79396 234.62896 232.48496 230.34796 228.36996 226.52296
 224.80196 223.26996 221.89596 220.66395 219.54195 218.49795 217.59795 216.73495
 215.97295 215.14895 214.24295 213.60295 213.04895 212.83192 212.31918 213.29968
 214.67531 216.36574 217.57507 218.09338 219.35590 222.86694 228.26756 232.83017
 236.47569 240.24974 244.04375 247.57173 250.52409 253.38498 256.38583 259.29214
 261.55762 263.83279 266.37997 268.72229 270.89117 272.87201 274.56699 276.23264
 277.98459 279.73026 281.27869 282.64594 283.83420 284.88910 285.85684 286.74213
 287.54953 288.27365 288.90894 289.75375
 366.78100 356.33055 345.75809 334.61964 323.01819 311.20773 299.07328 286.87183
 274.57937 262.47192 250.47647 239.77301 229.89056 220.99011 213.16765 206.16520
 199.99475 194.92830 191.50584 189.54339 188.57594 188.63548 189.46603 190.76958
 192.49012 194.58067 196.83922 199.19376 201.63431 204.10986 206.19340 208.03095
 209.65250 210.79304 211.01759 211.24114 211.17368 210.87423 210.50278 210.12832
 209.74087 209.44642 209.24996 209.10951 209.03306 209.35960 209.74115 210.12570
 210.91425 212.08779 213.33334 215.11189 217.03543 219.07398 221.16453 223.24307
 225.29862 227.37817 229.47071 231.57226 233.69681 235.86435 238.11590 240.48145
 243.09799 245.34454 247.34209 249.10263 250.51518 251.63373 252.45127 252.76282
 252.79537 252.56491 251.92046 250.86401 249.46555 247.62210 245.52665 243.35520
 241.14174 238.94129 236.75684 234.59138 232.44693 230.30948 228.33102 226.48357
 224.76212 223.22966 221.85521 220.62276 219.50030 218.45585 217.55540 216.69194
 215.92949 215.10504 214.19858 213.55813 213.00368 212.82123 212.39020 213.41602
 214.76372 216.43242 217.65692 218.15273 219.49927 222.88103 228.24879 232.76927
 236.39410 240.17157 243.95831 247.44896 250.33545 253.16208 256.19168 259.14282
 261.41284 263.67197 266.20712 268.56711 270.76791 272.77417 274.48697 276.16370
 277.92847 279.67941 281.22992 282.59818 283.78586 284.84265 285.81174 286.69913
 287.50693 288.23483 288.86819 289.71826
 366.78100 356.33035 345.75771 334.61906 323.01742 311.20677 299.07213 286.87048
 274.57784 262.47019 250.47455 239.77090 229.88825 220.98761 213.16496 206.16232
 199.99167 194.92503 191.50238 189.53974 188.57209 188.63144 189.46180 190.76515
 192.48551 194.57586 196.83422 199.18857 201.62893 204.10428 206.18764 208.02499
 209.64634 210.78670 211.01105 211.23441 211.16676 210.86712 210.49547 210.12083
 209.73318 209.43854 209.24189 209.10124 209.02460 209.35095 209.73231 210.11666
 210.90502 212.07837 213.32373 215.10208 217.02543 219.06379 221.15414 223.23250
 225.28785 227.36721 229.45956 231.56092 233.68527 235.85263 238.10398 240.46933
 243.08569 245.33204 247.32940 249.08975 250.50211 251.62046 252.43782 252.74917
 252.78152 252.55088 251.90623 250.84959 249.45094 247.60730 245.51165 243.34001
 241.12636 238.92572 236.74107 234.57542 232.43078 230.29313 228.31449 226.46684
 224.74520 223.21255 221.83791 220.60526 219.48262 218.43797 217.53732 216.67368
 215.91103 215.08639 214.17974 213.53910 212.98445 212.82660 212.45366 213.52686
 214.84839 216.50272 217.73788 218.23219 219.64731 222.90074 228.22716 232.70837
 236.31604 240.09987 243.87720 247.32741 250.14758 252.93729 255.98752 258.97482
 261.26205 263.51877 266.04355 268.42120 270.65408 272.68716 274.42041 276.10846
 277.87344 279.62753 281.17938 282.54678 283.73502 284.79001 285.75830 286.64276
 287.45331 288.17682 288.79688 289.63336
 366.78100 356.33040 345.75781 334.61921 323.01762 311.20702 299.07243 286.87083
 274.57823 262.47064 250.47504 239.77145 229.88885 220.98826 213.16566 206.16306
 199.99247 194.92587 191.50328 189.54068 188.57309 188.63249 189.46289 190.76630
 192.48670 194.57711 196.83551 199.18991 201.63032 204.10572 206.18913 208.02653
 209.64794 210.78834 211.01274 211.23615 211.16855 210.86896 210.49736 210.12277
 209.73517 209.44057 209.24398 209.10338 209.02679 209.35319 209.73460 210.11900
 210.90740 212.08081 213.32621 215.10462 217.02802 219.06643 221.15683 223.23523
 225.29064 227.37004 229.46245 231.56385 233.68826 235.85566 238.10706 240.47247
 243.08887 245.33528 247.33268 249.09309 250.50549 251.62389 252.44130 252.75270
 252.78511 252.55451 251.90991 250.85332 249.45472 247.61113 245.51553 243.34394
 241.13034 238.92974 236.74515 234.57955 232.43496 230.29736 228.31877 226.47117
 224.74957 223.21698 221.84238 220.60979 219.48719 218.44260 217.54200 216.67840
 215.91581 215.09121 214.18462 213.54402 212.98943 212.84691 212.51019 213.64415
 214.91893 216.54599 217.85674 218.31009 219.82791 222.93207 228.19788 232.64413
 236.23756 240.02824 243.79121 247.19273 249.94566 252.70355 255.77225 258.79297
 261.12003 263.38925 265.90155 268.29596 270.56042 272.62466 274.37799 276.07175
 277.81946 279.56430 281.11389 282.48111 283.66858 284.72299 285.69052 286.57568
 287.38553 288.10947 288.72693 289.56461
 366.78100 356.33013 345.75727 334.61840 323.01654 311.20567 299.07080 286.86894
 274.57607 262.46821 250.47234 239.76847 229.88561 220.98474 213.16188 206.15901
 199.98814 194.92128 191.49841 189.53555 188.56768 188.62681 189.45695 190.76008
 192.48022 194.57035 196.82848 199.18262 201.62275 204.09789 206.18102 208.01815
 209.63929 210.77942 211.00356 211.22669 211.15882 210.85896 210.48709 210.11223
 209.72436 209.42949 209.23263 209.09176 209.01490 209.34103 209.72217 210.10630
 210.89443 212.06757 213.31270 215.09084 217.01397 219.05210 221.14224 223.22037
 225.27551 227.35464 229.44677 231.54791 233.67204 235.83918 238.09031 240.45544
 243.07158 245.31771 247.31485 249.07498 250.48711 251.60525 252.42238 252.73352
 252.76565 252.53478 251.88992 250.83305 249.43419 247.59032 245.49445 243.32259
 241.10872 238.90786 236.72299 234.55712 232.41226 230.27439 228.29553 226.44766
 224.72579 223.19293 221.81806 220.58520 219.46233 218.41746 217.51660 216.65273
 215.88987 215.06500 214.15813 213.51727 212.96240 212.85320 212.59517 213.75711
 214.97949 216.53282 217.96220 218.51915 220.02458 222.89458 228.16898 232.58391
 236.15172 239.94759 243.69228 247.04126 249.73650 252.47171 255.55850 258.61243
 260.99698 263.28494 265.77905 268.18765 270.48108 272.57901 274.35175 276.04745
 277.77692 279.50565 281.05383 282.42188 283.60825 284.66287 285.62823 286.51627
 287.32681 288.04730 288.66602 289.50760
 366.78100 356.32950 345.75599 334.61649 323.01398 311.20248 299.06698 286.86447
 274.57097 262.46247 250.46596 239.76146 229.87795 220.97645 213.15295 206.14944
 199.97794 194.91044 191.48693 189.52343 188.55492 188.61342 189.44292 190.74541
 192.46491 194.55441 196.81190 199.16540 201.60489 204.07939 206.16189 207.99838
 209.61888 210.75837 210.98187 211.20437 211.13586 210.83536 210.46286 210.08735
 209.69885 209.40334 209.20584 209.06434 208.98683 209.31233 209.69283 210.07632
 210.86382 212.03631 213.28081 215.05831 216.98080 219.01830 221.10780 223.18529
 225.23979 227.31828 229.40978 231.51028 233.63377 235.80027 238.05076 240.41526
 243.03076 245.27625 247.27275 249.03225 250.44374 251.56124 252.37773 252.68823
 252.71973 252.48822 251.84272 250.78522 249.38571 247.54121 245.44470 243.27220
 241.05770 238.85619 236.67069 234.50419 232.35868 230.22018 228.24067 226.39217
 224.66967 223.13616 221.76066 220.52715 219.40365 218.35815 217.45664 216.59214
 215.82864 215.00313 214.09563 213.45412 212.89862 212.84276 212.71080 213.85722
 215.08633 216.56116 217.93059 218.66360 220.21288 222.90520 228.14343 232.51903
 236.06119 239.86494 243.59583 246.90099 249.55055 252.26328 255.35774 258.43808
 260.88934 263.20404 265.67819 268.09695 270.41895 272.55011 274.34564 276.03897
 277.75119 279.45053 280.99536 282.36163 283.54889 284.60321 285.56738 286.45459
 287.26843 287.98273 288.60202 289.44345
 366.78100 356.32908 345.75516 334.61524 323.01232 311.20040 299.06448 286.86156
 274.56764 262.45872 250.46180 239.75688 229.87296 220.97104 213.14712 206.14320
 199.97128 194.90336 191.47944 189.51552 188.54660 188.60468 189.43376 190.73584
 192.45492 194.54400 196.80108 199.15416 201.59324 204.06732 206.14940 207.98548
 209.60556 210.74464 210.96772 211.18980 211.12088 210.81996 210.44704 210.07112
 209.68220 209.38628 209.18836 209.04644 208.96852 209.29360 209.67368 210.05676
 210.84384 212.01592 213.26000 215.03709 216.95917 218.99625 221.08533 223.16241
 225.21649 227.29457 229.38565 231.48573 233.60881 235.77489 238.02497 240.38905
 243.00413 245.24921 247.24529 249.00437 250.41545 251.53253 252.34861 252.65869
 252.68977 252.45785 251.81193 250.75401 249.35409 247.50917 245.41225 243.23933
 241.02441 238.82249 236.63657 234.46965 232.32373 230.18481 228.20489 226.35597
 224.63305 223.09913 221.72321 220.48929 219.36537 218.31945 217.41753 216.55261
 215.78869 214.96277 214.05485 213.41293 212.85701 212.84486 212.81619 213.96471
 215.21704 216.63290 217.88934 218.72868 220.31737 222.97379 228.09395 232.42081
 235.95226 239.76784 243.48596 246.74739 249.35851 252.05846 255.16125 258.27017
 260.80246 263.15497 265.62112 268.05505 270.40182 272.57202 274.39716 276.06946
 277.74274 279.38589 280.92590 282.29269 283.47977 284.53125 285.49622 286.38434
 287.20047 287.91263 288.52991 289.37781
 366.78100 356.32823 345.75346 334.61269 323.00892 311.19615 299.05938 286.85561
 274.56084 262.45106 250.45329 239.74752 229.86275 220.95998 213.13521 206.13044
 199.95767 194.88890 191.46413 189.49936 188.52959 188.58682 189.41505 190.71628
 192.43451 194.52274 196.77896 199.13119 201.56942 204.04265 206.12388 207.95911
 209.57834 210.71657 210.93880 211.16003 211.09026 210.78849 210.41472 210.03795
 209.64818 209.35141 209.15264 209.00987 208.93109 209.25532 209.63455 210.01678
 210.80301 211.97424 213.21747 214.99370 216.91493 218.95116 221.03939 223.11562
 225.16885 227.24608 229.33631 231.43554 233.55777 235.72299 237.97222 240.33545
 242.94968 245.19391 247.18914 248.94737 250.35760 251.47383 252.28906 252.59829
 252.62852 252.39575 251.74898 250.69021 249.28944 247.44367 245.34589 243.17212
 240.95635 238.75358 236.56681 234.39904 232.25227 230.11250 228.13173 226.28196
 224.55819 223.02342 221.64665 220.41188 219.28711 218.24034 217.33757 216.47180
 215.70702 214.88025 213.97148 213.32871 212.77194 212.82735 212.96249 214.06664
 215.29448 216.69046 217.88559 218.76295 220.34250 223.02597 228.01103 232.31883
 235.83273 239.67113 243.37994 246.60103 249.15984 251.82968 254.94531 258.10306
 260.73892 263.14038 265.58405 268.03134 270.40231 272.61395 274.49869 276.19559
 277.82791 279.38367 280.85626 282.21927 283.40244 284.45142 285.41272 286.29929
 287.11047 287.82663 288.48062 289.32797
 366.78100 356.32783 345.75265 334.61148 323.00730 311.19413 299.05695 286.85278
 274.55760 262.44743 250.44925 239.74308 229.85790 220.95473 213.12956 206.12438
 199.95121 194.88203 191.45686 189.49168 188.52151 188.57833 189.40616 190.70698
 192.42481 194.51263 196.76846 199.12028 201.55811 204.03094 206.11176 207.94659
 209.56541 210.70324 210.92506 211.14589 211.07571 210.77354 210.39936 210.02219
 209.63201 209.33484 209.13567 208.99249 208.91332 209.23714 209.61597 209.99779
 210.78362 211.95444 213.19727 214.97309 216.89392 218.92974 221.01757 223.09340
 225.14622 227.22305 229.31287 231.41170 233.53352 235.69835 237.94717 240.31000
 242.92382 245.16765 247.16247 248.92030 250.33013 251.44595 252.26078 252.56960
 252.59943 252.36625 251.71908 250.65990 249.25873 247.41255 245.31438 243.14020
 240.92403 238.72085 236.53368 234.36551 232.21833 230.07816 228.09698 226.24681
 224.52263 222.98746 221.61028 220.37511 219.24993 218.20276 217.29958 216.43341
 215.66824 214.84106 213.93189 213.28871 212.73154 212.83304 213.09415 214.24182
 215.33286 216.63454 217.91737 218.89795 220.44975 223.14436 227.92163 232.23268
 235.71835 239.57210 243.25591 246.41370 248.95576 251.60956 254.71983 257.86404
 260.59882 263.07706 265.54907 267.99890 270.38031 272.59607 274.54858 276.28549
 277.89969 279.40500 280.89777 282.26501 283.45428 284.51898 285.50363 286.40518
 287.22711 288.01590 288.70496 289.58310
 366.78100 356.32744 345.75187 334.61031 323.00575 311.19218 299.05462 286.85006
 274.55450 262.44393 250.44537 239.73881 229.85324 220.94968 213.12412 206.11855
 199.94499 194.87543 191.44986 189.48430 188.51374 188.57017 189.39761 190.69805
 192.41549 194.50292 196.75836 199.10980 201.54723 204.01967 206.10011 207.93454
 209.55298 210.69042 210.91185 211.13229 211.06173 210.75916 210.38460 210.00704
 209.61648 209.31891 209.11935 208.97579 208.89622 209.21966 209.59810 209.97953
 210.76497 211.93541 213.17784 214.95328 216.87372 218.90915 220.99659 223.07203
 225.12447 227.20090 229.29034 231.38878 233.51021 235.67465 237.92309 240.28552
 242.89896 245.14240 247.13683 248.89427 250.30371 251.41914 252.23358 252.54202
 252.57146 252.33789 251.69033 250.63077 249.22920 247.38264 245.28408 243.10951
 240.89295 238.68939 236.50182 234.33326 232.18570 230.04513 228.06357 226.21301
 224.48845 222.95288 221.57532 220.33976 219.21419 218.16663 217.26307 216.39650
 215.63094 214.80338 213.89381 213.25025 212.69269 212.84050 213.23537 214.42380
 215.31898 216.59062 217.94917 219.02631 220.61415 223.32988 227.85484 232.14230
 235.61290 239.43179 243.05396 246.14053 248.72200 251.40179 254.49191 257.61230
 260.42883 262.98019 265.46622 267.94925 270.34256 272.56335 274.50378 276.22543
 277.83664 279.38892 280.90790 282.28391 283.48010 284.55215 285.55441 286.53299
 287.43945 288.24664 288.95181 289.85046
 366.78100 356.32734 345.75167 334.61001 323.00534 311.19168 299.05401 286.84935
 274.55368 262.44302 250.44435 239.73769 229.85202 220.94836 213.12269 206.11703
 199.94336 194.87370 191.44803 189.48237 188.51171 188.56804 189.39538 190.69571
 192.41305 194.50038 196.75572 199.10705 201.54439 204.01672 206.09706 207.93139
 209.54973 210.68706 210.90840 211.12873 211.05807 210.75540 210.38074 210.00307
 209.61241 209.31475 209.11508 208.97142 208.89175 209.21509 209.59342 209.97476
 210.76009 211.93043 213.17276 214.94810 216.86843 218.90377 220.99110 223.06644
 225.11877 227.19511 229.28444 231.38278 233.50412 235.66845 237.91679 240.27912
 242.89246 245.13579 247.13013 248.88746 250.29680 251.41213 252.22647 252.53480
 252.56414 252.33047 251.68281 250.62314 249.22148 247.37481 245.27615 243.10149
 240.88482 238.68116 236.49349 234.32483 232.17716 230.03650 228.05483 226.20417
 224.47950 222.94384 221.56617 220.33051 219.20484 218.15718 217.25351 216.38685
 215.62118 214.79352 213.88386 213.24019 212.68253 212.87027 213.37927 214.47980
 215.39589 216.72081 218.03929 219.14240 220.77147 223.47618 227.80676 232.05531
 235.51131 239.28674 242.84860 245.87611 248.47044 251.19763 254.30328 257.46103
 260.28580 262.95474 265.48798 267.94217 270.31860 272.53226 274.48022 276.18701
 277.75842 279.32394 280.88351 282.26779 283.48755 284.66312 285.80664 286.84259
 287.77429 288.60400 289.32880 290.25250
 366.78100 356.32821 345.75342 334.61262 323.00883 311.19604 299.05925 286.85545
 274.56066 262.45087 250.45308 239.74728 229.86249 220.95970 213.13491 206.13011
 199.95732 194.88853 191.46374 189.49894 188.52915 188.58636 189.41457 190.71577
 192.43398 194.52219 196.77840 199.13061 201.56881 204.04202 206.12323 207.95844
 209.57764 210.71585 210.93806 211.15927 211.08947 210.78768 210.41389 210.03710
 209.64730 209.35051 209.15172 209.00893 208.93013 209.25434 209.63355 210.01576
 210.80196 211.97317 213.21638 214.99259 216.91380 218.95000 221.03821 223.11442
 225.16763 227.24483 229.33504 231.43425 233.55646 235.72166 237.97087 240.33408
 242.94829 245.19249 247.18770 248.94591 250.35612 251.47232 252.28753 252.59674
 252.62695 252.39415 251.74736 250.68857 249.28778 247.44199 245.34419 243.17040
 240.95461 238.75182 236.56502 234.39723 232.25044 230.11065 228.12985 226.28006
 224.55627 223.02148 221.64468 220.40989 219.28510 218.23831 217.33551 216.46972
 215.70493 214.87814 213.96934 213.32655 212.76976 212.95473 213.46779 214.50774
 215.56384 216.92261 218.18855 219.30606 220.94632 223.58966 227.79860 231.97523
 235.42120 239.15324 242.66621 245.65919 248.26256 251.02219 254.15358 257.39026
 260.21237 262.93680 265.58600 268.05508 270.38544 272.58163 274.51562 276.18726
 277.68701 279.34488 280.92346 282.34268 283.71973 285.01163 286.19031 287.25812
 288.21851 289.07373 289.82083 290.77292
 366.78100 356.32981 345.75662 334.61743 323.01523 311.20404 299.06885 286.86666
 274.57347 262.46528 250.46909 239.76489 229.88170 220.98051 213.15732 206.15413
 199.98294 194.91575 191.49255 189.52936 188.56117 188.61998 189.44979 190.75260
 192.47241 194.56221 196.82002 199.17383 201.61364 204.08845 206.17126 208.00807
 209.62887 210.76868 210.99249 211.21530 211.14711 210.84692 210.47473 210.09953
 209.71134 209.41615 209.21896 209.07777 209.00058 209.32638 209.70719 210.09100
 210.87881 212.05162 213.29643 215.07424 216.99704 219.03485 221.12466 223.20247
 225.25728 227.33609 229.42790 231.52870 233.65251 235.81932 238.07013 240.43494
 243.05075 245.29656 247.29336 249.05317 250.46498 251.58279 252.39960 252.71041
 252.74222 252.51102 251.86583 250.80864 249.40945 247.56526 245.46907 243.29688
 241.08268 238.88149 236.69630 234.53011 232.38492 230.24673 228.26754 226.41934
 224.69715 223.16396 221.78877 220.55558 219.43239 218.38720 217.48600 216.62181
 215.85862 215.03343 214.12624 213.48505 212.92986 213.06686 213.47932 214.59406
 215.76503 217.09367 218.31590 219.42982 221.06612 223.66235 227.75751 231.87506
 235.29068 238.96149 242.39005 245.32368 247.93497 250.73271 253.90244 257.14899
 260.10779 262.91129 265.63864 268.12878 270.46210 272.65488 274.58765 276.25095
 277.77670 279.44183 281.01794 282.42993 283.77460 285.05133 286.21613 287.27136
 288.22043 289.06558 289.80389 290.74478
 366.78100 356.32875 345.75450 334.61426 323.01101 311.19876 299.06251 286.85926
 274.56502 262.45577 250.45852 239.75327 229.86902 220.96678 213.14253 206.13828
 199.96603 194.89778 191.47354 189.50929 188.54004 188.59779 189.42654 190.72830
 192.44705 194.53580 196.79255 199.14530 201.58406 204.05781 206.13956 207.97531
 209.59507 210.73382 210.95657 211.17832 211.10907 210.80783 210.43458 210.05833
 209.66908 209.37283 209.17459 209.03234 208.95409 209.27884 209.65859 210.04135
 210.82810 211.99985 213.24360 215.02035 216.94211 218.97886 221.06761 223.14436
 225.19811 227.27587 229.36662 231.46637 233.58912 235.75487 238.00463 240.36838
 242.98313 245.22788 247.22363 248.98239 250.39314 251.50989 252.32564 252.63539
 252.66615 252.43390 251.78765 250.72940 249.32915 247.48391 245.38666 243.21341
 240.99816 238.79591 236.60967 234.44242 232.29617 230.15692 228.17668 226.32743
 224.60418 223.06993 221.69368 220.45944 219.33519 218.28894 217.38669 216.52144
 215.75720 214.93095 214.02270 213.38045 212.82420 213.02377 213.55347 214.81111
 215.77507 217.02283 218.33002 219.49644 221.18164 223.73264 227.74425 231.78714
 235.16408 238.75560 242.07031 244.92409 247.53888 250.37570 253.56715 256.82303
 259.90207 262.76297 265.46457 267.99527 270.36429 272.57980 274.56876 276.32996
 277.94159 279.44070 280.97797 282.34357 283.53879 284.61691 285.68173 286.68295
 287.58340 288.38528 289.08578 289.97852
 366.78100 356.32901 345.75501 334.61502 323.01202 311.20003 299.06404 286.86104
 274.56705 262.45805 250.46106 239.75607 229.87207 220.97008 213.14609 206.14209
 199.97010 194.90210 191.47811 189.51412 188.54512 188.60313 189.43213 190.73414
 192.45315 194.54215 196.79916 199.15216 201.59117 204.06518 206.14718 207.98319
 209.60319 210.74220 210.96521 211.18721 211.11822 210.81723 210.44423 210.06824
 209.67924 209.38325 209.18526 209.04326 208.96527 209.29027 209.67028 210.05329
 210.84029 212.01230 213.25630 215.03331 216.95532 218.99232 221.08133 223.15834
 225.21234 227.29035 229.38135 231.48136 233.60437 235.77037 238.02038 240.38438
 242.99939 245.24440 247.24040 248.99941 250.41041 251.52742 252.34343 252.65343
 252.68444 252.45244 251.80645 250.74846 249.34846 247.50347 245.40648 243.23348
 241.01849 238.81649 236.63050 234.46351 232.31751 230.17852 228.19852 226.34953
 224.62654 223.09254 221.71655 220.48255 219.35856 218.31257 217.41057 216.54558
 215.78158 214.95559 214.04760 213.40560 212.84961 213.04053 213.51135 215.08984
 216.00177 217.19467 218.56624 219.68806 221.35426 223.78889 227.79559 231.70116
 235.09486 238.62489 241.82097 244.55629 247.11021 249.97835 253.25682 256.57495
 259.70886 262.61148 265.29712 267.83514 270.24036 272.48425 274.53235 276.37271
 278.05054 279.56021 280.91949 282.24512 283.42227 284.47598 285.44470 286.30402
 287.07938 287.80804 288.45160 289.27173
 366.78100 356.32932 345.75564 334.61596 323.01327 311.20159 299.06591 286.86323
 274.56955 262.46087 250.46419 239.75950 229.87582 220.97414 213.15046 206.14678
 199.97510 194.90742 191.48373 189.52005 188.55137 188.60969 189.43901 190.74133
 192.46065 194.54996 196.80728 199.16060 201.59992 204.07424 206.15656 207.99288
 209.61319 210.75251 210.97583 211.19815 211.12947 210.82879 210.45611 210.08043
 209.69174 209.39606 209.19838 209.05670 208.97902 209.30434 209.68466 210.06797
 210.85529 212.02761 213.27193 215.04925 216.97157 219.00889 221.09820 223.17552
 225.22984 227.30816 229.39948 231.49980 233.62312 235.78943 238.03975 240.40407
 243.01939 245.26471 247.26103 249.02035 250.43166 251.54898 252.36530 252.67562
 252.70694 252.47526 251.82958 250.77189 249.37221 247.52753 245.43085 243.25817
 241.04349 238.84181 236.65612 234.48944 232.34376 230.20508 228.22540 226.37672
 224.65404 223.12035 221.74467 220.51099 219.38731 218.34163 217.43995 216.57527
 215.81158 214.98590 214.07822 213.43654 212.88086 213.07928 213.54807 215.17104
 216.13892 217.41484 218.78793 219.92488 221.58067 223.93149 227.85802 231.68570
 234.99754 238.41490 241.47539 244.15335 246.76778 249.72009 253.05234 256.41595
 259.59561 262.52863 265.22501 267.76932 270.17517 272.42590 274.49612 276.36627
 278.08920 279.64407 281.00415 282.20163 283.32047 284.37308 285.33380 286.15863
 286.89130 287.57669 288.19995 289.02167
 366.78100 356.32933 345.75565 334.61598 323.01331 311.20163 299.06596 286.86329
 274.56961 262.46094 250.46427 239.75960 229.87592 220.97425 213.15058 206.14690
 199.97523 194.90756 191.48388 189.52021 188.55154 188.60986 189.43919 190.74152
 192.46084 194.55017 196.80750 199.16082 201.60015 204.07448 206.15681 207.99313
 209.61346 210.75279 210.97611 211.19844 211.12977 210.82909 210.45642 210.08075
 209.69207 209.39640 209.19873 209.05705 208.97938 209.30471 209.68503 210.06836
 210.85569 212.02801 213.27234 215.04967 216.97200 219.00932 221.09865 223.17598
 225.23030 227.30863 229.39996 231.50028 233.62361 235.78994 238.04026 240.40459
 243.01992 245.26524 247.26157 249.02090 250.43222 251.54955 252.36588 252.67621
 252.70753 252.47586 251.83019 250.77251 249.37284 247.52817 245.43149 243.25882
 241.04415 238.84247 236.65680 234.49013 232.34445 230.20578 228.22611 226.37743
 224.65476 223.12109 221.74542 220.51174 219.38807 218.34240 217.44072 216.57605
 215.81238 214.98670 214.07903 213.43736 212.88168 213.10786 213.64227 215.20680
 216.24957 217.62738 218.92126 220.04211 221.73523 224.02103 227.89070 231.66885
 234.92572 238.23215 241.16064 243.77263 246.43683 249.47209 252.86238 256.26929
 259.48932 262.45728 265.18484 267.74081 270.12976 272.35837 274.42651 276.32648
 278.08591 279.65552 281.02417 282.23669 283.34335 284.38446 285.29694 286.04321
 286.76694 287.45444 288.07855 288.91275
 366.78100 356.33016 345.75731 334.61847 323.01662 311.20578 299.07093 286.86909
 274.57624 262.46840 250.47256 239.76871 229.88587 220.98502 213.16218 206.15933
 199.98849 194.92164 191.49880 189.53596 188.56811 188.62727 189.45742 190.76058
 192.48073 194.57089 196.82904 199.18320 201.62336 204.09851 206.18167 208.01882
 209.63998 210.78013 211.00429 211.22744 211.15960 210.85975 210.48791 210.11307
 209.72522 209.43038 209.23353 209.09269 209.01584 209.34200 209.72315 210.10731
 210.89547 212.06862 213.31378 215.09193 217.01509 219.05324 221.14340 223.22155
 225.27671 227.35587 229.44802 231.54918 233.67333 235.84049 238.09164 240.45680
 243.07295 245.31911 247.31627 249.07642 250.48858 251.60673 252.42389 252.73504
 252.76720 252.53635 251.89151 250.83467 249.43582 247.59198 245.49613 243.32429
 241.11044 238.90960 236.72475 234.55891 232.41407 230.27622 228.29738 226.44953
 224.72769 223.19484 221.82000 220.58715 219.46431 218.41947 217.51862 216.65478
 215.89193 215.06709 214.16024 213.51940 212.96455 213.17778 213.69310 215.31273
 216.28325 217.77611 219.09389 220.05896 221.80516 224.06961 227.91551 231.67116
 234.87151 238.05844 240.83936 243.35114 246.05499 249.18707 252.65950 256.12842
 259.39777 262.40799 265.17178 267.73218 270.09763 272.29730 274.36362 276.29462
 278.06729 279.63852 281.00327 282.24307 283.39169 284.41443 285.22906 286.04404
 286.82132 287.54611 288.20233 289.03864
 366.78100 356.32810 345.75319 334.61229 323.00839 311.19548 299.05858 286.85468
 274.55978 262.44987 250.45197 239.74607 229.86116 220.95826 213.13336 206.12845
 199.95555 194.88665 191.46175 189.49684 188.52694 188.58404 189.41213 190.71323
 192.43133 194.51942 196.77552 199.12762 201.56572 204.03881 206.11991 207.95501
 209.57410 210.71220 210.93430 211.15539 211.08549 210.78359 210.40969 210.03278
 209.64288 209.34598 209.14707 209.00417 208.92527 209.24936 209.62846 210.01056
 210.79665 211.96775 213.21085 214.98695 216.90804 218.94414 221.03224 223.10833
 225.16143 227.23853 229.32862 231.42772 233.54982 235.71492 237.96401 240.32711
 242.94121 245.18530 247.18040 248.93850 250.34859 251.46469 252.27979 252.58889
 252.61898 252.38608 251.73918 250.68027 249.27937 247.43347 245.33556 243.16166
 240.94576 238.74285 236.55595 234.38805 232.24115 230.10124 228.12034 226.27044
 224.54653 223.01163 221.63473 220.39982 219.27492 218.22802 217.32512 216.45921
 215.69431 214.86741 213.95850 213.31560 212.75870 213.10236 213.96187 215.34889
 216.33253 217.58942 218.91875 220.19737 221.95213 224.27539 227.94209 231.72047
 234.76929 237.84148 240.51071 242.99982 245.76834 248.99927 252.52142 256.03424
 259.33829 262.38889 265.19250 267.75375 270.08673 272.24756 274.30350 276.23950
 278.01865 279.58170 280.92285 282.22797 283.41882 284.48151 285.49933 286.46899
 287.34109 288.11771 288.79614 289.66074
 366.78100 356.32934 345.75568 334.61601 323.01335 311.20169 299.06603 286.86337
 274.56971 262.46104 250.46438 239.75972 229.87606 220.97440 213.15074 206.14707
 199.97541 194.90775 191.48409 189.52043 188.55177 188.61010 189.43944 190.74178
 192.46112 194.55046 196.80780 199.16113 201.60047 204.07481 206.15715 207.99349
 209.61382 210.75316 210.97650 211.19884 211.13018 210.82952 210.45685 210.08119
 209.69253 209.39687 209.19921 209.05755 208.97988 209.30522 209.68556 210.06890
 210.85624 212.02858 213.27291 215.05025 216.97259 219.00993 221.09927 223.17661
 225.23094 227.30928 229.40062 231.50096 233.62430 235.79063 238.04097 240.40531
 243.02065 245.26599 247.26233 249.02166 250.43300 251.55034 252.36668 252.67702
 252.70836 252.47669 251.83103 250.77337 249.37371 247.52905 245.43239 243.25972
 241.04506 238.84340 236.65774 234.49108 232.34542 230.20675 228.22709 226.37843
 224.65577 223.12211 221.74644 220.51278 219.38912 218.34346 217.44180 216.57714
 215.81347 214.98781 214.08015 213.43849 212.88283 213.20969 214.11092 215.45306
 216.63239 217.73619 219.10316 220.64301 222.30737 224.46384 228.12172 231.64511
 234.62622 237.53360 240.10930 242.63475 245.51375 248.82051 252.39191 255.98985
 259.35315 262.44363 265.24289 267.75415 270.02277 272.13013 274.13248 275.97058
 277.96381 279.86359 281.73297 283.37439 284.79489 286.05170 287.19833 288.23709
 289.17136 290.00333 290.73010 291.65631
 366.78100 356.33325 345.76350 334.62775 323.02900 311.22125 299.08950 286.89075
 274.60101 262.49626 250.50351 239.80276 229.92301 221.02526 213.20551 206.20576
 200.03801 194.97426 191.55451 189.59476 188.63001 188.69226 189.52551 190.83176
 192.55502 194.64827 196.90952 199.26677 201.71002 204.18827 206.27452 208.11477
 209.73902 210.88227 211.10952 211.33577 211.27102 210.97427 210.60552 210.23377
 209.84903 209.55728 209.36353 209.22578 209.15203 209.48128 209.86553 210.25278
 211.04403 212.22028 213.46853 215.24978 217.17603 219.21728 221.31053 223.39178
 225.45004 227.53229 229.62754 231.73179 233.85904 236.02929 238.28354 240.65179
 243.27104 245.52029 247.52054 249.28379 250.69904 251.82029 252.64054 252.95479
 252.99005 252.76230 252.12055 251.06680 249.67105 247.83030 245.73755 243.56880
 241.35805 239.16030 236.97855 234.81580 232.67405 230.53930 228.56355 226.71880
 225.00006 223.47031 222.09856 220.86881 219.74906 218.70731 217.80956 216.94881
 216.18906 215.36731 214.46356 213.82581 213.27406 213.45807 214.12814 215.53339
 216.64632 217.75482 219.24898 220.86356 222.34760 224.53250 228.04228 231.52783
 234.31952 237.07835 239.66136 242.32150 245.31686 248.77217 252.44807 256.02811
 259.36200 262.40399 265.13101 267.50528 269.63251 271.53070 274.46500 277.77634
 280.65045 283.11398 285.24579 287.11765 288.73761 290.17084 291.47845 292.66306
 293.72845 294.67722 295.50604 296.56229
 366.78100 356.33575 345.76850 334.63525 323.03900 311.23375 299.10450 286.90825
 274.62100 262.51875 250.52850 239.83025 229.95300 221.05775 213.24050 206.24325
 200.07800 195.01675 191.59950 189.64225 188.68000 188.74475 189.58050 190.88925
 192.61500 194.71075 196.97450 199.33425 201.78000 204.26075 206.34950 208.19225
 209.81900 210.96475 211.19450 211.42325 211.36100 211.06675 210.70049 210.33124
 209.94899 209.65974 209.46849 209.33324 209.26199 209.59374 209.98049 210.37024
 211.16399 212.34274 213.59349 215.37724 217.30599 219.34974 221.44549 223.52924
 225.58999 227.67474 229.77249 231.87924 234.00899 236.18174 238.43849 240.80924
 243.43099 245.68274 247.68549 249.45124 250.86899 251.99274 252.81549 253.13224
 253.16999 252.94474 252.30549 251.25424 249.86099 248.02274 245.93249 243.76624
 241.55799 239.36274 237.18349 235.02324 232.88399 230.75174 228.77849 226.93624
 225.21999 223.69274 222.32349 221.09624 219.97899 218.93974 218.04449 217.18624
 216.42899 215.60974 214.70849 214.07324 213.52399 213.59253 214.12401 215.66010
 216.77570 217.85837 219.31456 220.91455 222.38907 224.52094 228.05324 231.51251
 234.29483 236.96034 239.41483 241.99469 244.96643 248.58253 252.41637 256.11780
 259.50241 262.54675 265.26263 267.65308 269.75839 271.60007 274.20590 277.34241
 280.06473 282.39819 284.41742 286.19046 287.72485 289.08243 290.32098 291.44305
 292.45221 293.35086 294.13593 295.13638
 366.78100 356.33511 345.76721 334.63332 323.03642 311.23053 299.10063 286.90374
 274.61585 262.51295 250.52206 239.82316 229.94527 221.04938 213.23148 206.23359
 200.06769 195.00580 191.58790 189.63001 188.66712 188.73122 189.56633 190.87443
 192.59954 194.69464 196.95775 199.31686 201.76196 204.24207 206.33017 208.17228
 209.79839 210.94349 211.17260 211.40070 211.33781 211.04291 210.67602 210.30613
 209.92323 209.63334 209.44144 209.30555 209.23365 209.56476 209.95087 210.33997
 211.13308 212.31118 213.56129 215.34440 217.27250 219.31561 221.41071 223.49382
 225.55392 227.63803 229.73514 231.84124 233.97035 236.14245 238.39856 240.76867
 243.38977 245.64088 247.64298 249.40809 250.82519 251.94830 252.77041 253.08651
 253.12362 252.89772 252.25783 251.20593 249.81204 247.97315 245.88225 243.71536
 241.50646 239.31057 237.13068 234.96978 232.82989 230.69699 228.72310 226.88020
 225.16331 223.63542 222.26552 221.03763 219.91973 218.87984 217.98394 217.12505
 216.36716 215.54726 214.64537 214.00947 213.45958 213.55783 214.12604 215.83751
 216.99620 218.11586 219.41039 220.83875 222.54546 224.56668 228.23734 231.66429
 234.39746 236.91074 239.13246 241.55283 244.53625 248.22099 252.18968 255.95181
 259.37656 262.50735 265.36047 267.87616 270.06604 272.08929 274.07004 276.18463
 278.37769 280.59039 282.51215 284.19958 285.65991 286.95190 288.13068 289.19858
 290.15900 291.01428 291.76144 292.71359
 366.78100 356.33727 345.77154 334.63981 323.04508 311.24135 299.11362 286.91889
 274.63316 262.53243 250.54370 239.84697 229.97124 221.07751 213.26178 206.26605
 200.10232 195.04259 191.62686 189.67113 188.71040 188.77667 189.61394 190.92421
 192.65148 194.74875 197.01402 199.37529 201.82256 204.30483 206.39510 208.23937
 209.86764 211.01491 211.24618 211.47645 211.41572 211.12299 210.75826 210.39053
 210.00980 209.72207 209.53234 209.39861 209.32888 209.66215 210.05042 210.44169
 211.23696 212.41723 213.66950 215.45477 217.38504 219.43031 221.52758 223.61285
 225.67512 227.76139 229.86066 231.96893 234.10020 236.27447 238.53274 240.90501
 243.52828 245.78155 247.78582 249.55309 250.97236 252.09763 252.92190 253.24017
 253.27944 253.05571 252.41798 251.36825 249.97652 248.13979 246.05106 243.88633
 241.67960 239.48587 237.30814 235.14941 233.01168 230.88095 228.90922 227.06849
 225.35376 223.82803 222.46030 221.23457 220.11884 219.08111 218.18738 217.33065
 216.57492 215.75719 214.85745 214.22372 213.67599 213.67755 214.08324 216.01274
 217.17310 218.30611 219.57294 221.01082 222.69411 224.80835 228.12730 231.64046
 234.40942 236.78844 238.73352 240.90758 243.93295 247.87425 251.97650 255.75119
 259.18051 262.30716 265.21597 267.78607 269.91345 271.88339 274.16803 276.54550
 278.69824 280.67746 282.46384 284.03244 285.38992 286.59094 287.68668 288.67935
 289.57217 290.36722 291.06174 291.94684
 366.78100 356.33756 345.77213 334.64069 323.04625 311.24281 299.11538 286.92094
 274.63550 262.53507 250.54663 239.85019 229.97476 221.08132 213.26588 206.27044
 200.10701 195.04757 191.63213 189.67670 188.71626 188.78282 189.62038 190.93095
 192.65851 194.75607 197.02164 199.38320 201.83076 204.31332 206.40389 208.24845
 209.87701 211.02458 211.25614 211.48670 211.42627 211.13383 210.76939 210.40195
 210.02152 209.73408 209.54464 209.41121 209.34177 209.67533 210.06389 210.45546
 211.25102 212.43158 213.68415 215.46971 217.40027 219.44583 221.54340 223.62896
 225.69152 227.77809 229.87765 231.98621 234.11778 236.29234 238.55090 240.92346
 243.54703 245.80059 247.80515 249.57272 250.99228 252.11784 252.94240 253.26097
 253.30053 253.07709 252.43966 251.39022 249.99878 248.16234 246.07391 243.90947
 241.70303 239.50960 237.33216 235.17372 233.03629 230.90585 228.93441 227.09397
 225.37954 223.85410 222.48666 221.26123 220.14579 219.10835 218.21491 217.35848
 216.60304 215.78560 214.88617 214.25273 213.70529 213.72186 214.11024 216.01781
 217.25172 218.52989 219.88255 221.23993 222.76978 224.99580 228.18854 231.70102
 234.38776 236.54449 238.29393 240.37605 243.55614 247.64960 251.71379 255.46812
 258.93048 262.15817 265.13519 267.72040 269.89917 271.92203 274.16003 276.52887
 278.66077 280.52020 282.25345 283.77991 285.10092 286.26965 287.33597 288.30197
 289.17081 289.94449 290.62036 291.48169
 366.78100 356.33516 345.76731 334.63347 323.03663 311.23078 299.10094 286.90410
 274.61625 262.51341 250.52257 239.82372 229.94588 221.05004 213.23219 206.23435
 200.06851 195.00666 191.58882 189.63098 188.66813 188.73229 189.56745 190.87560
 192.60076 194.69592 196.95907 199.31823 201.76338 204.24354 206.33170 208.17385
 209.80001 210.94517 211.17432 211.40248 211.33964 211.04479 210.67795 210.30811
 209.92526 209.63542 209.44358 209.30773 209.23589 209.56705 209.95320 210.34236
 211.13552 212.31367 213.56383 215.34699 217.27514 219.31830 221.41346 223.49661
 225.55677 227.64093 229.73808 231.84424 233.97340 236.14555 238.40171 240.77187
 243.39302 245.64418 247.64634 249.41149 250.82865 251.95181 252.77396 253.09012
 253.12728 252.90143 252.26159 251.20975 249.81590 247.97706 245.88622 243.71937
 241.51053 239.31469 237.13484 234.97400 232.83415 230.70131 228.72747 226.88462
 225.16778 223.63994 222.27009 221.04225 219.92441 218.88456 217.98872 217.12988
 216.37203 215.55219 214.65035 214.01450 213.46466 213.61830 214.13353 216.05330
 217.23982 218.29314 220.17865 221.49867 222.91528 225.04633 228.36800 231.50192
 234.03729 236.16061 238.01877 240.24626 243.42030 247.41292 251.48366 255.28893
 258.81479 262.08072 265.07095 267.68692 269.97946 272.11664 274.23019 276.27441
 278.11957 279.81186 281.34689 282.73190 283.98193 285.14532 286.21017 287.17487
 288.04248 288.81512 289.49005 290.35022
 366.78100 356.33286 345.76271 334.62657 323.02743 311.21929 299.08714 286.88800
 274.59786 262.49271 250.49957 239.79843 229.91829 221.02014 213.20000 206.19986
 200.03171 194.96757 191.54743 189.58729 188.62214 188.68400 189.51686 190.82271
 192.54557 194.63843 196.89928 199.25614 201.69900 204.17686 206.26271 208.10257
 209.72643 210.86928 211.09614 211.32200 211.25686 210.95971 210.59057 210.21843
 209.83328 209.54114 209.34700 209.20886 209.13471 209.46357 209.84743 210.23428
 211.02514 212.20100 213.44886 215.22971 217.15557 219.19643 221.28928 223.37014
 225.42800 227.50986 229.60471 231.70857 233.83543 236.00528 238.25914 240.62700
 243.24585 245.49471 247.49457 249.25743 250.67228 251.79314 252.61300 252.92685
 252.96171 252.73357 252.09143 251.03728 249.64114 247.80000 245.70685 243.53771
 241.32657 239.12843 236.94628 234.78314 232.64100 230.50585 228.52971 226.68457
 224.96543 223.43528 222.06314 220.83300 219.71285 218.67071 217.77257 216.91143
 216.15128 215.32914 214.42500 213.78685 213.23471 213.50435 214.16512 216.23076
 217.61266 218.15114 220.23262 221.75145 223.06750 225.01921 228.41014 231.31456
 233.89014 235.84964 237.59099 239.81149 243.08464 247.18866 251.34807 255.20486
 258.75980 262.03415 265.03464 267.67422 269.97916 272.09885 274.17545 276.20032
 278.07166 279.70865 281.06525 282.23987 283.40497 284.21628 284.95105 285.80826
 286.60864 287.37912 288.05219 288.90991
 366.78100 356.33277 345.76254 334.62631 323.02708 311.21884 299.08661 286.88738
 274.59715 262.49192 250.49869 239.79746 229.91723 221.01900 213.19876 206.19853
 200.03030 194.96607 191.54584 189.58561 188.62038 188.68215 189.51492 190.82068
 192.54345 194.63622 196.89699 199.25376 201.69653 204.17430 206.26007 208.09984
 209.72361 210.86637 211.09314 211.31891 211.25368 210.95645 210.58722 210.21499
 209.82976 209.53753 209.34329 209.20506 209.13083 209.45960 209.84337 210.23014
 211.02091 212.19668 213.44445 215.22521 217.15098 219.19175 221.28452 223.36529
 225.42306 227.50483 229.59960 231.70337 233.83013 235.99990 238.25367 240.62144
 243.24021 245.48898 247.48875 249.25152 250.66629 251.78705 252.60682 252.92059
 252.95536 252.72713 252.08490 251.03067 249.63444 247.79321 245.69998 243.53074
 241.31951 239.12128 236.93905 234.77582 232.63359 230.49836 228.52213 226.67690
 224.95766 223.42743 222.05520 220.82497 219.70474 218.66251 217.76428 216.90305
 216.14282 215.32058 214.41635 213.77812 213.22589 213.50934 214.17902 216.31094
 217.92754 218.59995 220.24969 221.84743 223.22792 225.14575 228.36150 231.26053
 233.61847 235.51186 237.19363 239.51489 242.95111 247.08282 251.24716 255.16144
 258.73535 262.01752 265.01593 267.63467 269.90106 271.97595 274.03909 276.04266
 277.92221 279.57306 280.96783 282.16089 283.33020 284.17633 284.80646 285.37738
 286.13037 286.83163 287.46368 288.33521
 366.78100 356.33409 345.76518 334.63027 323.03237 311.22546 299.09455 286.89664
 274.60773 262.50382 250.51192 239.81201 229.93310 221.03619 213.21728 206.21837
 200.05146 194.98856 191.56965 189.61074 188.64683 188.70992 189.54401 190.85111
 192.57520 194.66929 196.93138 199.28947 201.73356 204.21265 206.29975 208.14084
 209.76593 210.91002 211.13811 211.36520 211.30130 211.00539 210.63748 210.26657
 209.88266 209.59175 209.39884 209.26194 209.18903 209.51912 209.90421 210.29230
 211.08439 212.26149 213.51058 215.29267 217.21976 219.26185 221.35594 223.43803
 225.49713 227.58022 229.67631 231.78140 233.90949 236.08058 238.33568 240.70477
 243.32486 245.57495 247.57604 249.34013 250.75622 251.87832 252.69941 253.01450
 253.05059 252.82368 252.18277 251.12987 249.73496 247.89505 245.80314 243.63523
 241.42532 239.22841 237.04751 234.88560 232.74469 230.61078 228.63587 226.79196
 225.07406 223.54515 222.17424 220.94533 219.82642 218.78551 217.88861 217.02870
 216.26979 215.44888 214.54597 213.90906 213.35815 213.59464 214.15334 216.37692
 218.10103 218.86142 220.38199 221.95663 223.30496 225.21088 228.33990 231.20576
 233.41595 235.15538 236.79004 239.18651 242.79018 246.99159 251.17030 255.12120
 258.71860 262.01111 264.99969 267.60056 269.83826 271.88638 273.93100 275.91846
 277.80655 279.46243 280.85736 282.05432 283.19708 284.17120 284.85895 285.39508
 286.15189 286.85541 287.49194 288.36740
 366.78100 356.33564 345.76828 334.63492 323.03856 311.23320 299.10384 286.90748
 274.62012 262.51775 250.52739 239.82903 229.95167 221.05631 213.23895 206.24159
 200.07623 195.01487 191.59751 189.64015 188.67779 188.74243 189.57807 190.88671
 192.61235 194.70798 196.97162 199.33126 201.77690 204.25754 206.34618 208.18882
 209.81546 210.96110 211.19074 211.41938 211.35702 211.06266 210.69630 210.32694
 209.94458 209.65522 209.46385 209.32849 209.25713 209.58877 209.97541 210.36505
 211.15869 212.33733 213.58797 215.37161 217.30025 219.34389 221.43953 223.52317
 225.58381 227.66845 229.76608 231.87272 234.00236 236.17500 238.43164 240.80228
 243.42392 245.67556 247.67820 249.44384 250.86148 251.98512 252.80776 253.12440
 253.16204 252.93668 252.29732 251.24595 249.85259 248.01423 245.92387 243.75751
 241.54915 239.35379 237.17443 235.01407 232.87471 230.74235 228.76899 226.92663
 225.21027 223.68291 222.31355 221.08618 219.96882 218.92946 218.03410 217.17574
 216.41838 215.59902 214.69766 214.06230 213.51294 213.69116 214.11223 216.46851
 218.27556 218.96996 220.52103 222.11304 223.42122 225.27414 228.31436 231.10336
 233.16809 234.76620 236.40700 238.89743 242.63609 246.88936 251.09462 255.08878
 258.71472 262.01300 264.99509 267.58698 269.81363 271.84277 273.85068 275.80585
 277.69669 279.36078 280.78177 281.96878 282.92093 283.98038 284.88773 285.55295
 286.28680 286.99948 287.66077 288.53351
 366.78100 356.33581 345.76862 334.63543 323.03924 311.23406 299.10487 286.90868
 274.62149 262.51930 250.52911 239.83092 229.95373 221.05854 213.24135 206.24417
 200.07898 195.01779 191.60060 189.64341 188.68122 188.74603 189.58184 190.89065
 192.61647 194.71228 196.97609 199.33590 201.78171 204.26252 206.35133 208.19414
 209.82095 210.96676 211.19658 211.42539 211.36320 211.06901 210.70282 210.33363
 209.95144 209.66225 209.47106 209.33588 209.26469 209.59650 209.98331 210.37312
 211.16693 212.34574 213.59655 215.38036 217.30917 219.35299 221.44880 223.53261
 225.59342 227.67823 229.77604 231.88285 234.01266 236.18547 238.44229 240.81310
 243.43491 245.68672 247.68953 249.45534 250.87315 251.99696 252.81977 253.13658
 253.17440 252.94921 252.31002 251.25883 249.86564 248.02745 245.93726 243.77107
 241.56288 239.36770 237.18851 235.02832 232.88913 230.75694 228.78375 226.94156
 225.22537 223.69818 222.32900 221.10181 219.98462 218.94543 218.05024 217.19205
 216.43486 215.61567 214.71448 214.07929 213.53011 213.71863 214.16406 216.47543
 218.46574 219.10008 220.67651 222.30396 223.57744 225.35013 228.29549 230.97926
 232.90569 234.38374 236.04503 238.64589 242.47791 246.77829 251.02132 255.05328
 258.70776 262.00995 264.98370 267.57291 269.80713 271.83279 273.79669 275.71429
 277.58588 279.25925 280.69928 281.87823 282.86014 283.91058 284.87100 285.69577
 286.43927 287.15137 287.81689 288.68344
 366.78100 356.33459 345.76617 334.63176 323.03434 311.22793 299.09751 286.90010
 274.61168 262.50827 250.51685 239.81744 229.93902 221.04261 213.22419 206.22578
 200.05937 194.99695 191.57854 189.62012 188.65671 188.72029 189.55488 190.86246
 192.58705 194.68163 196.94422 199.30280 201.74739 204.22697 206.31456 208.15614
 209.78173 210.92632 211.15490 211.38249 211.31907 211.02366 210.65624 210.28583
 209.90241 209.61200 209.41958 209.28317 209.21075 209.54134 209.92692 210.31551
 211.10810 212.28568 213.53527 215.31785 217.24544 219.28802 221.38261 223.46519
 225.52478 227.60836 229.70495 231.81053 233.93912 236.11070 238.36629 240.73587
 243.35646 245.60705 247.60863 249.37322 250.78980 251.91239 252.73397 253.04956
 253.08614 252.85973 252.21931 251.16690 249.77248 247.93307 245.84165 243.67424
 241.46483 239.26841 237.08800 234.92658 232.78617 230.65275 228.67834 226.83492
 225.11751 223.58909 222.21868 220.99026 219.87185 218.83143 217.93502 217.07561
 216.31719 215.49678 214.59436 213.95795 213.40753 213.67461 214.30560 216.45129
 218.53084 219.40668 220.89375 222.41220 223.64336 225.44952 228.35400 230.88736
 232.64188 233.98325 235.66345 238.40471 242.32932 246.67079 250.94290 254.99597
 258.67068 261.98178 264.95435 267.54831 269.79758 271.82312 273.73715 275.60767
 277.46863 279.13635 280.55441 281.79922 282.93893 283.99438 284.96951 285.82370
 286.58456 287.29587 287.95053 288.80096
 366.78100 356.33395 345.76490 334.62985 323.03181 311.22476 299.09371 286.89566
 274.60661 262.50256 250.51051 239.81046 229.93142 221.03437 213.21532 206.21627
 200.04922 194.98617 191.56712 189.60807 188.64403 188.70698 189.54093 190.84788
 192.57183 194.66578 196.92773 199.28569 201.72964 204.20859 206.29554 208.13649
 209.76144 210.90539 211.13334 211.36030 211.29625 211.00020 210.63215 210.26110
 209.87705 209.58600 209.39296 209.25591 209.18286 209.51281 209.89776 210.28571
 211.07766 212.25461 213.50357 215.28552 217.21247 219.25442 221.34837 223.43032
 225.48927 227.57222 229.66818 231.77313 233.90108 236.07203 238.32698 240.69593
 243.31588 245.56584 247.56679 249.33074 250.74669 251.86864 252.68959 253.00454
 253.04049 252.81345 252.17240 251.11935 249.72430 247.88425 245.79220 243.62415
 241.41411 239.21706 237.03601 234.87396 232.73291 230.59886 228.62381 226.77976
 225.06172 223.53267 222.16162 220.93257 219.81352 218.77247 217.87542 217.01537
 216.25633 215.43528 214.53223 213.89518 213.34413 213.65752 214.39792 216.49896
 218.58791 219.68922 221.07077 222.50334 223.74225 225.59901 228.45833 230.79333
 232.32298 233.53825 235.27789 238.20163 242.20621 246.56818 250.85818 254.92680
 258.62015 261.94257 264.91180 267.50305 269.75696 271.76883 273.63409 275.46597
 277.31732 278.95984 280.48099 281.84064 283.02155 284.07767 285.06198 285.95126
 286.73804 287.43564 288.06186 288.89780
 366.78100 356.33424 345.76547 334.63071 323.03294 311.22618 299.09541 286.89765
 274.60888 262.50512 250.51335 239.81359 229.93483 221.03806 213.21930 206.22053
 200.05377 194.99100 191.57224 189.61347 188.64971 188.71294 189.54718 190.85441
 192.57865 194.67289 196.93512 199.29336 201.73759 204.21683 206.30406 208.14530
 209.77053 210.91477 211.14300 211.37024 211.30648 211.01071 210.64295 210.27218
 209.88842 209.59765 209.40489 209.26812 209.19536 209.52559 209.91083 210.29907
 211.09130 212.26854 213.51777 215.30001 217.22724 219.26948 221.36371 223.44595
 225.50518 227.58842 229.68466 231.78989 233.91813 236.08936 238.34460 240.71383
 243.33407 245.58430 247.58554 249.34977 250.76601 251.88824 252.70948 253.02472
 253.06095 252.83419 252.19342 251.14066 249.74589 247.90613 245.81436 243.64660
 241.43683 239.24007 237.05931 234.89754 232.75678 230.62301 228.64825 226.80448
 225.08672 223.55795 222.18719 220.95842 219.83966 218.79890 217.90213 217.04237
 216.28360 215.46284 214.56007 213.92331 213.37254 213.68793 214.43306 216.55899
 218.66202 219.93790 221.23869 222.61511 223.88629 225.73001 228.51605 230.68323
 231.97290 233.06461 234.91272 238.03140 242.10527 246.48079 250.78564 254.87001
 258.57782 261.90259 264.86176 267.44861 269.70984 271.72433 273.56595 275.38586
 277.20706 278.86194 280.40540 281.77371 282.95877 284.01843 285.00705 285.90256
 286.69876 287.39740 288.01364 288.85498
 366.78100 356.33472 345.76645 334.63217 323.03490 311.22862 299.09835 286.90107
 274.61280 262.50952 250.51825 239.81897 229.94070 221.04442 213.22615 206.22787
 200.06160 194.99932 191.58105 189.62277 188.65950 188.72322 189.55795 190.86567
 192.59040 194.68512 196.94785 199.30657 201.75130 204.23102 206.31875 208.16047
 209.78620 210.93092 211.15965 211.38737 211.32410 211.02882 210.66155 210.29127
 209.90800 209.61772 209.42545 209.28917 209.21690 209.54762 209.93335 210.32207
 211.11480 212.29252 213.54225 215.32497 217.25270 219.29542 221.39015 223.47287
 225.53260 227.61632 229.71305 231.81877 233.94750 236.11922 238.37495 240.74467
 243.36540 245.61612 247.61785 249.38257 250.79930 251.92202 252.74375 253.05947
 253.09620 252.86992 252.22965 251.17737 249.78310 247.94382 245.85254 243.68527
 241.47599 239.27972 237.09944 234.93817 232.79789 230.66462 228.69034 226.84707
 225.12979 223.60152 222.23124 221.00297 219.88469 218.84442 217.94814 217.08887
 216.33059 215.51032 214.60804 213.97177 213.42149 213.73180 214.46490 216.60469
 218.71115 220.13838 221.43736 222.77275 224.05055 225.81760 228.53317 230.60217
 231.66580 232.61543 234.58495 237.87486 242.00847 246.40140 250.71890 254.81798
 258.53766 261.86258 264.81247 267.39746 269.67096 271.69431 273.51309 275.30911
 277.10800 278.76050 280.30164 281.66736 282.85040 283.89752 284.85693 285.74457
 286.57285 287.30197 287.92514 288.77802
 366.78100 356.33508 345.76716 334.63324 323.03632 311.23040 299.10048 286.90357
 274.61565 262.51273 250.52181 239.82289 229.94497 221.04905 213.23113 206.23321
 200.06729 195.00537 191.58745 189.62953 188.66662 188.73070 189.56578 190.87386
 192.59894 194.69402 196.95710 199.31618 201.76126 204.24134 206.32942 208.17150
 209.79758 210.94267 211.17175 211.39983 211.33691 211.04199 210.67507 210.30515
 209.92223 209.63231 209.44039 209.30447 209.23255 209.56363 209.94972 210.33880
 211.13188 212.30996 213.56004 215.34312 217.27120 219.31428 221.40936 223.49244
 225.55252 227.63660 229.73368 231.83977 233.96885 236.14093 238.39701 240.76709
 243.38817 245.63925 247.64133 249.40641 250.82349 251.94657 252.76865 253.08473
 253.12182 252.89590 252.25598 251.20406 249.81014 247.97122 245.88030 243.71338
 241.50446 239.30854 237.12862 234.96770 232.82778 230.69487 228.72095 226.87803
 225.16111 223.63319 222.26327 221.03535 219.91743 218.87751 217.98159 217.12267
 216.36475 215.54483 214.64292 214.00700 213.45708 213.77010 214.50961 216.63943
 218.74802 220.29747 221.65862 222.96872 224.21545 225.87091 228.53423 230.52925
 231.39618 232.21304 234.29422 237.72333 241.91190 246.31924 250.64442 254.75049
 258.47513 261.79608 264.73981 267.33340 269.63452 271.68979 273.48260 275.08353
 276.98886 278.71432 280.26260 281.62985 282.81418 283.86374 284.82663 285.71365
 286.53354 287.27335 287.90103 288.75934
 366.78100 356.33533 345.76765 334.63398 323.03730 311.23163 299.10195 286.90528
 274.61760 262.51493 250.52425 239.82558 229.94790 221.05223 213.23455 206.23688
 200.07120 195.00953 191.59185 189.63418 188.67150 188.73583 189.57115 190.87948
 192.60480 194.70013 196.96345 199.32278 201.76810 204.24843 206.33675 208.17908
 209.80540 210.95073 211.18005 211.40838 211.34570 211.05103 210.68435 210.31468
 209.93200 209.64233 209.45065 209.31498 209.24330 209.57463 209.96095 210.35028
 211.14360 212.32193 213.57225 215.35558 217.28390 219.32723 221.42255 223.50588
 225.56620 227.65053 229.74785 231.85418 233.98350 236.15583 238.41215 240.78248
 243.40380 245.65513 247.65745 249.42278 250.84010 251.96343 252.78575 253.10208
 253.13940 252.91373 252.27405 251.22238 249.82870 247.99003 245.89935 243.73268
 241.52401 239.32833 237.14866 234.98798 232.84831 230.71563 228.74196 226.89928
 225.18261 223.65493 222.28526 221.05758 219.93991 218.90023 218.00456 217.14588
 216.38821 215.56853 214.66686 214.03118 213.48151 213.80328 214.56348 216.65816
 218.79041 220.43643 221.87587 223.17979 224.38802 225.92302 228.52069 230.42615
 231.13405 231.85130 234.02864 237.57668 241.82379 246.24399 250.57159 254.67729
 258.40286 261.72275 264.66888 267.27390 269.58832 271.63345 273.34293 274.93793
 276.86255 278.65543 280.21823 281.59259 282.78360 283.83914 284.80829 285.69699
 286.50763 287.24335 287.88849 288.77161
 366.78100 356.33550 345.76799 334.63449 323.03799 311.23249 299.10298 286.90648
 274.61898 262.51647 250.52597 239.82747 229.94996 221.05446 213.23696 206.23946
 200.07395 195.01245 191.59495 189.63744 188.67494 188.73944 189.57493 190.88343
 192.60893 194.70443 196.96792 199.32742 201.77292 204.25341 206.34191 208.18441
 209.81090 210.95640 211.18590 211.41440 211.35189 211.05739 210.69089 210.32138
 209.93888 209.64938 209.45788 209.32237 209.25087 209.58237 209.96886 210.35836
 211.15186 212.33035 213.58085 215.36435 217.29285 219.33634 221.43184 223.51534
 225.57583 227.66033 229.75783 231.86432 233.99382 236.16632 238.42282 240.79331
 243.41481 245.66631 247.66880 249.43430 250.85180 251.97530 252.79779 253.11429
 253.15179 252.92628 252.28678 251.23528 249.84177 248.00327 245.91277 243.74627
 241.53776 239.34226 237.16276 235.00225 232.86275 230.73025 228.75674 226.91424
 225.19774 223.67024 222.30073 221.07323 219.95573 218.91622 218.02072 217.16222
 216.40471 215.58521 214.68371 214.04821 213.49870 213.83372 214.62526 216.66472
 218.83195 220.56815 222.07774 223.38828 224.57288 225.99966 228.49524 230.28311
 230.87035 231.52702 233.78548 237.44823 241.74545 246.17307 250.49728 254.59888
 258.32291 261.64185 264.58847 267.19888 269.52026 271.54788 273.21158 274.95087
 276.78384 278.57339 280.14294 281.52228 282.71494 283.77347 284.74341 285.62997
 286.43594 287.16174 287.80225 288.69543
 366.78100 356.33567 345.76834 334.63501 323.03867 311.23334 299.10401 286.90768
 274.62035 262.51802 250.52768 239.82935 229.95202 221.05669 213.23936 206.24203
 200.07669 195.01536 191.59803 189.64070 188.67837 188.74304 189.57870 190.88737
 192.61304 194.70871 196.97238 199.33205 201.77771 204.25838 206.34705 208.18972
 209.81639 210.96206 211.19173 211.42039 211.35806 211.06373 210.69740 210.32807
 209.94574 209.65640 209.46507 209.32974 209.25841 209.59008 209.97675 210.36641
 211.16008 212.33875 213.58942 215.37309 217.30176 219.34542 221.44109 223.52476
 225.58543 227.67010 229.76777 231.87443 234.00410 236.17677 238.43344 240.80411
 243.42578 245.67745 247.68011 249.44578 250.86345 251.98712 252.80979 253.12646
 253.16412 252.93879 252.29946 251.24813 249.85480 248.01647 245.92613 243.75980
 241.55147 239.35614 237.17681 235.01648 232.87714 230.74481 228.77148 226.92915
 225.21282 223.68549 222.31615 221.08882 219.97149 218.93216 218.03683 217.17850
 216.42117 215.60183 214.70050 214.06517 213.51584 213.86563 214.69206 216.66687
 218.86171 220.69289 222.26782 223.58769 224.76018 226.09796 228.46716 230.11612
 230.61533 231.24307 233.56609 237.33597 241.67419 246.10323 250.41879 254.51042
 258.22684 261.54138 264.48843 267.10852 269.44238 271.46063 273.10223 274.91077
 276.72647 278.51093 280.08075 281.46017 282.65369 283.71298 284.68381 285.56970
 286.37555 287.10306 287.74152 288.63095
 366.78100 356.33586 345.76872 334.63557 323.03943 311.23429 299.10515 286.90901
 274.62187 262.51972 250.52958 239.83144 229.95430 221.05916 213.24201 206.24487
 200.07973 195.01859 191.60145 189.64431 188.68216 188.74702 189.58288 190.89174
 192.61760 194.71346 196.97731 199.33717 201.78303 204.26389 206.35275 208.19560
 209.82246 210.96832 211.19818 211.42704 211.36490 211.07075 210.70461 210.33547
 209.95333 209.66419 209.47304 209.33790 209.26676 209.59862 209.98548 210.37534
 211.16919 212.34805 213.59891 215.38277 217.31163 219.35548 221.45134 223.53520
 225.59606 227.68092 229.77878 231.88563 234.01549 236.18835 238.44521 240.81607
 243.43793 245.68978 247.69264 249.45850 250.87636 252.00022 252.82307 253.13993
 253.17779 252.95265 252.31351 251.26237 249.86922 248.03108 245.94094 243.77480
 241.56666 239.37151 237.19237 235.03223 232.89309 230.76095 228.78781 226.94566
 225.22952 223.70238 222.33324 221.10610 219.98895 218.94981 218.05467 217.19653
 216.43939 215.62025 214.71910 214.08396 213.53482 213.89890 214.75903 216.67195
 218.87779 220.80591 222.44843 223.77599 224.93729 226.20328 228.44252 229.93878
 230.36705 230.98904 233.37958 237.24701 241.61542 246.03914 250.34082 254.41490
 258.11633 261.42133 264.36917 267.00717 269.36630 271.38995 273.01382 274.84741
 276.67194 278.45810 280.03030 281.41013 282.60703 283.66641 284.63821 285.52643
 286.33209 287.06256 287.69946 288.59549
 366.78100 356.33605 345.76910 334.63615 323.04020 311.23526 299.10631 286.91036
 274.62341 262.52146 250.53151 239.83356 229.95661 221.06167 213.24472 206.24777
 200.08282 195.02187 191.60492 189.64797 188.68602 188.75108 189.58713 190.89618
 192.62223 194.71828 196.98233 199.34238 201.78843 204.26949 206.35854 208.20159
 209.82864 210.97469 211.20474 211.43379 211.37184 211.07790 210.71195 210.34300
 209.96105 209.67210 209.48115 209.34620 209.27525 209.60731 209.99436 210.38441
 211.17846 212.35751 213.60856 215.39261 217.32166 219.36572 221.46177 223.54582
 225.60687 227.69192 229.78997 231.89702 234.02707 236.20012 238.45718 240.82823
 243.45028 245.70233 247.70538 249.47143 250.88948 252.01353 252.83659 253.15364
 253.19169 252.96674 252.32779 251.27684 249.88389 248.04594 245.95600 243.79005
 241.58210 239.38715 237.20820 235.04825 232.90930 230.77735 228.80441 226.96246
 225.24651 223.71956 222.35061 221.12366 220.00671 218.96776 218.07282 217.21487
 216.45792 215.63897 214.73802 214.10307 213.55412 213.93326 214.82901 216.67819
 218.88333 220.90636 222.62474 223.96434 225.10425 226.30432 228.42554 229.76024
 230.11792 230.75679 233.21805 237.17310 241.56709 245.98022 250.26341 254.31316
 257.99350 261.28668 264.23770 266.89590 269.27164 271.29468 272.93332 274.81311
 276.63028 278.41406 279.98547 281.36798 282.56308 283.62506 284.59787 285.48608
 286.29416 287.02582 287.66336 288.55444
 366.78100 356.33618 345.76935 334.63653 323.04070 311.23588 299.10706 286.91123
 274.62441 262.52258 250.53276 239.83494 229.95811 221.06329 213.24646 206.24964
 200.08482 195.02399 191.60717 189.65034 188.68852 188.75370 189.58987 190.89905
 192.62523 194.72140 196.98558 199.34575 201.79193 204.27311 206.36228 208.20546
 209.83263 210.97881 211.20899 211.43816 211.37634 211.08251 210.71669 210.34787
 209.96604 209.67722 209.48639 209.35157 209.28075 209.61292 210.00010 210.39027
 211.18445 212.36363 213.61480 215.39898 217.32815 219.37233 221.46851 223.55268
 225.61386 227.69903 229.79721 231.90439 234.03456 236.20774 238.46491 240.83609
 243.45827 245.71044 247.71362 249.47980 250.89797 252.02215 252.84532 253.16250
 253.20068 252.97585 252.33703 251.28620 249.89338 248.05556 245.96573 243.79991
 241.59208 239.39726 237.21844 235.05861 232.91979 230.78796 228.81514 226.97332
 225.25749 223.73067 222.36184 221.13502 220.01820 218.97937 218.08455 217.22672
 216.46990 215.65108 214.75025 214.11543 213.56660 213.96410 214.90320 216.68704
 218.87900 220.98834 222.78793 224.15294 225.27042 226.40733 228.41168 229.58734
 229.87790 230.54871 233.08485 237.11420 241.52664 245.92578 250.18486 254.20406
 257.85974 261.14072 264.09689 266.77536 269.16205 271.18069 272.85117 274.79108
 276.59683 278.37799 279.94824 281.33029 282.52750 283.58905 284.56216 285.45111
 286.25989 286.98923 287.62997 288.51749
 366.78100 356.33592 345.76884 334.63576 323.03968 311.23461 299.10553 286.90945
 274.62237 262.52029 250.53021 239.83213 229.95505 221.05997 213.24290 206.24582
 200.08074 195.01966 191.60258 189.64550 188.68342 188.74834 189.58426 190.89318
 192.61911 194.71503 196.97895 199.33887 201.78479 204.26571 206.35463 208.19755
 209.82447 210.97040 211.20032 211.42924 211.36716 211.07308 210.70700 210.33792
 209.95584 209.66676 209.47569 209.34061 209.26953 209.60145 209.98837 210.37829
 211.17221 212.35113 213.60205 215.38597 217.31490 219.35882 221.45474 223.53866
 225.59958 227.68450 229.78242 231.88934 234.01926 236.19219 238.44911 240.82003
 243.44195 245.69387 247.69679 249.46271 250.88063 252.00455 252.82748 253.14440
 253.18232 252.95724 252.31816 251.26708 249.87400 248.03592 245.94584 243.77976
 241.57169 239.37661 237.19753 235.03745 232.89837 230.76629 228.79321 226.95113
 225.23505 223.70798 222.33890 221.11182 219.99474 218.95566 218.06058 217.20250
 216.44542 215.62634 214.72527 214.09019 213.54111 213.97369 214.99574 216.70782
 218.86343 221.04366 222.93047 224.32904 225.42381 226.50798 228.40466 229.42307
 229.64746 230.36726 232.97084 237.06960 241.49951 245.88234 250.11534 254.09932
 257.72668 260.99326 263.95148 266.64633 269.02994 271.04022 272.78516 274.76526
 276.56586 278.34476 279.91452 281.29755 282.49521 283.55695 284.53043 285.42139
 286.23132 286.96021 287.60229 288.48834
 366.78100 356.33547 345.76795 334.63442 323.03790 311.23237 299.10285 286.90632
 274.61880 262.51627 250.52575 239.82722 229.94970 221.05417 213.23665 206.23912
 200.07360 195.01207 191.59455 189.63702 188.67450 188.73897 189.57445 190.88292
 192.60840 194.70387 196.96735 199.32682 201.77230 204.25277 206.34125 208.18372
 209.81020 210.95567 211.18515 211.41362 211.35110 211.05657 210.69005 210.32052
 209.93800 209.64847 209.45695 209.32142 209.24990 209.58137 209.96785 210.35732
 211.15080 212.32927 213.57975 215.36322 217.29170 219.33517 221.43064 223.51412
 225.57459 227.65907 229.75654 231.86302 233.99249 236.16497 238.42144 240.79192
 243.41339 245.66487 247.66734 249.43282 250.85029 251.97377 252.79624 253.11272
 253.15019 252.92467 252.28514 251.23362 249.84009 248.00157 245.91104 243.74452
 241.53599 239.34047 237.16094 235.00042 232.86089 230.72837 228.75484 226.91232
 225.19579 223.66827 222.29874 221.07122 219.95369 218.91417 218.01864 217.16012
 216.40259 215.58307 214.68154 214.04602 213.49649 213.97318 215.09938 216.73717
 218.83897 221.08308 223.06113 224.49844 225.57468 226.61279 228.39163 229.25607
 229.42303 230.20869 232.87593 237.03250 241.47525 245.83940 250.04288 253.99203
 257.59616 260.85760 263.82932 266.54504 268.92126 270.91193 272.66742 274.63055
 276.57895 278.36118 279.91992 281.29572 282.48773 283.54849 284.52063 285.40958
 286.22049 286.95316 287.59326 288.47403
 366.78100 356.33525 345.76750 334.63375 323.03700 311.23125 299.10150 286.90475
 274.61700 262.51426 250.52351 239.82476 229.94701 221.05126 213.23351 206.23576
 200.07001 195.00826 191.59051 189.63276 188.67001 188.73426 189.56951 190.87776
 192.60301 194.69827 196.96152 199.32077 201.76602 204.24627 206.33452 208.17677
 209.80302 210.94827 211.17752 211.40577 211.34302 211.04827 210.68152 210.31177
 209.92902 209.63927 209.44753 209.31178 209.24003 209.57128 209.95753 210.34678
 211.14003 212.31828 213.56853 215.35178 217.28003 219.32328 221.41853 223.50178
 225.56203 227.64628 229.74353 231.84979 233.97904 236.15129 238.40754 240.77779
 243.39904 245.65029 247.65254 249.41779 250.83504 251.95829 252.78054 253.09679
 253.13404 252.90829 252.26854 251.21680 249.82305 247.98430 245.89355 243.72680
 241.51805 239.32230 237.14255 234.98180 232.84205 230.70930 228.73555 226.89280
 225.17605 223.64830 222.27855 221.05080 219.93306 218.89331 217.99756 217.13881
 216.38106 215.56131 214.65956 214.02381 213.47406 213.98357 215.18733 216.77190
 218.82819 221.11424 223.16603 224.64296 225.71370 226.70782 228.38196 229.11282
 229.22200 230.07257 232.80966 237.01097 241.45905 245.80090 249.96967 253.87532
 257.44565 260.69019 263.66879 266.41098 268.81274 270.82553 272.60663 274.64182
 276.56372 278.33960 279.89810 281.27145 282.46317 283.52228 284.49338 285.38092
 286.19107 286.92181 287.56500 288.43808
 366.78100 356.33512 345.76723 334.63335 323.03646 311.23058 299.10070 286.90381
 274.61593 262.51305 250.52216 239.82328 229.94539 221.04951 213.23163 206.23374
 200.06786 195.00597 191.58809 189.63021 188.66732 188.73144 189.56656 190.87467
 192.59979 194.69490 196.95802 199.31714 201.76225 204.24237 206.33049 208.17260
 209.79872 210.94383 211.17295 211.40107 211.33818 211.04330 210.67641 210.30653
 209.92365 209.63376 209.44188 209.30600 209.23411 209.56523 209.95134 210.34046
 211.13358 212.31169 213.56181 215.34492 217.27304 219.31616 221.41127 223.49439
 225.55451 227.63862 229.73574 231.84185 233.97097 236.14309 238.39920 240.76932
 243.39043 245.64155 247.64367 249.40878 250.82590 251.94902 252.77113 253.08725
 253.12436 252.89848 252.25860 251.20671 249.81283 247.97395 245.88306 243.71618
 241.50729 239.31141 237.13153 234.97064 232.83076 230.69787 228.72399 226.88111
 225.16422 223.63634 222.26646 221.03857 219.92069 218.88080 217.98492 217.12604
 216.36815 215.54827 214.64638 214.01050 213.46062 213.99796 215.26750 216.81607
 218.84491 221.14012 223.23840 224.73169 225.81454 226.84370 228.38115 228.93529
 229.00665 229.95697 232.76845 237.00412 241.45325 245.77487 249.91272 253.77846
 257.31616 260.54462 263.52713 266.28619 268.67834 270.66882 272.48636 274.66043
 276.57828 278.33743 279.89044 281.26004 282.44913 283.50586 284.47385 285.35919
 286.16693 286.89734 287.53436 288.40762
 366.78100 356.33474 345.76649 334.63223 323.03498 311.22872 299.09847 286.90121
 274.61296 262.50970 250.51845 239.81919 229.94094 221.04468 213.22643 206.22817
 200.06192 194.99966 191.58141 189.62315 188.65990 188.72364 189.55839 190.86613
 192.59088 194.68562 196.94837 199.30711 201.75186 204.23160 206.31935 208.16109
 209.78684 210.93158 211.16033 211.38807 211.32482 211.02956 210.66231 210.29205
 209.90880 209.61854 209.42629 209.29003 209.21778 209.54852 209.93427 210.32301
 211.11576 212.29350 213.54325 215.32599 217.25374 219.29648 221.39123 223.47397
 225.53372 227.61746 229.71421 231.81995 233.94870 236.12044 238.37619 240.74593
 243.36668 245.61742 247.61917 249.38391 250.80065 251.92340 252.74514 253.06089
 253.09763 252.87138 252.23112 251.17887 249.78461 247.94536 245.85410 243.68685
 241.47759 239.28134 237.10108 234.93983 232.79957 230.66632 228.69206 226.84881
 225.13155 223.60330 222.23304 221.00479 219.88653 218.84628 217.95002 217.09077
 216.33251 215.51226 214.61000 213.97375 213.42349 213.99698 215.35190 216.87138
 218.86644 221.16376 223.29819 224.79565 225.85989 226.94121 228.39586 228.78716
 228.80302 229.85893 232.74817 237.00787 241.45651 245.75972 249.86833 253.69554
 257.20108 260.41113 263.38943 266.13510 268.46167 270.43268 272.67197 274.55817
 276.56900 278.32596 279.87271 281.23819 282.42612 283.47946 284.44510 285.32666
 286.13199 286.85803 287.49542 288.35440
 366.78100 356.33418 345.76537 334.63055 323.03274 311.22592 299.09511 286.89729
 274.60848 262.50466 250.51285 239.81303 229.93422 221.03740 213.21859 206.21977
 200.05296 194.99014 191.57133 189.61251 188.64870 188.71188 189.54607 190.85325
 192.57743 194.67162 196.93380 199.29199 201.73617 204.21536 206.30254 208.14373
 209.76891 210.91310 211.14128 211.36847 211.30465 211.00884 210.64102 210.27021
 209.88639 209.59558 209.40276 209.26595 209.19313 209.52331 209.90850 210.29668
 211.08887 212.26605 213.51524 215.29742 217.22461 219.26679 221.36098 223.44316
 225.50235 227.58553 229.68172 231.78690 233.91509 236.08627 238.34146 240.71064
 243.33083 245.58101 247.58220 249.34638 250.76256 251.88475 252.70593 253.02112
 253.05730 252.83049 252.18967 251.13686 249.74204 247.90223 245.81041 243.64260
 241.43278 239.23597 237.05515 234.89334 232.75252 230.61871 228.64389 226.80008
 225.08226 223.55344 222.18263 220.95381 219.83500 218.79418 217.89737 217.03755
 216.27874 215.45792 214.55511 213.91829 213.36748 213.98203 215.43398 216.95105
 218.88084 221.18419 223.35139 224.85231 225.87083 226.98651 228.40805 228.68311
 228.62863 229.76724 232.73712 237.01726 241.46487 245.74915 249.83023 253.62372
 257.10410 260.30432 263.28131 266.01538 268.30865 270.29459 272.59512 274.52017
 276.52545 278.27759 279.82220 281.18823 282.37387 283.42679 284.38998 285.27045
 286.07254 286.79449 287.43234 288.28360
 366.78100 356.33376 345.76452 334.62928 323.03104 311.22380 299.09256 286.89432
 274.60508 262.50084 250.50860 239.80836 229.92913 221.03189 213.21265 206.21341
 200.04617 194.98293 191.56369 189.60445 188.64021 188.70297 189.53673 190.84349
 192.56725 194.66101 196.92277 199.28053 201.72429 204.20305 206.28981 208.13057
 209.75533 210.89909 211.12685 211.35361 211.28938 210.99314 210.62490 210.25366
 209.86942 209.57818 209.38494 209.24770 209.17446 209.50422 209.88898 210.27674
 211.06850 212.24526 213.49402 215.27578 217.20254 219.24430 221.33806 223.41982
 225.47858 227.56134 229.65710 231.76187 233.88963 236.06039 238.31515 240.68391
 243.30367 245.55343 247.55419 249.31795 250.73371 251.85547 252.67623 252.99099
 253.02675 252.79951 252.15827 251.10503 249.70979 247.86955 245.77731 243.60907
 241.39883 239.20159 237.02036 234.85812 232.71688 230.58264 228.60740 226.76316
 225.04492 223.51568 222.14444 220.91520 219.79596 218.75472 217.85748 216.99724
 216.23800 215.41676 214.51352 213.87628 213.32504 213.97202 215.50058 217.05466
 218.90677 221.19859 223.38254 224.90178 225.88989 227.00983 228.39175 228.59334
 228.48476 229.67686 232.72484 237.02950 241.47633 245.74242 249.79616 253.55824
 257.01382 260.20233 263.17688 265.92032 268.24161 270.26666 272.42453 274.53427
 276.48386 278.21832 279.76227 281.12708 282.31137 283.36304 284.32541 285.20236
 286.00446 286.72571 287.35727 288.20526
 366.78100 356.33348 345.76397 334.62845 323.02994 311.22242 299.09090 286.89239
 274.60287 262.49836 250.50584 239.80532 229.92581 221.02829 213.20878 206.20926
 200.04174 194.97823 191.55871 189.59919 188.63468 188.69716 189.53065 190.83713
 192.56061 194.65410 196.91558 199.27307 201.71655 204.19503 206.28152 208.12200
 209.74649 210.88997 211.11745 211.34394 211.27942 210.98291 210.61439 210.24287
 209.85836 209.56684 209.37333 209.23581 209.16229 209.49178 209.87626 210.26375
 211.05523 212.23171 213.48020 215.26168 217.18816 219.22965 221.32313 223.40462
 225.46310 227.54558 229.64107 231.74555 233.87304 236.04352 238.29800 240.66649
 243.28597 245.53546 247.53594 249.29942 250.71491 251.83639 252.65688 252.97136
 253.00684 252.77933 252.13781 251.08430 249.68878 247.84826 245.75575 243.58723
 241.37672 239.17920 236.99768 234.83517 232.69365 230.55913 228.58362 226.73910
 225.02059 223.49107 222.11955 220.89004 219.77052 218.72901 217.83149 216.97097
 216.21146 215.38994 214.48643 213.84891 213.29739 213.96945 215.55725 217.16823
 218.95944 221.20877 223.38057 224.93036 225.92761 227.03311 228.34540 228.49968
 228.37065 229.60080 232.71861 237.04912 241.49480 245.74312 249.76875 253.49738
 256.92441 260.09537 263.06503 265.81439 268.16412 270.27356 272.41431 274.50882
 276.41342 278.13712 279.67560 281.03873 282.22165 283.27136 284.23166 285.10764
 285.90524 286.62372 287.25629 288.09811
 366.78100 356.33314 345.76328 334.62741 323.02855 311.22069 299.08883 286.88997
 274.60010 262.49524 250.50238 239.80152 229.92165 221.02379 213.20393 206.20407
 200.03621 194.97234 191.55248 189.59262 188.62776 188.68990 189.52303 190.82917
 192.55231 194.64545 196.90658 199.26372 201.70686 204.18500 206.27114 208.11127
 209.73541 210.87855 211.10569 211.33183 211.26696 210.97010 210.60124 210.22938
 209.84451 209.55265 209.35879 209.22093 209.14707 209.47620 209.86034 210.24748
 211.03862 212.21476 213.46289 215.24403 217.17017 219.21131 221.30444 223.38558
 225.44372 227.52586 229.62100 231.72513 233.85227 236.02241 238.27655 240.64469
 243.26382 245.51296 247.51310 249.27624 250.69138 251.81251 252.63265 252.94679
 252.98193 252.75406 252.11220 251.05834 249.66248 247.82162 245.72875 243.55989
 241.34903 239.15117 236.96931 234.80644 232.66458 230.52972 228.55386 226.70899
 224.99013 223.46027 222.08841 220.85855 219.73868 218.69682 217.79896 216.93810
 216.17824 215.35637 214.45251 213.81465 213.26279 213.96057 215.60915 217.28787
 219.04248 221.22232 223.34715 224.92389 225.96318 227.05321 228.27997 228.40044
 228.27193 229.53978 232.72197 237.07455 241.51776 245.75137 249.75452 253.45543
 256.85788 260.01086 262.96780 265.70953 268.06653 270.23779 272.43964 274.44803
 276.34396 278.05884 279.58975 280.95035 282.13129 283.17798 284.13586 285.00943
 285.80356 286.51938 287.14691 287.98407
 366.78100 356.33283 345.76267 334.62650 323.02733 311.21916 299.08700 286.88783
 274.59766 262.49249 250.49933 239.79816 229.91799 221.01982 213.19966 206.19949
 200.03132 194.96715 191.54699 189.58682 188.62165 188.68348 189.51632 190.82215
 192.54498 194.63781 196.89865 199.25548 201.69831 204.17614 206.26198 208.10181
 209.72564 210.86847 211.09531 211.32114 211.25597 210.95880 210.58964 210.21747
 209.83230 209.54013 209.34597 209.20780 209.13363 209.46246 209.84630 210.23313
 211.02396 212.19979 213.44763 215.22846 217.15429 219.19512 221.28796 223.36879
 225.42662 227.50845 229.60329 231.70712 233.83395 236.00378 238.25762 240.62545
 243.24428 245.49312 247.49295 249.25578 250.67061 251.79145 252.61128 252.92511
 252.95994 252.73178 252.08961 251.03544 249.63927 247.79811 245.70494 243.53577
 241.32460 239.12644 236.94427 234.78110 232.63893 230.50377 228.52760 226.68243
 224.96326 223.43310 222.06093 220.83076 219.71059 218.66843 217.77026 216.90909
 216.14892 215.32676 214.42259 213.78442 213.23225 213.95035 215.64691 217.41418
 219.15842 221.25093 223.29738 224.87927 225.96718 227.05284 228.20218 228.29703
 228.18076 229.49564 232.73738 237.10294 241.54346 245.76593 249.75317 253.43333
 256.81506 259.94879 262.88519 265.61517 267.98032 270.19296 272.42078 274.39624
 276.28366 277.98245 279.50204 280.85553 282.03128 283.07556 284.02972 284.90262
 285.69272 286.40686 287.03528 287.86639
 366.78100 356.33248 345.76196 334.62545 323.02593 311.21741 299.08489 286.88537
 274.59485 262.48934 250.49582 239.79430 229.91378 221.01526 213.19474 206.19423
 200.02571 194.96119 191.54067 189.58015 188.61463 188.67612 189.50860 190.81408
 192.53656 194.62904 196.88953 199.24601 201.68849 204.16597 206.25145 208.09093
 209.71442 210.85690 211.08338 211.30886 211.24334 210.94582 210.57631 210.20379
 209.81827 209.52575 209.33123 209.19271 209.11820 209.44668 209.83016 210.21664
 211.00712 212.18261 213.43009 215.21057 217.13605 219.17653 221.26901 223.34950
 225.40698 227.48846 229.58294 231.68642 233.81290 235.98239 238.23587 240.60335
 243.22183 245.47031 247.46979 249.23228 250.64676 251.76724 252.58672 252.90020
 252.93469 252.70617 252.06365 251.00913 249.61261 247.77109 245.67758 243.50806
 241.29654 239.09802 236.91550 234.75198 232.60947 230.47395 228.49743 226.65191
 224.93239 223.40187 222.02936 220.79884 219.67832 218.63580 217.73728 216.87577
 216.11525 215.29273 214.38821 213.74969 213.19717 213.93494 215.67796 217.54593
 219.29259 221.29666 223.24661 224.81082 225.93990 227.03149 228.11848 228.19374
 228.09053 229.45973 232.76038 237.13750 241.57590 245.79141 249.76865 253.43301
 256.79367 259.90088 262.80975 265.52112 267.89484 270.12012 272.35547 274.33145
 276.20502 277.89838 279.41583 280.76688 281.94043 282.98297 283.93655 284.80615
 285.59830 286.31311 286.94138 287.75580
 366.78100 356.33243 345.76186 334.62528 323.02571 311.21714 299.08457 286.88500
 274.59442 262.48885 250.49528 239.79371 229.91314 221.01456 213.19399 206.19342
 200.02485 194.96028 191.53970 189.57913 188.61356 188.67499 189.50742 190.81284
 192.53527 194.62770 196.88813 199.24456 201.68698 204.16441 206.24984 208.08927
 209.71270 210.85512 211.08155 211.30698 211.24141 210.94384 210.57427 210.20169
 209.81612 209.52355 209.32898 209.19041 209.11583 209.44426 209.82769 210.21412
 211.00455 212.17997 213.42740 215.20783 217.13326 219.17369 221.26611 223.34654
 225.40397 227.48540 229.57983 231.68325 233.80968 235.97911 238.23254 240.59997
 243.21839 245.46682 247.46625 249.22868 250.64311 251.76353 252.58296 252.89639
 252.93082 252.70225 252.05967 251.00510 249.60853 247.76696 245.67339 243.50381
 241.29224 239.09367 236.91110 234.74753 232.60495 230.46938 228.49281 226.64724
 224.92767 223.39709 222.02452 220.79395 219.67338 218.63081 217.73223 216.87066
 216.11009 215.28752 214.38295 213.74437 213.19180 213.93517 215.69145 217.66985
 219.44212 221.35344 223.18553 224.70691 225.86263 226.96686 227.99330 228.09167
 227.99374 229.43208 232.79211 237.18626 241.63095 245.84882 249.81667 253.46129
 256.79724 259.87595 262.74649 265.44186 267.79547 270.00037 272.28870 274.24258
 276.11374 277.80316 279.31299 280.66162 281.83612 282.87958 283.83591 284.71173
 285.51440 286.23895 286.88620 287.71725
 366.78100 356.33281 345.76262 334.62643 323.02724 311.21905 299.08686 286.88767
 274.59748 262.49229 250.49909 239.79790 229.91771 221.01952 213.19933 206.19914
 200.03095 194.96676 191.54657 189.58638 188.62119 188.68300 189.51581 190.82162
 192.54443 194.63724 196.89805 199.25486 201.69767 204.17548 206.26128 208.10109
 209.72490 210.86771 211.09452 211.32033 211.25514 210.95795 210.58876 210.21657
 209.83138 209.53919 209.34500 209.20681 209.13262 209.46143 209.84524 210.23205
 211.02286 212.19867 213.44647 215.22728 217.15309 219.19390 221.28671 223.36752
 225.42533 227.50714 229.60195 231.70576 233.83257 236.00238 238.25619 240.62400
 243.24281 245.49162 247.49143 249.25424 250.66905 251.78986 252.60966 252.92347
 252.95828 252.73009 252.08790 251.03371 249.63752 247.79633 245.70314 243.53395
 241.32276 239.12457 236.94238 234.77919 232.63700 230.50181 228.52562 226.68043
 224.96124 223.43105 222.05885 220.82866 219.70847 218.66628 217.76809 216.90690
 216.14671 215.32452 214.42033 213.78214 213.22995 213.96057 215.69414 217.74971
 219.57709 221.39932 223.11171 224.59547 225.78734 226.87105 227.79662 228.00270
 227.80003 229.36407 232.80055 237.23248 241.69751 245.95560 249.92310 253.55992
 256.88205 259.93185 262.76089 265.38300 267.72888 269.98090 272.19156 274.19498
 276.02313 277.67685 279.16675 280.49954 281.64822 282.65958 283.59668 284.45761
 285.23849 285.93643 286.54614 287.32315
 366.78100 356.33366 345.76432 334.62898 323.03064 311.22330 299.09196 286.89362
 274.60428 262.49994 250.50760 239.80726 229.92792 221.03058 213.21124 206.21190
 200.04457 194.98123 191.56189 189.60255 188.63821 188.70087 189.53453 190.84119
 192.56485 194.65851 196.92017 199.27783 201.72149 204.20015 206.28681 208.12747
 209.75213 210.89579 211.12345 211.35011 211.28577 210.98943 210.62109 210.24975
 209.86541 209.57407 209.38073 209.24339 209.17005 209.49971 209.88438 210.27204
 211.06370 212.24036 213.48902 215.27068 217.19734 219.23900 221.33266 223.41432
 225.47298 227.55564 229.65130 231.75596 233.88362 236.05428 238.30894 240.67760
 243.29726 245.54692 247.54758 249.31124 250.72690 251.84856 252.66922 252.98388
 253.01954 252.79220 252.15086 251.09752 249.70219 247.86185 245.76951 243.60117
 241.39083 239.19349 237.01215 234.84981 232.70847 230.57413 228.59879 226.75445
 225.03611 223.50677 222.13543 220.90609 219.78675 218.74541 217.84807 216.98773
 216.22839 215.40705 214.50371 213.86637 213.31503 214.00511 215.64198 217.84267
 219.81914 221.55716 223.10416 224.52634 225.73325 226.79504 227.66023 227.77919
 227.64693 229.33572 232.84723 237.29892 241.78804 246.03661 250.00381 253.64197
 256.95236 259.98441 262.78625 265.39438 267.70911 269.90475 272.14597 274.14191
 275.94476 277.57782 279.05286 280.35928 281.48746 282.51321 283.47141 284.34860
 285.14670 285.86563 286.49368 287.29407
 366.78100 356.33473 345.76647 334.63220 323.03494 311.22867 299.09841 286.90114
 274.61288 262.50961 250.51834 239.81908 229.94081 221.04455 213.22628 206.22802
 200.06175 194.99948 191.58122 189.62295 188.65969 188.72342 189.55816 190.86589
 192.59063 194.68536 196.94809 199.30683 201.75156 204.23130 206.31903 208.16077
 209.78650 210.93124 211.15997 211.38770 211.32444 211.02917 210.66191 210.29164
 209.90838 209.61811 209.42584 209.28958 209.21731 209.54805 209.93378 210.32252
 211.11525 212.29299 213.54272 215.32545 217.25319 219.29592 221.39066 223.47339
 225.53313 227.61686 229.71359 231.81933 233.94806 236.11980 238.37553 240.74527
 243.36600 245.61674 247.61847 249.38320 250.79994 251.92267 252.74441 253.06014
 253.09688 252.87061 252.23035 251.17808 249.78381 247.94455 245.85328 243.68602
 241.47675 239.28049 237.10022 234.93895 232.79869 230.66542 228.69116 226.84789
 225.13063 223.60236 222.23210 221.00383 219.88556 218.84530 217.94903 217.08977
 216.33150 215.51124 214.60897 213.97271 213.42244 214.05988 215.56589 217.94606
 220.11644 221.79002 223.13811 224.43982 225.66269 226.70168 227.48630 227.47005
 227.50865 229.31859 232.90750 237.36931 241.86530 246.12320 250.09201 253.72421
 257.02673 260.01804 262.77820 265.40048 267.71030 269.81131 272.09036 274.06372
 275.85733 277.45605 278.90909 280.20364 281.31793 282.33447 283.28799 284.15927
 284.93527 285.61560 286.21286 286.97403
 366.78100 356.33576 345.76852 334.63528 323.03904 311.23380 299.10456 286.90832
 274.62107 262.51883 250.52859 239.83035 229.95311 221.05787 213.24063 206.24339
 200.07815 195.01691 191.59967 189.64243 188.68019 188.74495 189.58071 190.88946
 192.61522 194.71098 196.97474 199.33450 201.78026 204.26102 206.34978 208.19254
 209.81930 210.96506 211.19482 211.42358 211.36134 211.06710 210.70085 210.33161
 209.94937 209.66013 209.46889 209.33365 209.26241 209.59417 209.98093 210.37069
 211.16445 212.34321 213.59397 215.37773 217.30649 219.35024 221.44600 223.52976
 225.59052 227.67528 229.77304 231.87980 234.00956 236.18232 238.43908 240.80984
 243.43160 245.68336 247.68612 249.45188 250.86963 251.99339 252.81615 253.13291
 253.17067 252.94543 252.30619 251.25495 249.86171 248.02347 245.93323 243.76699
 241.55875 239.36351 237.18426 235.02402 232.88478 230.75254 228.77930 226.93706
 225.22082 223.69358 222.32434 221.09710 219.97986 218.94062 218.04538 217.18714
 216.42990 215.61065 214.70941 214.07417 213.52493 214.11516 215.50963 218.02055
 220.35687 221.97803 223.16193 224.36194 225.54182 226.57216 227.32310 227.29819
 227.40761 229.29735 232.95087 237.43196 241.93762 246.19870 250.16808 253.79863
 257.08588 260.05582 262.78732 265.39545 267.66177 269.71796 271.97925 273.96103
 275.75082 277.34024 278.79248 280.09036 281.19620 282.20184 283.15790 283.97141
 284.65097 285.30612 285.90854 286.67905
 366.78100 356.33629 345.76959 334.63688 323.04117 311.23646 299.10776 286.91205
 274.62534 262.52364 250.53393 239.83622 229.95952 221.06481 213.24810 206.25139
 200.08669 195.02598 191.60927 189.65257 188.69086 188.75615 189.59244 190.90174
 192.62803 194.72432 196.98862 199.34891 201.79520 204.27649 206.36579 208.20908
 209.83637 210.98267 211.21296 211.44225 211.38055 211.08684 210.72113 210.35242
 209.97072 209.68201 209.49130 209.35660 209.28589 209.61818 210.00547 210.39577
 211.19006 212.36935 213.62065 215.40494 217.33423 219.37853 221.47482 223.55911
 225.62040 227.70570 229.80399 231.91128 234.04158 236.21487 238.47216 240.84345
 243.46575 245.71804 247.72133 249.48763 250.90592 252.03021 252.85350 253.17080
 253.20909 252.98438 252.34568 251.29497 249.90226 248.06456 245.97485 243.80914
 241.60143 239.40673 237.22802 235.06831 232.92961 230.79790 228.82519 226.98348
 225.26778 223.74107 222.37236 221.14566 220.02895 218.99024 218.09554 217.23783
 216.48112 215.66241 214.76171 214.12700 213.57829 214.14604 215.48741 218.09543
 220.52342 222.16394 223.28946 224.31677 225.43822 226.45918 227.13399 227.04800
 227.28722 229.31619 233.01881 237.49947 242.00911 246.25102 250.21210 253.83939
 257.11853 260.08194 262.79980 265.38513 267.63397 269.73700 271.95197 273.89120
 275.72430 277.27762 278.70990 280.00534 281.08826 282.09912 283.05405 283.84943
 284.47174 285.14227 285.74274 286.52692
 366.78100 356.33432 345.76564 334.63096 323.03329 311.22661 299.09593 286.89825
 274.60957 262.50589 250.51421 239.81454 229.93586 221.03918 213.22050 206.22182
 200.05514 194.99247 191.57379 189.61511 188.65143 188.71475 189.54907 190.85639
 192.58072 194.67504 196.93736 199.29568 201.74000 204.21932 206.30664 208.14797
 209.77329 210.91761 211.14593 211.37325 211.30957 211.01390 210.64622 210.27554
 209.89186 209.60118 209.40850 209.27182 209.19915 209.52947 209.91479 210.30311
 211.09543 212.27275 213.52207 215.30440 217.23172 219.27404 221.36836 223.45068
 225.51000 227.59333 229.68965 231.79497 233.92329 236.09461 238.34993 240.71925
 243.33958 245.58990 247.59122 249.35554 250.77186 251.89418 252.71550 253.03083
 253.06715 252.84047 252.19979 251.14711 249.75243 247.91275 245.82108 243.65340
 241.44372 239.24704 237.06636 234.90468 232.76401 230.63033 228.65565 226.81197
 225.09429 223.56561 222.19493 220.96626 219.84758 218.80690 217.91022 217.05054
 216.29186 215.47118 214.56851 213.93183 213.38115 214.04945 215.62839 218.08275
 220.59473 222.30908 223.34756 224.27452 225.44391 226.44450 226.97160 226.79005
 226.96904 229.17018 233.03868 237.58203 242.10866 246.37231 250.35043 253.98610
 257.25574 260.17322 262.82657 265.37558 267.53616 269.76404 271.82962 273.87097
 275.48969 277.09424 278.52536 279.74048 280.78021 281.74936 282.60040 283.22202
 283.90640 284.53677 285.08176 285.77625
 366.78100 356.33332 345.76365 334.62797 323.02930 311.22162 299.08994 286.89127
 274.60159 262.49692 250.50424 239.80356 229.92389 221.02621 213.20654 206.20686
 200.03918 194.97551 191.55583 189.59616 188.63148 188.69380 189.52713 190.83345
 192.55678 194.65010 196.91142 199.26875 201.71207 204.19040 206.27672 208.11704
 209.74137 210.88469 211.11202 211.33834 211.27366 210.97699 210.60831 210.23664
 209.85196 209.56029 209.36661 209.22893 209.15526 209.48458 209.86891 210.25623
 211.04755 212.22388 213.47220 215.25353 217.17985 219.22117 221.31450 223.39582
 225.45415 227.53647 229.63179 231.73612 233.86344 236.03377 238.28809 240.65641
 243.27574 245.52506 247.52539 249.28871 250.70403 251.82536 252.64568 252.96001
 252.99533 252.76765 252.12598 251.07230 249.67663 247.83595 245.74327 243.57460
 241.36392 239.16625 236.98457 234.82189 232.68022 230.54554 228.56987 226.72519
 225.00651 223.47684 222.10516 220.87549 219.75581 218.71413 217.81646 216.95578
 216.19611 215.37443 214.47075 213.83308 213.28140 214.01160 215.79797 218.11116
 220.57903 222.10825 223.13190 224.15605 225.49586 226.55389 226.87834 227.16620
 226.96230 229.05472 232.90497 237.49358 242.08714 246.42044 250.43019 254.08012
 257.34402 260.20499 262.88477 265.31348 267.23749 269.80560 271.86792 273.71173
 275.23123 276.60837 277.86520 279.01639 279.97580 280.93054 281.84933 282.68167
 283.43027 284.09692 284.67926 285.42142
 366.78100 356.33905 345.77509 334.64514 323.05218 311.25023 299.12427 286.93132
 274.64736 262.54841 250.56145 239.86650 229.99255 221.10059 213.28664 206.29268
 200.13073 195.07277 191.65882 189.70486 188.74591 188.81395 189.65300 190.96505
 192.69409 194.79314 197.06018 199.42323 201.87227 204.35632 206.44836 208.29441
 209.92445 211.07350 211.30655 211.53859 211.47964 211.18868 210.82573 210.45977
 210.08082 209.79486 209.60691 209.47495 209.40700 209.74205 210.13209 210.52514
 211.32218 212.50423 213.75827 215.54532 217.47736 219.52441 221.62345 223.71050
 225.77455 227.86259 229.96364 232.07368 234.20673 236.38277 238.64282 241.01686
 243.64191 245.89695 247.90300 249.67205 251.09309 252.22014 253.04618 253.36623
 253.40727 253.18532 252.54936 251.50141 250.11146 248.27650 246.18955 244.02659
 241.82164 239.62968 237.45373 235.29677 233.16082 231.03186 229.06191 227.22296
 225.51000 223.98605 222.62009 221.39614 220.28218 219.24623 218.35427 217.49932
 216.74536 215.92941 215.03146 214.39950 213.85355 214.32428 215.66280 218.23662
 220.83569 222.34631 223.39088 224.37952 225.50444 226.25851 226.98692 226.91919
 227.18283 229.25691 232.98495 237.49344 242.05518 246.36140 250.39519 254.07629
 257.36136 260.24823 262.91278 265.01233 267.53940 269.94623 271.88986 273.64380
 275.04999 276.29181 277.75653 279.18954 280.42969 281.52689 282.52792 283.43481
 284.25046 284.97678 285.61127 286.41989
 366.78100 356.34244 345.78187 334.65531 323.06574 311.26718 299.14461 286.95505
 274.67448 262.57892 250.59535 239.90379 230.03322 221.14466 213.33409 206.34353
 200.18496 195.13040 191.71983 189.76927 188.81370 188.88514 189.72757 191.04301
 192.77544 194.87788 197.14832 199.51475 201.96719 204.45462 206.55006 208.39949
 210.03293 211.18536 211.42180 211.65723 211.60167 211.31410 210.95454 210.59197
 210.21641 209.93384 209.74928 209.62071 209.55615 209.89458 210.28802 210.68445
 211.48489 212.67032 213.92776 215.71820 217.65363 219.70407 221.80650 223.89694
 225.96437 228.05581 230.16024 232.27368 234.41011 236.58955 238.85298 241.23042
 243.85885 246.11729 248.12672 249.89916 251.32359 252.45403 253.28346 253.60690
 253.65133 253.43277 252.80020 251.75564 250.36908 248.53751 246.45395 244.29438
 242.09282 239.90425 237.73169 235.57812 233.44556 231.31999 229.35343 227.51786
 225.80830 224.28773 222.92517 221.70460 220.59404 219.56147 218.67291 217.82134
 217.07078 216.25821 215.36365 214.73508 214.19252 214.52002 215.58467 218.19522
 221.00121 222.73657 223.72261 224.42120 225.37891 225.99876 226.79692 226.40205
 226.77705 229.14050 233.08826 237.65189 242.22282 246.55908 250.60533 254.31950
 257.66666 260.58459 263.20557 265.29254 267.36124 269.82825 271.80042 273.63312
 275.08838 276.59146 278.30374 279.80722 281.10837 282.25955 283.30981 284.26129
 285.11707 285.87909 286.54480 287.39319
 366.78100 356.33867 345.77435 334.64402 323.05070 311.24837 299.12205 286.92872
 274.64439 262.54507 250.55774 239.86242 229.98809 221.09577 213.28144 206.28712
 200.12479 195.06646 191.65214 189.69781 188.73849 188.80616 189.64484 190.95651
 192.68518 194.78386 197.05053 199.41321 201.86188 204.34556 206.43723 208.28291
 209.91258 211.06125 211.29393 211.52560 211.46628 211.17495 210.81163 210.44530
 210.06597 209.77965 209.59132 209.45900 209.39067 209.72535 210.11502 210.50770
 211.30437 212.48604 213.73972 215.52639 217.45807 219.50474 221.60342 223.69009
 225.75376 227.84144 229.94211 232.05179 234.18446 236.36014 238.61981 240.99349
 243.61816 245.87283 247.87851 249.64718 251.06786 252.19453 253.02021 253.33988
 253.38055 253.15823 252.52190 251.47358 250.08325 248.24793 246.16060 243.99728
 241.79195 239.59962 237.42330 235.26597 233.12965 231.00032 229.03000 227.19067
 225.47734 223.95302 222.58669 221.36237 220.24804 219.21172 218.31939 217.46406
 216.70974 215.89341 214.99509 214.36276 213.81644 214.34544 215.74821 218.09416
 220.84517 222.90468 224.06424 224.62822 225.34142 226.06558 226.32359 226.01941
 226.49796 229.01921 233.09164 237.67860 242.23817 246.58504 250.63937 254.36967
 257.76669 260.75897 263.47336 265.92340 267.70758 269.65689 271.78952 273.73181
 275.32724 276.80264 278.36502 280.06732 281.63791 283.02750 284.29529 285.44382
 286.47678 287.39664 288.20023 289.22430
 366.78100 356.33493 345.76685 334.63278 323.03571 311.22964 299.09956 286.90249
 274.61442 262.51135 250.52027 239.82120 229.94313 221.04706 213.22898 206.23091
 200.06484 195.00277 191.58469 189.62662 188.66355 188.72748 189.56240 190.87033
 192.59526 194.69019 196.95311 199.31204 201.75697 204.23690 206.32482 208.16675
 209.79268 210.93760 211.16653 211.39446 211.33139 211.03631 210.66924 210.29917
 209.91610 209.62602 209.43395 209.29788 209.22581 209.55673 209.94266 210.33159
 211.12452 212.30244 213.55237 215.33530 217.26323 219.30615 221.40108 223.48401
 225.54394 227.62786 229.72479 231.83072 233.95965 236.13157 238.38750 240.75743
 243.37835 245.62928 247.63121 249.39614 250.81306 251.93599 252.75792 253.07385
 253.11077 252.88470 252.24463 251.19256 249.79848 247.95941 245.86834 243.70127
 241.49219 239.29612 237.11605 234.95498 232.81490 230.68183 228.70776 226.86469
 225.14761 223.61954 222.24947 221.02140 219.90332 218.86325 217.96718 217.10810
 216.35003 215.52996 214.62789 213.99181 213.44174 214.14810 215.89107 218.18604
 220.61102 222.65086 223.99312 224.69073 225.43860 226.29878 226.60130 225.90147
 226.27429 228.73657 232.92531 237.53375 242.07133 246.38469 250.42892 254.15417
 257.54056 260.57013 263.29977 265.86606 267.96960 269.73077 271.68567 273.75320
 275.43918 276.82367 278.19229 279.56686 280.80734 281.96823 283.05322 284.03616
 284.92020 285.70743 286.39514 287.27158
 366.78100 356.33592 345.76884 334.63577 323.03969 311.23461 299.10553 286.90945
 274.62238 262.52030 250.53022 239.83214 229.95506 221.05999 213.24291 206.24583
 200.08075 195.01967 191.60260 189.64552 188.68344 188.74836 189.58428 190.89321
 192.61913 194.71505 196.97897 199.33889 201.78482 204.26574 206.35466 208.19758
 209.82450 210.97043 211.20035 211.42927 211.36719 211.07311 210.70704 210.33796
 209.95588 209.66680 209.47572 209.34065 209.26957 209.60149 209.98841 210.37833
 211.17226 212.35118 213.60210 215.38602 217.31494 219.35887 221.45479 223.53871
 225.59963 227.68455 229.78248 231.88940 234.01932 236.19224 238.44916 240.82009
 243.44201 245.69393 247.69685 249.46277 250.88070 252.00462 252.82754 253.14446
 253.18238 252.95731 252.31823 251.26715 249.87407 248.03599 245.94592 243.77984
 241.57176 239.37668 237.19760 235.03752 232.89845 230.76637 228.79329 226.95121
 225.23513 223.70806 222.33898 221.11190 219.99482 218.95574 218.06067 217.20259
 216.44551 215.62643 214.72535 214.09028 213.54120 214.19363 215.80650 218.37671
 220.68726 222.46545 223.73027 224.48941 225.34302 226.34366 226.86546 225.99437
 226.22202 228.66106 232.91534 237.52135 242.02563 246.32565 250.35098 254.06351
 257.41913 260.42517 263.16309 265.74496 267.95258 269.74173 271.62787 273.67038
 275.44904 276.85242 278.13596 279.46906 280.66687 281.71738 282.73029 283.67026
 284.51566 285.26849 285.92618 286.76428
 366.78100 356.33709 345.77117 334.63926 323.04435 311.24043 299.11252 286.91761
 274.63169 262.53078 250.54187 239.84496 229.96904 221.07513 213.25922 206.26330
 200.09939 195.03948 191.62356 189.66765 188.70674 188.77282 189.60991 190.92000
 192.64708 194.74417 197.00926 199.37034 201.81743 204.29952 206.38961 208.23369
 209.86178 211.00887 211.23995 211.47004 211.40913 211.11621 210.75130 210.38339
 210.00247 209.71456 209.52465 209.39073 209.32082 209.65391 210.04199 210.43308
 211.22817 212.40826 213.66034 215.44543 217.37552 219.42060 221.51769 223.60278
 225.66486 227.75095 229.85004 231.95812 234.08921 236.26330 238.52138 240.89347
 243.51656 245.76964 247.77373 249.54082 250.95991 252.08499 252.90908 253.22717
 253.26625 253.04234 252.40443 251.35451 249.96260 248.12569 246.03677 243.87186
 241.66495 239.47103 237.29312 235.13421 232.99629 230.86538 228.89347 227.05256
 225.33764 223.81173 222.44382 221.21790 220.10199 219.06408 218.17016 217.31325
 216.55734 215.73942 214.83951 214.20560 213.65768 214.26292 215.76332 218.42038
 220.91278 222.58084 223.60956 224.32870 225.23639 226.25458 226.82043 225.97871
 226.12891 228.64803 232.94070 237.51743 242.06131 246.35518 250.40880 254.13596
 257.50531 260.50534 263.23181 265.79279 268.01871 269.84042 271.64041 273.60596
 275.38620 276.81070 278.03964 279.34641 280.51761 281.54541 282.53571 283.47910
 284.32758 285.08313 285.74316 286.58432
 366.78100 356.33839 345.77378 334.64317 323.04956 311.24694 299.12033 286.92672
 274.64211 262.54250 250.55489 239.85928 229.98467 221.09206 213.27744 206.28283
 200.12022 195.06161 191.64700 189.69239 188.73278 188.80017 189.63856 190.94994
 192.67833 194.77672 197.04311 199.40550 201.85389 204.33728 206.42867 208.27406
 209.90344 211.05183 211.28422 211.51561 211.45600 211.16439 210.80078 210.43417
 210.05456 209.76794 209.57933 209.44672 209.37811 209.71250 210.10189 210.49428
 211.29067 212.47205 213.72544 215.51183 217.44322 219.48961 221.58800 223.67439
 225.73778 227.82517 229.92555 232.03494 234.16733 236.34272 238.60211 240.97550
 243.59989 245.85428 247.85967 249.62805 251.04844 252.17483 253.00022 253.31961
 253.36000 253.13739 252.50078 251.45217 250.06155 248.22594 246.13833 243.97472
 241.76911 239.57650 237.39989 235.24228 233.10567 230.97605 229.00544 227.16583
 225.45222 223.92761 222.56100 221.33639 220.22178 219.18517 218.29255 217.43694
 216.68233 215.86572 214.96711 214.33450 213.78789 214.34735 215.77109 218.41353
 221.02725 222.64754 223.63327 224.40067 225.31235 226.25587 226.64690 226.06470
 226.10329 228.64906 232.90169 237.49617 242.04625 246.36946 250.43741 254.18826
 257.58762 260.60022 263.30423 265.84497 268.07117 269.91855 271.66415 273.49933
 275.21841 276.58929 277.78455 279.10080 280.29565 281.41022 282.49384 283.47552
 284.35843 285.14465 285.83151 286.70682
 366.78100 356.34104 345.77907 334.65111 323.06014 311.26018 299.13622 286.94525
 274.66329 262.56633 250.58136 239.88840 230.01643 221.12647 213.31451 206.32254
 200.16258 195.10661 191.69465 189.74269 188.78572 188.85576 189.69679 191.01083
 192.74187 194.84290 197.11194 199.47698 201.92801 204.41405 206.50808 208.35612
 209.98816 211.13919 211.37423 211.60826 211.55130 211.26234 210.90137 210.53741
 210.16044 209.87648 209.69052 209.56055 209.49459 209.83163 210.22366 210.61870
 211.41773 212.60177 213.85781 215.64684 217.58088 219.62991 221.73095 223.81999
 225.88602 227.97606 230.07910 232.19113 234.32617 236.50420 238.76624 241.14228
 243.76931 246.02635 248.03438 249.80542 251.22846 252.35749 253.18553 253.50756
 253.55060 253.33064 252.69667 251.65071 250.26275 248.42978 246.34482 244.18385
 241.98089 239.79093 237.61696 235.46200 233.32803 231.20107 229.23311 227.39614
 225.68518 224.16321 222.79925 221.57729 220.46532 219.43136 218.54140 217.68843
 216.93647 216.12250 215.22654 214.59658 214.05261 214.51556 215.77853 218.35823
 221.10545 222.85478 223.92404 224.65955 225.44322 226.16951 226.35516 225.88272
 226.11116 228.71501 232.89066 237.49922 242.06097 246.40468 250.49249 254.27655
 257.71655 260.76590 263.48404 265.97382 268.16733 270.01154 271.71271 273.42566
 275.04776 276.32086 277.72833 279.13339 280.52237 281.75854 282.88635 283.90808
 284.82700 285.64529 286.36017 287.27115
 366.78100 356.34095 345.77891 334.65086 323.05982 311.25977 299.13572 286.94468
 274.66263 262.56559 250.58054 239.88749 230.01545 221.12540 213.31336 206.32131
 200.16126 195.10522 191.69317 189.74113 188.78408 188.85403 189.69499 191.00894
 192.73990 194.84085 197.10980 199.47476 201.92571 204.41167 206.50562 208.35357
 209.98553 211.13648 211.37144 211.60539 211.54835 211.25930 210.89825 210.53421
 210.15716 209.87312 209.68707 209.55702 209.49098 209.82793 210.21989 210.61484
 211.41379 212.59775 213.85370 215.64266 217.57661 219.62556 221.72652 223.81547
 225.88143 227.97138 230.07433 232.18629 234.32124 236.49920 238.76115 241.13710
 243.76406 246.02101 248.02897 249.79992 251.22287 252.35183 253.17978 253.50174
 253.54469 253.32464 252.69060 251.64455 250.25651 248.42346 246.33841 244.17737
 241.97432 239.78428 237.61023 235.45518 233.32114 231.19409 229.22605 227.38900
 225.67795 224.15591 222.79186 221.56982 220.45777 219.42372 218.53368 217.68063
 216.92859 216.11454 215.21850 214.58845 214.04440 214.54845 215.89255 218.25737
 221.04442 223.01819 224.20891 224.88449 225.54089 226.12854 226.14273 225.51851
 225.87643 228.60127 232.86084 237.51216 242.09454 246.45407 250.57419 254.39871
 257.89966 261.01093 263.76068 266.26172 268.47220 270.32819 271.96274 273.57657
 275.10770 276.42621 277.95261 279.52631 280.99561 282.29556 283.48157 284.55600
 285.52237 286.38290 287.13464 288.09265
 366.78100 356.33957 345.77614 334.64671 323.05428 311.25285 299.12741 286.93498
 274.65155 262.55312 250.56669 239.87226 229.99883 221.10740 213.29397 206.30054
 200.13911 195.08168 191.66824 189.71481 188.75638 188.82495 189.66452 190.97709
 192.70666 194.80623 197.07380 199.43737 201.88694 204.37151 206.46407 208.31064
 209.94121 211.09078 211.32435 211.55692 211.49849 211.20806 210.84563 210.48020
 210.10177 209.81633 209.62890 209.49747 209.43004 209.76561 210.15618 210.54975
 211.34732 212.52989 213.78446 215.57203 217.50460 219.55216 221.65173 223.73930
 225.80387 227.89244 229.99401 232.10458 234.23815 236.41472 238.67529 241.04986
 243.67543 245.93099 247.93756 249.70713 251.12870 252.25627 253.08284 253.40341
 253.44498 253.22355 252.58812 251.54069 250.15125 248.31682 246.23039 244.06796
 241.86353 239.67210 237.49667 235.34024 233.20481 231.07638 229.10695 227.26852
 225.55608 224.03265 222.66722 221.44379 220.33036 219.29493 218.40350 217.54907
 216.79564 215.98021 215.08278 214.45135 213.90591 214.49924 216.00455 218.23276
 220.87697 222.98215 224.30264 224.98451 225.56004 226.21291 226.20976 225.42220
 225.71849 228.41487 232.72391 237.37447 241.93582 246.30876 250.46463 254.34323
 257.90237 261.10425 263.92828 266.47736 268.77094 270.73212 272.40057 273.90915
 275.41730 276.72449 278.14279 279.56201 280.98230 282.29285 283.48853 284.57169
 285.54590 286.41345 287.17130 288.13712
 366.78100 356.34005 345.77709 334.64814 323.05618 311.25523 299.13028 286.93832
 274.65537 262.55741 250.57146 239.87751 230.00455 221.11360 213.30064 206.30769
 200.14674 195.08978 191.67683 189.72387 188.76592 188.83497 189.67501 190.98806
 192.71810 194.81815 197.08620 199.45024 201.90029 204.38533 206.47838 208.32543
 209.95647 211.10652 211.34056 211.57361 211.51566 211.22570 210.86375 210.49879
 210.12084 209.83589 209.64893 209.51798 209.45102 209.78707 210.17812 210.57216
 211.37021 212.55325 213.80830 215.59634 217.52939 219.57744 221.67748 223.76553
 225.83057 227.91962 230.02167 232.13271 234.26676 236.44380 238.70485 241.07990
 243.70594 245.96199 247.96903 249.73908 251.16113 252.28917 253.11622 253.43726
 253.47931 253.25836 252.62340 251.57645 250.18749 248.35354 246.26759 244.10563
 241.90168 239.71072 237.53577 235.37982 233.24486 231.11691 229.14795 227.31000
 225.59805 224.07509 222.71014 221.48718 220.37423 219.33928 218.44832 217.59437
 216.84141 216.02646 215.12951 214.49855 213.95360 214.53703 216.00650 218.29335
 220.78969 222.87065 224.18665 224.88396 225.56790 226.39764 226.47116 225.46384
 225.67761 228.28362 232.60248 237.23141 241.75682 246.11409 250.26764 254.14882
 257.71695 260.96002 263.87155 266.48175 268.84171 270.89587 272.65729 274.19351
 275.61804 276.95074 278.28427 279.66501 280.91058 282.17093 283.34100 284.40100
 285.35434 286.20331 286.94495 287.89008
 366.78100 356.34022 345.77744 334.64866 323.05687 311.25609 299.13131 286.93953
 274.65675 262.55897 250.57319 239.87940 230.00662 221.11584 213.30306 206.31028
 200.14950 195.09272 191.67993 189.72715 188.76937 188.83859 189.67881 190.99203
 192.72225 194.82246 197.09068 199.45490 201.90512 204.39034 206.48356 208.33078
 209.96199 211.11221 211.34643 211.57965 211.52187 211.23209 210.87031 210.50552
 210.12774 209.84296 209.65618 209.52540 209.45862 209.79484 210.18605 210.58027
 211.37849 212.56171 213.81693 215.60515 217.53836 219.58658 221.68680 223.77502
 225.84024 227.92946 230.03168 232.14289 234.27711 236.45433 238.71555 241.09077
 243.71699 245.97321 247.98042 249.75064 251.17286 252.30108 253.12830 253.44952
 253.49174 253.27095 252.63617 251.58939 250.20061 248.36683 246.28105 244.11927
 241.91548 239.72470 237.54992 235.39414 233.25936 231.13158 229.16280 227.32501
 225.61323 224.09045 222.72567 221.50289 220.39011 219.35533 218.46454 217.61076
 216.85798 216.04320 215.14642 214.51564 213.97086 214.56383 216.03571 218.31854
 220.72977 222.76733 224.06322 224.82262 225.57918 226.45540 226.64391 225.41838
 225.60684 228.19394 232.54684 237.17500 241.70236 246.06348 250.23299 254.13094
 257.71548 260.96512 263.89456 266.52448 268.89862 270.99832 272.82007 274.40265
 275.81726 277.12259 278.40115 279.75742 280.97409 282.10486 283.25473 284.29642
 285.23334 286.06763 286.79648 287.72528
 366.78100 356.33854 345.77409 334.64363 323.05018 311.24772 299.12127 286.92781
 274.64335 262.54390 250.55644 239.86099 229.98653 221.09407 213.27962 206.28516
 200.12271 195.06425 191.64980 189.69534 188.73588 188.80343 189.64197 190.95352
 192.68206 194.78061 197.04715 199.40969 201.85824 204.34178 206.43333 208.27887
 209.90841 211.05696 211.28950 211.52105 211.46159 211.17014 210.80668 210.44022
 210.06077 209.77431 209.58586 209.45340 209.38495 209.71949 210.10903 210.50158
 211.29812 212.47967 213.73321 215.51975 217.45130 219.49784 221.59639 223.68293
 225.74648 227.83402 229.93456 232.04411 234.17665 236.35220 238.61174 240.98529
 243.60983 245.86437 247.86992 249.63846 251.05901 252.18555 253.01109 253.33064
 253.37118 253.14873 252.51227 251.46382 250.07336 248.23790 246.15045 243.98699
 241.78154 239.58908 237.41263 235.25517 233.11871 230.98926 229.01880 227.17935
 225.46589 223.94143 222.57498 221.35052 220.23607 219.19961 218.30716 217.45170
 216.69724 215.88079 214.98233 214.34988 213.80342 214.49271 216.16330 218.36932
 220.56447 222.62381 224.10048 224.95575 225.70972 226.51419 226.71590 225.18068
 225.34906 228.00996 232.43260 237.08124 241.62773 246.01218 250.22566 254.17812
 257.82724 261.14224 264.10495 266.73318 269.09286 271.21127 273.04642 274.62665
 276.01575 277.27783 278.49960 279.78967 280.97928 282.05115 283.10107 284.12939
 285.05423 285.87781 286.59726 287.51413
 366.78100 356.33736 345.77171 334.64007 323.04542 311.24178 299.11414 286.91949
 274.63385 262.53320 250.54456 239.84792 229.97227 221.07863 213.26298 206.26734
 200.10370 195.04405 191.62841 189.67276 188.71212 188.77848 189.61583 190.92619
 192.65354 194.75090 197.01626 199.37761 201.82497 204.30732 206.39768 208.24204
 209.87039 211.01775 211.24910 211.47946 211.41882 211.12617 210.76153 210.39388
 210.01324 209.72560 209.53595 209.40231 209.33266 209.66602 210.05438 210.44573
 211.24109 212.42144 213.67380 215.45916 217.38951 219.43487 221.53222 223.61758
 225.67994 227.76629 229.86565 231.97400 234.10536 236.27972 238.53807 240.91043
 243.53378 245.78714 247.79150 249.55885 250.97821 252.10356 252.92792 253.24628
 253.28563 253.06199 252.42434 251.37470 249.98306 248.14641 246.05777 243.89312
 241.68648 239.49284 237.31519 235.15655 233.01890 230.88826 228.91662 227.07597
 225.36133 223.83568 222.46804 221.24240 220.12675 219.08911 218.19546 217.33882
 216.58318 215.76553 214.86589 214.23224 213.68460 214.43816 216.25453 218.51912
 220.36087 222.45720 224.18384 225.02888 225.79214 226.60480 226.90376 225.28917
 225.21533 227.86176 232.29744 236.89214 241.43114 245.83522 250.09137 254.10262
 257.82114 261.21481 264.24933 266.92239 269.30508 271.45432 273.32947 274.90561
 276.25961 277.47394 278.61951 279.89011 281.07645 282.14923 283.17987 284.22595
 285.16678 286.00461 286.73651 287.66925
 366.78100 356.33937 345.77573 334.64610 323.05347 311.25183 299.12620 286.93357
 274.64993 262.55130 250.56467 239.87003 229.99640 221.10477 213.29114 206.29750
 200.13587 195.07824 191.66460 189.71097 188.75234 188.82070 189.66007 190.97244
 192.70180 194.80117 197.06854 199.43190 201.88127 204.36564 206.45800 208.30437
 209.93474 211.08410 211.31747 211.54984 211.49121 211.20057 210.83794 210.47231
 210.09367 209.80804 209.62041 209.48877 209.42114 209.75651 210.14687 210.54024
 211.33761 212.51997 213.77434 215.56171 217.49407 219.54144 221.64081 223.72817
 225.79254 227.88091 229.98228 232.09264 234.22601 236.40238 238.66274 241.03711
 243.66248 245.91784 247.92421 249.69358 251.11494 252.24231 253.06868 253.38904
 253.43041 253.20878 252.57314 251.52551 250.13588 248.30124 246.21461 244.05198
 241.84734 239.65571 237.48008 235.32345 233.18781 231.05918 229.08955 227.25091
 225.53828 224.01465 222.64901 221.42538 220.31175 219.27611 218.38448 217.52985
 216.77621 215.96058 215.06295 214.43131 213.88568 214.54543 216.13141 218.67317
 220.46947 222.36208 224.11742 224.96562 225.68956 226.54224 227.10310 225.65082
 225.47380 227.90067 232.21103 236.73012 241.24599 245.64748 249.91994 253.95619
 257.70633 261.14093 264.22610 266.95111 269.38708 271.59848 273.54019 275.18555
 276.57526 277.78091 278.86462 280.02380 281.19141 282.25281 283.24408 284.18860
 285.11530 285.94049 286.66138 287.58008
 366.78100 356.34186 345.78072 334.65358 323.06344 311.26430 299.14115 286.95101
 274.66987 262.57373 250.58959 239.89745 230.02631 221.13717 213.32603 206.33489
 200.17574 195.12060 191.70946 189.75832 188.80218 188.87304 189.71490 191.02976
 192.76162 194.86348 197.13333 199.49919 201.95105 204.43791 206.53277 208.38163
 210.01449 211.16635 211.40221 211.63707 211.58093 211.29278 210.93264 210.56950
 210.19336 209.91022 209.72508 209.59594 209.53080 209.86866 210.26152 210.65737
 211.45723 212.64209 213.89895 215.68881 217.62367 219.67353 221.77539 223.86525
 225.93211 228.02296 230.12682 232.23968 234.37554 236.55440 238.81726 241.19412
 243.82198 246.07984 248.08870 249.86055 251.28441 252.41427 253.24313 253.56599
 253.60985 253.39071 252.75757 251.71243 250.32529 248.49315 246.40900 244.24886
 242.04672 239.85758 237.68444 235.53030 233.39716 231.27102 229.30388 227.46774
 225.75759 224.23645 222.87331 221.65217 220.54103 219.50789 218.61875 217.76661
 217.01547 216.20233 215.30718 214.67804 214.13490 214.69168 216.00714 218.63000
 220.79919 222.49821 223.99413 224.84865 225.52655 226.37418 227.07057 225.94643
 225.77180 228.06485 232.19832 236.67976 241.17046 245.57138 249.84740 253.89824
 257.66647 261.11200 264.19974 266.91309 269.34338 271.56851 273.53079 275.21320
 276.67569 277.95215 279.08652 280.17169 281.28351 282.33112 283.29395 284.18442
 285.00562 285.79169 286.51151 287.42883
 366.78100 356.34286 345.78272 334.65658 323.06744 311.26930 299.14717 286.95803
 274.67789 262.58275 250.59961 239.90847 230.03833 221.15019 213.34005 206.34991
 200.19177 195.13764 191.72750 189.77736 188.82222 188.89408 189.73694 191.05280
 192.78566 194.88852 197.15938 199.52624 201.97911 204.46697 206.56283 208.41269
 210.04655 211.19941 211.43627 211.67213 211.61699 211.32985 210.97072 210.60858
 210.23344 209.95130 209.76716 209.63902 209.57488 209.91374 210.30760 210.70446
 211.50532 212.69119 213.94905 215.73991 217.67577 219.72663 221.82949 223.92035
 225.98821 228.08007 230.18493 232.29879 234.43566 236.61552 238.87938 241.25724
 243.88610 246.14496 248.15482 249.92768 251.35254 252.48340 253.31326 253.63713
 253.68199 253.46385 252.83171 251.78757 250.40143 248.57029 246.48715 244.32801
 242.12687 239.93873 237.76660 235.61346 233.48132 231.35618 229.39004 227.55490
 225.84576 224.32562 222.96348 221.74334 220.63320 219.60107 218.71293 217.86179
 217.11165 216.29951 215.40537 214.77723 214.23509 214.76573 216.01941 218.54703
 220.93147 222.62975 223.96074 224.76201 225.39435 226.25291 227.00957 226.08310
 225.87410 228.12975 232.19179 236.67285 241.15332 245.55840 249.83455 253.89232
 257.67252 261.13306 264.23013 266.92957 269.34735 271.57736 273.51431 275.15417
 276.60226 277.90903 279.09167 280.21014 281.33310 282.38043 283.34143 284.22345
 285.03308 285.77243 286.45435 287.35300
 366.78100 356.34253 345.78207 334.65560 323.06614 311.26767 299.14520 286.95574
 274.67527 262.57980 250.59634 239.90487 230.03441 221.14594 213.33547 206.34501
 200.18654 195.13207 191.72161 189.77114 188.81568 188.88721 189.72974 191.04528
 192.77781 194.88034 197.15088 199.51741 201.96995 204.45748 206.55301 208.40255
 210.03608 211.18861 211.42515 211.66068 211.60522 211.31775 210.95828 210.59582
 210.22035 209.93788 209.75342 209.62495 209.56049 209.89902 210.29255 210.68909
 211.48962 212.67515 213.93269 215.72322 217.65876 219.70929 221.81182 223.90236
 225.96989 228.06143 230.16596 232.27949 234.41603 236.59556 238.85909 241.23663
 243.86516 246.12370 248.13323 249.90576 251.33030 252.46083 253.29036 253.61390
 253.65843 253.43997 252.80750 251.76303 250.37657 248.54510 246.46163 244.30217
 242.10070 239.91224 237.73977 235.58630 233.45384 231.32837 229.36190 227.52644
 225.81697 224.29651 222.93404 221.71357 220.60311 219.57064 218.68217 217.83071
 217.08024 216.26778 215.37331 214.74484 214.20238 214.76608 216.09790 218.50951
 220.90303 222.68544 223.99501 224.72594 225.29083 226.15312 226.96533 226.16565
 225.94159 228.16920 232.19254 236.67166 241.14638 245.55130 249.82553 253.88545
 257.67117 261.13889 264.24194 266.93893 269.36588 271.60938 273.54553 275.17145
 276.59732 277.89001 279.07932 280.21960 281.36655 282.41354 283.37491 284.25436
 285.06390 285.79999 286.46576 287.34897
 366.78100 356.34185 345.78070 334.65355 323.06340 311.26425 299.14110 286.95095
 274.66980 262.57364 250.58949 239.89734 230.02619 221.13704 213.32589 206.33474
 200.17559 195.12044 191.70929 189.75814 188.80199 188.87284 189.71469 191.02954
 192.76139 194.86324 197.13308 199.49893 201.95078 204.43763 206.53248 208.38133
 210.01418 211.16603 211.40188 211.63673 211.58058 211.29243 210.93228 210.56913
 210.19298 209.90983 209.72468 209.59552 209.53037 209.86822 210.26107 210.65692
 211.45677 212.64162 213.89847 215.68832 217.62317 219.67302 221.77487 223.86472
 225.93157 228.02242 230.12627 232.23912 234.37496 236.55381 238.81666 241.19351
 243.82136 246.07921 248.08806 249.85991 251.28376 252.41361 253.24246 253.56531
 253.60916 253.39001 252.75686 251.71171 250.32456 248.49241 246.40825 244.24810
 242.04595 239.85680 237.68365 235.52950 233.39635 231.27020 229.30305 227.46690
 225.75675 224.23560 222.87245 221.65130 220.54015 219.50700 218.61785 217.76569
 217.01454 216.20139 215.30624 214.67709 214.13394 214.74353 216.18379 218.49831
 220.82626 222.69284 224.02478 224.70877 225.21912 226.06564 226.91026 226.20572
 226.01079 228.20360 232.19304 236.67554 241.15254 245.55667 249.83391 253.89949
 257.69086 261.15921 264.25745 266.93558 269.35855 271.61124 273.54984 275.17950
 276.60242 277.88834 279.07684 280.23279 281.38824 282.44061 283.40329 284.28787
 285.10135 285.84839 286.50952 287.37479
 366.78100 356.34177 345.78054 334.65330 323.06307 311.26384 299.14061 286.95038
 274.66914 262.57291 250.58868 239.89645 230.02522 221.13598 213.32475 206.33352
 200.17429 195.11905 191.70782 189.75659 188.80036 188.87113 189.71289 191.02766
 192.75943 194.86120 197.13097 199.49673 201.94850 204.43527 206.53004 208.37881
 210.01157 211.16334 211.39911 211.63388 211.57765 211.28941 210.92918 210.56595
 210.18972 209.90649 209.72125 209.59202 209.52679 209.86456 210.25732 210.65309
 211.45286 212.63763 213.89440 215.68416 217.61893 219.66870 221.77047 223.86024
 225.92700 228.01777 230.12154 232.23431 234.37008 236.54884 238.81161 241.18838
 243.81615 246.07392 248.08268 249.85445 251.27822 252.40799 253.23676 253.55952
 253.60329 253.38406 252.75083 251.70560 250.31836 248.48613 246.40190 244.24167
 242.03943 239.85020 237.67697 235.52274 233.38951 231.26327 229.29604 227.45981
 225.74958 224.22835 222.86511 221.64388 220.53265 219.49942 218.61019 217.75795
 217.00672 216.19349 215.29826 214.66903 214.12579 214.75050 216.22644 218.51175
 220.76889 222.67444 224.02324 224.68176 225.16275 225.99113 226.85175 226.23256
 226.07797 228.24081 232.19852 236.67387 241.15752 245.57025 249.85681 253.93002
 257.72705 261.19504 264.28589 266.94461 269.35431 271.60239 273.53668 275.17004
 276.60037 277.88986 279.08209 280.24808 281.40759 282.46078 283.42749 284.31610
 285.13177 285.87885 286.53879 287.40689
 366.78100 356.34213 345.78126 334.65440 323.06453 311.26566 299.14279 286.95293
 274.67206 262.57619 250.59232 239.90045 230.02959 221.14072 213.32985 206.33898
 200.18011 195.12525 191.71438 189.76351 188.80764 188.87878 189.72091 191.03604
 192.76817 194.87030 197.14044 199.50657 201.95870 204.44583 206.54096 208.39010
 210.02323 211.17536 211.41149 211.64663 211.59076 211.30289 210.94302 210.58015
 210.20429 209.92142 209.73655 209.60768 209.54282 209.88095 210.27408 210.67021
 211.47034 212.65548 213.91261 215.70274 217.63787 219.68800 221.79014 223.88027
 225.94740 228.03853 230.14267 232.25580 234.39193 236.57106 238.83419 241.21133
 243.83946 246.09759 248.10672 249.87885 251.30299 252.43312 253.26225 253.58538
 253.62952 253.41065 252.77778 251.73291 250.34604 248.51418 246.43031 244.27044
 242.06857 239.87971 237.70684 235.55297 233.42010 231.29423 229.32737 227.49150
 225.78163 224.26076 222.89789 221.67703 220.56616 219.53329 218.64442 217.79256
 217.04169 216.22882 215.33395 214.70508 214.16222 214.78056 216.24149 218.52541
 220.75043 222.64565 223.99698 224.63612 225.10040 225.92232 226.79224 226.26184
 226.15567 228.28423 232.20372 236.67439 241.16194 245.58775 249.88304 253.95894
 257.75433 261.21680 264.29855 266.94540 269.34882 271.59174 273.51532 275.14902
 276.58844 277.88672 279.08472 280.26508 281.42819 282.48340 283.45139 284.34335
 285.15808 285.90579 286.56195 287.43298
 366.78100 356.34243 345.78186 334.65529 323.06572 311.26715 299.14458 286.95501
 274.67444 262.57887 250.59530 239.90373 230.03316 221.14459 213.33402 206.34345
 200.18488 195.13031 191.71974 189.76917 188.81360 188.88503 189.72746 191.04289
 192.77532 194.87775 197.14818 199.51461 201.96704 204.45447 206.54990 208.39933
 210.03276 211.18519 211.42162 211.65705 211.60147 211.31390 210.95433 210.59176
 210.21619 209.93362 209.74905 209.62048 209.55591 209.89434 210.28777 210.68420
 211.48463 212.67006 213.92749 215.71792 217.65335 219.70378 221.80621 223.89664
 225.96407 228.05550 230.15993 232.27336 234.40979 236.58922 238.85265 241.23008
 243.85851 246.11694 248.12637 249.89880 251.32323 252.45366 253.28309 253.60652
 253.65095 253.43238 252.79981 251.75524 250.36867 248.53710 246.45353 244.29396
 242.09239 239.90382 237.73125 235.57768 233.44511 231.31954 229.35297 227.51740
 225.80783 224.28726 222.92469 221.70412 220.59355 219.56098 218.67241 217.82084
 217.07027 216.25770 215.36313 214.73456 214.19199 214.80707 216.26025 218.52591
 220.75471 222.61826 223.96483 224.58096 225.01750 225.83592 226.73351 226.29480
 226.23764 228.34015 232.22118 236.68269 241.17644 245.61446 249.91611 253.98805
 257.77518 261.22458 264.29303 266.93365 269.34015 271.58188 273.49637 275.12616
 276.56921 277.87708 279.08505 280.27686 281.44272 282.49863 283.46878 284.35980
 285.17535 285.92181 286.57855 287.44577
 366.78100 356.34263 345.78227 334.65590 323.06654 311.26817 299.14581 286.95644
 274.67608 262.58071 250.59735 239.90598 230.03562 221.14725 213.33689 206.34652
 200.18816 195.13379 191.72343 189.77306 188.81770 188.88933 189.73197 191.04760
 192.78023 194.88287 197.15350 199.52014 201.97277 204.46041 206.55604 208.40568
 210.03931 211.19195 211.42858 211.66422 211.60885 211.32149 210.96212 210.59976
 210.22439 209.94203 209.75766 209.62930 209.56493 209.90357 210.29720 210.69383
 211.49447 212.68010 213.93774 215.72837 217.66401 219.71464 221.81728 223.90791
 225.97555 228.06718 230.17182 232.28545 234.42209 236.60172 238.86536 241.24299
 243.87163 246.13026 248.13990 249.91253 251.33717 252.46780 253.29744 253.62107
 253.66570 253.44734 252.81497 251.77061 250.38424 248.55288 246.46951 244.31015
 242.10878 239.92042 237.74805 235.59469 233.46232 231.33696 229.37059 227.53523
 225.82586 224.30550 222.94313 221.72277 220.61240 219.58004 218.69167 217.84030
 217.08994 216.27757 215.38321 214.75484 214.21248 214.82819 216.28287 218.52138
 220.75739 222.60515 223.93657 224.52257 224.92245 225.71796 226.64046 226.33771
 226.35158 228.40788 232.24220 236.70213 241.20598 245.65532 249.96155 254.02629
 257.79837 261.22809 264.27612 266.91254 269.32574 271.57135 273.48196 275.10660
 276.54688 277.86136 279.08185 280.28372 281.45264 282.50745 283.47763 284.36960
 285.18472 285.92883 286.58560 287.45197
 366.78100 356.34281 345.78262 334.65643 323.06724 311.26905 299.14686 286.95767
 274.67747 262.58228 250.59909 239.90790 230.03771 221.14952 213.33933 206.34914
 200.19095 195.13676 191.72657 189.77638 188.82119 188.89300 189.73581 191.05161
 192.78442 194.88723 197.15804 199.52485 201.97766 204.46547 206.56128 208.41109
 210.04490 211.19771 211.43452 211.67033 211.61514 211.32795 210.96876 210.60656
 210.23137 209.94918 209.76499 209.63680 209.57261 209.91142 210.30523 210.70204
 211.50285 212.68866 213.94647 215.73728 217.67309 219.72390 221.82670 223.91751
 225.98532 228.07713 230.18194 232.29575 234.43256 236.61237 238.87618 241.25399
 243.88280 246.14161 248.15142 249.92423 251.34904 252.47984 253.30965 253.63346
 253.67827 253.46008 252.82789 251.78370 250.39751 248.56632 246.48313 244.32394
 242.12275 239.93456 237.76237 235.60918 233.47699 231.35179 229.38560 227.55041
 225.84122 224.32103 222.95884 221.73865 220.62846 219.59627 218.70808 217.85689
 217.10670 216.29451 215.40032 214.77213 214.22993 214.84818 216.30885 218.51227
 220.74921 222.61859 223.91925 224.44791 224.79741 225.57971 226.54601 226.34973
 226.44197 228.49863 232.28233 236.73073 241.24731 245.71002 250.02155 254.07608
 257.82828 261.22986 264.25079 266.88229 269.30484 271.55670 273.46707 275.08939
 276.52216 277.83972 279.07336 280.28400 281.45316 282.50940 283.48050 284.37146
 285.18539 285.92807 286.58298 287.44693
 366.78100 356.34282 345.78265 334.65647 323.06729 311.26912 299.14694 286.95776
 274.67759 262.58241 250.59923 239.90806 230.03788 221.14970 213.33953 206.34935
 200.19117 195.13700 191.72682 189.77664 188.82147 188.89329 189.73611 191.05194
 192.78476 194.88758 197.15841 199.52523 201.97805 204.46588 206.56170 208.41152
 210.04535 211.19817 211.43500 211.67082 211.61564 211.32847 210.96929 210.60711
 210.23194 209.94976 209.76558 209.63741 209.57323 209.91205 210.30588 210.70270
 211.50352 212.68935 213.94717 215.73799 217.67382 219.72464 221.82746 223.91829
 225.98611 228.07793 230.18276 232.29658 234.43340 236.61323 238.87705 241.25487
 243.88370 246.14252 248.15234 249.92517 251.34999 252.48081 253.31064 253.63446
 253.67928 253.46111 252.82893 251.78475 250.39858 248.56740 246.48422 244.32505
 242.12387 239.93569 237.76352 235.61034 233.47816 231.35299 229.38681 227.55163
 225.84246 224.32228 222.96010 221.73993 220.62975 219.59757 218.70940 217.85822
 217.10804 216.29587 215.40169 214.77352 214.23134 214.86058 216.34721 218.49278
 220.73036 222.65231 223.92995 224.38339 224.64738 225.37337 226.40034 226.44176
 226.61288 228.56934 232.31123 236.76604 241.29938 245.77811 250.09486 254.13589
 257.86383 261.23224 264.22214 266.84851 269.28046 271.53741 273.45081 275.07449
 276.49924 277.81714 279.05875 280.27963 281.45126 282.50784 283.47885 284.36807
 285.18271 285.92245 286.57648 287.43573
 366.78100 356.34266 345.78231 334.65597 323.06663 311.26828 299.14594 286.95659
 274.67625 262.58091 250.59756 239.90622 230.03588 221.14753 213.33719 206.34684
 200.18850 195.13416 191.72381 189.77347 188.81813 188.88978 189.73244 191.04809
 192.78075 194.88341 197.15406 199.52072 201.97338 204.46103 206.55669 208.40635
 210.04000 211.19266 211.42931 211.66497 211.60963 211.32228 210.96294 210.60060
 210.22525 209.94291 209.75856 209.63022 209.56588 209.90453 210.29819 210.69485
 211.49550 212.68116 213.93882 215.72947 217.66513 219.71578 221.81844 223.90910
 225.97675 228.06841 230.17307 232.28672 234.42338 236.60303 238.86669 241.24435
 243.87300 246.13166 248.14132 249.91397 251.33863 252.46928 253.29894 253.62260
 253.66725 253.44891 252.81657 251.77222 250.38588 248.55454 246.47119 244.31185
 242.11050 239.92216 237.74982 235.59647 233.46413 231.33879 229.37244 227.53710
 225.82775 224.30741 222.94507 221.72472 220.61438 219.58204 218.69369 217.84235
 217.09200 216.27966 215.38532 214.75697 214.21463 214.86349 216.39648 218.46736
 220.70325 222.67934 223.96202 224.35677 224.52003 225.15219 226.21292 226.49983
 226.77122 228.64076 232.34401 236.80942 241.35947 245.85605 250.17955 254.20592
 257.90451 261.23743 264.19565 266.81775 269.25806 271.51852 273.43475 275.06152
 276.48001 277.79724 279.04343 280.27469 281.44696 282.50336 283.47519 284.36288
 285.17511 285.91293 286.56198 287.42258
 366.78100 356.34250 345.78201 334.65551 323.06601 311.26751 299.14502 286.95552
 274.67502 262.57953 250.59603 239.90453 230.03404 221.14554 213.33504 206.34454
 200.18605 195.13155 191.72105 189.77056 188.81506 188.88656 189.72906 191.04457
 192.77707 194.87957 197.15008 199.51658 201.96908 204.45659 206.55209 208.40159
 210.03509 211.18760 211.42410 211.65960 211.60411 211.31661 210.95711 210.59462
 210.21912 209.93662 209.75212 209.62363 209.55913 209.89763 210.29114 210.68764
 211.48814 212.67364 213.93115 215.72165 217.65715 219.70766 221.81016 223.90066
 225.96817 228.05967 230.16417 232.27767 234.41418 236.59368 238.85718 241.23469
 243.86319 246.12169 248.13119 249.90370 251.32820 252.45870 253.28821 253.61171
 253.65621 253.43772 252.80522 251.76072 250.37422 248.54273 246.45923 244.29973
 242.09824 239.90974 237.73724 235.58374 233.45125 231.32575 229.35925 227.52376
 225.81426 224.29376 222.93127 221.71077 220.60027 219.56777 218.67928 217.82778
 217.07728 216.26479 215.37029 214.74179 214.19930 214.86644 216.44264 218.44887
 220.67036 222.68794 223.99173 224.34819 224.41797 224.94853 226.01625 226.50508
 226.88675 228.71605 232.38489 236.85840 241.42851 245.94356 250.27351 254.28467
 257.95230 261.24771 264.17490 266.79489 269.24213 271.50537 273.42404 275.05402
 276.46741 277.78284 279.02563 280.27017 281.44537 282.50238 283.47205 284.35904
 285.16818 285.90424 286.55286 287.40778
 366.78100 356.34251 345.78202 334.65553 323.06604 311.26756 299.14507 286.95558
 274.67509 262.57960 250.59611 239.90462 230.03413 221.14564 213.33515 206.34467
 200.18618 195.13169 191.72120 189.77071 188.81522 188.88673 189.72924 191.04475
 192.77726 194.87978 197.15029 199.51680 201.96931 204.45682 206.55233 208.40184
 210.03535 211.18786 211.42438 211.65989 211.60440 211.31691 210.95742 210.59493
 210.21944 209.93695 209.75246 209.62397 209.55949 209.89800 210.29151 210.68802
 211.48853 212.67404 213.93155 215.72206 217.65757 219.70808 221.81060 223.90111
 225.96862 228.06013 230.16464 232.27815 234.41466 236.59417 238.85768 241.23520
 243.86371 246.12222 248.13173 249.90424 251.32875 252.45926 253.28877 253.61228
 253.65679 253.43831 252.80582 251.76133 250.37484 248.54335 246.45986 244.30037
 242.09888 239.91039 237.73791 235.58442 233.45193 231.32644 229.35995 227.52446
 225.81497 224.29448 222.93199 221.71150 220.60102 219.56853 218.68004 217.82855
 217.07806 216.26557 215.37108 214.74259 214.20010 214.87758 216.47820 218.44220
 220.63130 222.68729 224.01260 224.33585 224.32471 224.76338 225.82515 226.46950
 226.96239 228.79317 232.43857 236.91502 241.50650 246.04102 250.37540 254.36966
 258.00436 261.26163 264.15930 266.77896 269.23312 271.49826 273.41992 275.05222
 276.46075 277.77286 279.01395 280.27078 281.44489 282.49936 283.46918 284.35513
 285.16190 285.89697 286.54285 287.39600
 366.78100 356.34264 345.78227 334.65591 323.06654 311.26818 299.14582 286.95645
 274.67609 262.58072 250.59736 239.90599 230.03563 221.14727 213.33690 206.34654
 200.18817 195.13381 191.72345 189.77308 188.81772 188.88935 189.73199 191.04762
 192.78026 194.88290 197.15353 199.52017 201.97280 204.46044 206.55608 208.40571
 210.03935 211.19198 211.42862 211.66425 211.60889 211.32153 210.96216 210.59980
 210.22443 209.94207 209.75771 209.62934 209.56498 209.90361 210.29725 210.69389
 211.49452 212.68016 213.93779 215.72843 217.66406 219.71470 221.81734 223.90797
 225.97561 228.06724 230.17188 232.28552 234.42215 236.60179 238.86542 241.24306
 243.87169 246.13033 248.13997 249.91260 251.33724 252.46787 253.29751 253.62115
 253.66578 253.44742 252.81505 251.77069 250.38432 248.55296 246.46960 244.31023
 242.10887 239.92050 237.74814 235.59478 233.46241 231.33705 229.37068 227.53532
 225.82596 224.30559 222.94323 221.72286 220.61250 219.58013 218.69177 217.84041
 217.09004 216.27768 215.38331 214.75495 214.21259 214.89484 216.50674 218.44501
 220.58519 222.68132 224.02698 224.31554 224.23215 224.58954 225.64120 226.40639
 227.00783 228.86964 232.50078 236.98024 241.59296 246.14540 250.48239 254.45810
 258.05969 261.28067 264.15121 266.77045 269.23199 271.49881 273.42386 275.05710
 276.45984 277.76767 278.96982 280.27896 281.45963 282.51260 283.47717 284.36063
 285.16428 285.89581 286.53848 287.38937
 366.78100 356.34278 345.78256 334.65634 323.06713 311.26891 299.14669 286.95747
 274.67725 262.58203 250.59882 239.90760 230.03738 221.14916 213.33894 206.34872
 200.19051 195.13629 191.72607 189.77585 188.82063 188.89241 189.73519 191.05098
 192.78376 194.88654 197.15732 199.52410 201.97688 204.46467 206.56045 208.41023
 210.04401 211.19679 211.43357 211.66936 211.61414 211.32692 210.96770 210.60548
 210.23026 209.94804 209.76383 209.63561 209.57139 209.91017 210.30395 210.70073
 211.50152 212.68730 213.94508 215.73586 217.67164 219.72242 221.82521 223.91599
 225.98377 228.07555 230.18033 232.29411 234.43089 236.61068 238.87446 241.25224
 243.88102 246.13980 248.14958 249.92237 251.34715 252.47793 253.30771 253.63149
 253.67627 253.45806 252.82584 251.78162 250.39540 248.56418 246.48096 244.32174
 242.12053 239.93231 237.76009 235.60687 233.47465 231.34943 229.38322 227.54800
 225.83878 224.31856 222.95634 221.73612 220.62590 219.59369 218.70547 217.85425
 217.10403 216.29181 215.39759 214.76938 214.22716 214.91321 216.53407 218.45226
 220.53845 222.66653 224.03268 224.29108 224.14279 224.42494 225.46346 226.32532
 227.03134 228.94315 232.56602 237.05200 241.68571 246.25403 250.59210 254.54921
 258.11844 261.30563 264.15146 266.77176 269.23981 271.50641 273.43311 275.06732
 276.46454 277.76617 278.96387 280.28311 281.46924 282.52081 283.48654 284.36981
 285.17126 285.89795 286.54120 287.38785
 366.78100 356.34292 345.78285 334.65677 323.06770 311.26962 299.14754 286.95847
 274.67839 262.58332 250.60024 239.90916 230.03909 221.15101 213.34094 206.35086
 200.19278 195.13871 191.72863 189.77855 188.82348 188.89540 189.73833 191.05425
 192.78717 194.89010 197.16102 199.52795 201.98087 204.46879 206.56472 208.41464
 210.04857 211.20149 211.43841 211.67434 211.61926 211.33219 210.97311 210.61103
 210.23596 209.95388 209.76981 209.64173 209.57765 209.91658 210.31050 210.70743
 211.50835 212.69427 213.95220 215.74312 217.67904 219.72997 221.83289 223.92382
 225.99174 228.08366 230.18859 232.30251 234.43944 236.61936 238.88328 241.26121
 243.89013 246.14906 248.15898 249.93190 251.35683 252.48775 253.31768 253.64160
 253.68652 253.46845 252.83637 251.79230 250.40622 248.57514 246.49207 244.33299
 242.13192 239.94384 237.77176 235.61869 233.48661 231.36153 229.39546 227.56038
 225.85131 224.33123 222.96915 221.74908 220.63900 219.60693 218.71885 217.86777
 217.11770 216.30562 215.41155 214.78347 214.24139 214.93138 216.56158 218.45973
 220.49857 222.64058 224.02635 224.26030 224.05530 224.26949 225.29262 226.23450
 227.03928 229.01062 232.63416 237.13036 241.78349 246.36386 250.70082 254.63948
 258.17838 261.33548 264.16147 266.78403 269.25702 271.52206 273.44778 275.08093
 276.47278 277.76901 278.97290 280.29483 281.48190 282.53580 283.50247 284.38388
 285.18619 285.91144 286.55194 287.39832
 366.78100 356.34310 345.78320 334.65730 323.06840 311.27050 299.14860 286.95971
 274.67981 262.58491 250.60201 239.91111 230.04121 221.15331 213.34341 206.35351
 200.19561 195.14171 191.73181 189.78192 188.82702 188.89912 189.74222 191.05832
 192.79142 194.89452 197.16562 199.53272 201.98582 204.47392 206.57002 208.42012
 210.05423 211.20733 211.44443 211.68053 211.62563 211.33873 210.97983 210.61793
 210.24303 209.96113 209.77723 209.64933 209.58543 209.92454 210.31864 210.71574
 211.51684 212.70294 213.96104 215.75214 217.68824 219.73934 221.84244 223.93354
 226.00164 228.09375 230.19885 232.31295 234.45005 236.63015 238.89425 241.27235
 243.90145 246.16055 248.17065 249.94375 251.36885 252.49995 253.33006 253.65416
 253.69926 253.48136 252.84946 251.80556 250.41966 248.58876 246.50586 244.34696
 242.14606 239.95816 237.78626 235.63337 233.50147 231.37657 229.41067 227.57577
 225.86687 224.34697 222.98507 221.76517 220.65527 219.62337 218.73547 217.88458
 217.13468 216.32278 215.42888 214.80098 214.25908 214.95213 216.58955 218.46510
 220.46535 222.60458 224.00807 224.22131 223.96625 224.11951 225.12810 226.14308
 227.04048 229.07248 232.70450 237.21391 241.88521 246.47392 250.80684 254.72693
 258.23798 261.36938 264.18188 266.80814 269.28378 271.54617 273.46835 275.09851
 276.48495 277.77939 278.99255 280.31747 281.50357 282.55875 283.52612 284.40698
 285.20776 285.93344 286.57327 287.41769
 366.78100 356.34331 345.78362 334.65793 323.06924 311.27155 299.14986 286.96117
 274.68148 262.58679 250.60410 239.91341 230.04373 221.15604 213.34635 206.35666
 200.19897 195.14528 191.73559 189.78590 188.83121 188.90352 189.74683 191.06314
 192.79645 194.89976 197.17107 199.53838 201.99169 204.48000 206.57631 208.42662
 210.06093 211.21424 211.45156 211.68787 211.63318 211.34649 210.98780 210.62611
 210.25142 209.96973 209.78604 209.65835 209.59466 209.93397 210.32828 210.72559
 211.52690 212.71321 213.97152 215.76283 217.69914 219.75045 221.85376 223.94507
 226.01338 228.10570 230.21101 232.32532 234.46263 236.64294 238.90725 241.28556
 243.91487 246.17418 248.18449 249.95780 251.38311 252.51442 253.34473 253.66904
 253.71435 253.49666 252.86497 251.82128 250.43559 248.60490 246.52221 244.36353
 242.16284 239.97515 237.80346 235.65077 233.51908 231.39439 229.42870 227.59401
 225.88532 224.36563 223.00394 221.78425 220.67456 219.64287 218.75518 217.90449
 217.15480 216.34311 215.44942 214.82173 214.28004 214.97578 216.61952 218.46759
 220.43280 222.56180 223.98064 224.17477 223.87570 223.97525 224.96729 226.04736
 227.03636 229.13269 232.77954 237.30515 241.99173 246.58382 250.90857 254.81001
 258.29431 261.40585 264.21085 266.84180 269.31912 271.57599 273.49234 275.11731
 276.50116 277.79678 279.02457 280.35193 281.53903 282.59418 283.56082 284.44342
 285.24542 285.96707 286.60962 287.45203
 366.78100 356.34355 345.78411 334.65866 323.07022 311.27277 299.15133 286.96288
 274.68344 262.58899 250.60655 239.91610 230.04666 221.15921 213.34976 206.36032
 200.20287 195.14943 191.73998 189.79054 188.83609 188.90865 189.75220 191.06876
 192.80231 194.90586 197.17742 199.54497 201.99853 204.48708 206.58364 208.43419
 210.06875 211.22230 211.45986 211.69641 211.64197 211.35552 210.99707 210.63563
 210.26118 209.97974 209.79629 209.66885 209.60540 209.94496 210.33951 210.73707
 211.53862 212.72517 213.98373 215.77528 217.71184 219.76339 221.86695 223.95850
 226.02706 228.11961 230.22517 232.33972 234.47728 236.65783 238.92238 241.30094
 243.93049 246.19005 248.20060 249.97416 251.39971 252.53127 253.36182 253.68638
 253.73193 253.51448 252.88304 251.83959 250.45415 248.62370 246.54126 244.38281
 242.18237 239.99492 237.82348 235.67103 233.53959 231.41514 229.44969 227.61525
 225.90680 224.38736 223.02591 221.80647 220.69702 219.66558 218.77813 217.92769
 217.17824 216.36679 215.47335 214.84590 214.30446 215.00174 216.64912 218.46899
 220.39702 222.51285 223.94788 224.12549 223.78491 223.83351 224.81003 225.93991
 227.02182 229.19424 232.86259 237.40488 242.10115 246.68988 251.00282 254.88605
 258.34680 261.44418 264.24796 266.88449 269.36020 271.60858 273.51447 275.13293
 276.51782 277.81741 279.07047 280.40274 281.59073 282.64612 283.61319 284.49527
 285.29718 286.02115 286.66208 287.50562
 366.78100 356.34385 345.78470 334.65955 323.07140 311.27426 299.15311 286.96496
 274.68581 262.59166 250.60951 239.91936 230.05021 221.16306 213.35391 206.36477
 200.20762 195.15447 191.74532 189.79617 188.84202 188.91487 189.75872 191.07557
 192.80943 194.91328 197.18513 199.55298 202.00683 204.49568 206.59253 208.44338
 210.07823 211.23209 211.46994 211.70679 211.65264 211.36649 211.00834 210.64719
 210.27304 209.99189 209.80874 209.68160 209.61845 209.95830 210.35315 210.75100
 211.55285 212.73970 213.99855 215.79040 217.72726 219.77911 221.88296 223.97481
 226.04366 228.13651 230.24236 232.35721 234.49506 236.67591 238.94077 241.31962
 243.94947 246.20932 248.22017 249.99402 251.41987 252.55172 253.38257 253.70743
 253.75328 253.53613 252.90498 251.86183 250.47668 248.64653 246.56438 244.40623
 242.20609 240.01894 237.84779 235.69564 233.56449 231.44034 229.47519 227.64104
 225.93289 224.41374 223.05260 221.83345 220.72430 219.69315 218.80600 217.95585
 217.20670 216.39555 215.50240 214.87526 214.33411 215.03027 216.67503 218.47240
 220.36139 222.45750 223.90611 224.07455 223.70078 223.69885 224.65173 225.82095
 226.99554 229.25664 232.95598 237.51407 242.21255 246.79004 251.08780 254.95425
 258.39554 261.48352 264.29294 266.93460 269.40408 271.64011 273.53140 275.14047
 276.53229 277.84692 279.13037 280.46732 281.65546 282.71249 283.68048 284.56210
 285.36511 286.08890 286.73029 287.57272
 366.78100 356.34414 345.78528 334.66042 323.07255 311.27569 299.15483 286.96697
 274.68811 262.59425 250.61239 239.92252 230.05366 221.16680 213.35794 206.36908
 200.21222 195.15936 191.75049 189.80163 188.84777 188.92091 189.76505 191.08219
 192.81632 194.92046 197.19260 199.56074 202.01488 204.50402 206.60116 208.45229
 210.08743 211.24157 211.47971 211.71685 211.66299 211.37713 211.01926 210.65840
 210.28454 210.00368 209.82082 209.69396 209.63110 209.97123 210.36637 210.76451
 211.56665 212.75379 214.01293 215.80507 217.74220 219.79434 221.89848 223.99062
 226.05976 228.15290 230.25904 232.37417 234.51231 236.69345 238.95859 241.33773
 243.96787 246.22801 248.23914 250.01328 251.43942 252.57156 253.40270 253.72784
 253.77397 253.55711 252.92625 251.88339 250.49853 248.66867 246.58681 244.42894
 242.22908 240.04222 237.87136 235.71950 233.58864 231.46478 229.49991 227.66605
 225.95819 224.43933 223.07847 221.85961 220.75075 219.71988 218.83302 217.98316
 217.23430 216.42344 215.53058 214.90372 214.36285 215.05815 216.70090 218.47514
 220.32707 222.40367 223.85625 224.01439 223.61389 223.56807 224.50130 225.69745
 226.95657 229.31830 233.05576 237.62671 242.32011 246.88240 251.16475 255.01718
 258.44342 261.52649 264.34378 266.98874 269.44861 271.66711 273.53970 275.13861
 276.54208 277.86871 279.20258 280.54916 281.73792 282.79599 283.76364 284.64725
 285.44949 286.17432 286.81122 287.65976
 366.78100 356.34444 345.78587 334.66131 323.07375 311.27719 299.15662 286.96906
 274.69050 262.59694 250.61537 239.92581 230.05725 221.17068 213.36212 206.37356
 200.21700 195.16443 191.75587 189.80731 188.85375 188.92718 189.77162 191.08906
 192.82350 194.92793 197.20037 199.56881 202.02324 204.51268 206.61012 208.46156
 210.09699 211.25143 211.48987 211.72731 211.67374 211.38818 211.03062 210.67005
 210.29649 210.01593 209.83337 209.70680 209.64424 209.98468 210.38012 210.77855
 211.58099 212.76843 214.02787 215.82030 217.75774 219.81018 221.91461 224.00705
 226.07649 228.16993 230.27636 232.39180 234.53024 236.71168 238.97711 241.35655
 243.98699 246.24742 248.25886 250.03330 251.45974 252.59217 253.42361 253.74905
 253.79549 253.57892 252.94836 251.90580 250.52124 248.69167 246.61011 244.45255
 242.25298 240.06642 237.89586 235.74430 233.61373 231.49017 229.52561 227.69205
 225.98448 224.46592 223.10536 221.88679 220.77823 219.74767 218.86111 218.01154
 217.26298 216.45242 215.55986 214.93329 214.39273 215.08652 216.72565 218.47916
 220.29062 222.34532 223.80444 223.96074 223.53732 223.43445 224.33185 225.59695
 226.93057 229.36325 233.15485 237.74380 242.42834 246.97244 251.23973 255.07999
 258.49240 261.57224 264.39981 267.04651 269.48959 271.68549 273.53442 275.12387
 276.54880 277.90991 279.28369 280.63541 281.82672 282.88544 283.85428 284.73785
 285.53922 286.26608 286.90689 287.75150
 366.78100 356.34490 345.78681 334.66271 323.07562 311.27952 299.15943 286.97233
 274.69424 262.60114 250.62004 239.93095 230.06285 221.17676 213.36866 206.38057
 200.22447 195.17237 191.76428 189.81618 188.86309 188.93699 189.78190 191.09980
 192.83471 194.93961 197.21251 199.58142 202.03632 204.52623 206.62413 208.47604
 210.11194 211.26684 211.50575 211.74365 211.69056 211.40546 211.04837 210.68827
 210.31518 210.03508 209.85298 209.72689 209.66479 210.00570 210.40160 210.80051
 211.60341 212.79131 214.05122 215.84412 217.78203 219.83493 221.93984 224.03274
 226.10265 228.19655 230.30345 232.41936 234.55826 236.74017 239.00607 241.38598
 244.01688 246.27778 248.28969 250.06459 251.49150 252.62440 253.45631 253.78221
 253.82912 253.61302 252.98292 251.94083 250.55673 248.72764 246.64654 244.48945
 242.29035 240.10425 237.93416 235.78306 233.65297 231.52987 229.56578 227.73268
 226.02559 224.50749 223.14739 221.92930 220.82120 219.79111 218.90501 218.05592
 217.30782 216.49772 215.60563 214.97953 214.43944 215.12296 216.73785 218.48871
 220.25946 222.27193 223.73502 223.91055 223.48741 223.33253 224.15953 225.40923
 226.86417 229.44061 233.26869 237.86412 242.53784 247.06248 251.31400 255.14194
 258.54025 261.61743 264.45557 267.10013 269.52444 271.69427 273.51788 275.09738
 276.54483 277.89749 279.38345 280.74881 281.93808 282.99435 283.96271 284.84573
 285.64655 286.37292 287.01105 287.86053
 366.78100 356.34555 345.78810 334.66464 323.07819 311.28274 299.16329 286.97684
 274.69939 262.60693 250.62648 239.93803 230.07058 221.18513 213.37768 206.39022
 200.23477 195.18332 191.77587 189.82842 188.87597 188.95051 189.79606 191.11461
 192.85016 194.95571 197.22926 199.59880 202.05435 204.54490 206.64345 208.49600
 210.13255 211.28809 211.52764 211.76619 211.71374 211.42929 211.07284 210.71338
 210.34093 210.06148 209.88003 209.75458 209.69313 210.03467 210.43122 210.83077
 211.63432 212.82287 214.08341 215.87696 217.81551 219.86906 221.97461 224.06816
 226.13870 228.23325 230.34080 232.45735 234.59690 236.77945 239.04599 241.42654
 244.05809 246.31964 248.33219 250.10774 251.53528 252.66883 253.50138 253.82793
 253.87548 253.66003 253.03057 251.98912 250.60567 248.77722 246.69677 244.54032
 242.34186 240.15641 237.98696 235.83651 233.70706 231.58461 229.62115 227.78870
 226.08225 224.56480 223.20535 221.98790 220.88044 219.85099 218.96554 218.11709
 217.36964 216.56019 215.66873 215.04328 214.50383 215.16762 216.73586 218.49834
 220.24243 222.19673 223.64204 223.83965 223.43861 223.25194 224.00224 225.21509
 226.78716 229.50859 233.38091 237.98764 242.64891 247.15216 251.38808 255.20317
 258.58765 261.66269 264.51141 267.15057 269.55255 271.69003 273.48679 275.06494
 276.54062 277.94980 279.46576 280.84088 282.03531 283.09607 284.06647 284.95026
 285.75183 286.47720 287.11618 287.95886
 366.78100 356.34618 345.78936 334.66655 323.08073 311.28591 299.16709 286.98128
 274.70446 262.61264 250.63282 239.94501 230.07819 221.19337 213.38655 206.39974
 200.24492 195.19410 191.78728 189.84047 188.88865 188.96383 189.81001 191.12920
 192.86538 194.97156 197.24574 199.61593 202.07211 204.56329 206.66247 208.51566
 210.15284 211.30902 211.54920 211.78839 211.73657 211.45275 211.09693 210.73812
 210.36630 210.08748 209.90666 209.78185 209.72103 210.06321 210.46039 210.86058
 211.66476 212.85394 214.11512 215.90931 217.84849 219.90267 222.00885 224.10304
 226.17422 228.26940 230.37758 232.49476 234.63495 236.81813 239.08531 241.46649
 244.09868 246.36086 248.37404 250.15022 251.57841 252.71259 253.54577 253.87295
 253.92114 253.70632 253.07750 252.03668 250.65387 248.82605 246.74623 244.59041
 242.39260 240.20778 238.03896 235.88914 233.76033 231.63851 229.67569 227.84387
 226.13806 224.62124 223.26242 222.04560 220.93879 219.90997 219.02515 218.17733
 217.43052 216.62170 215.73088 215.10606 214.56725 215.21059 216.73053 218.50070
 220.23610 222.13663 223.54013 223.74236 223.36797 223.17059 223.85538 225.03432
 226.70726 229.56142 233.49249 238.11839 242.76599 247.24680 251.46674 255.26736
 258.63623 261.70709 264.56403 267.19452 269.57129 271.67432 273.44012 275.00882
 276.51855 278.02682 279.55746 280.93652 282.13461 283.19833 284.16891 285.05334
 285.85562 286.58063 287.21606 288.06607
 366.78100 356.34665 345.79029 334.66794 323.08259 311.28824 299.16988 286.98453
 274.70818 262.61682 250.63747 239.95012 230.08377 221.19941 213.39306 206.40671
 200.25235 195.20200 191.79565 189.84929 188.89794 188.97359 189.82024 191.13988
 192.87653 194.98318 197.25782 199.62847 202.08512 204.57677 206.67641 208.53006
 210.16771 211.32435 211.56500 211.80465 211.75330 211.46994 211.11459 210.75624
 210.38488 210.10653 209.92618 209.80182 209.74147 210.08412 210.48177 210.88241
 211.68706 212.87671 214.13835 215.93300 217.87265 219.92730 222.03394 224.12859
 226.20024 228.29588 230.40453 232.52218 234.66283 236.84647 239.11412 241.49577
 244.12841 246.39106 248.40471 250.18135 251.61000 252.74465 253.57830 253.90594
 253.95459 253.74024 253.11188 252.07153 250.68918 248.86183 246.78247 244.62712
 242.42977 240.24541 238.07706 235.92771 233.79936 231.67800 229.71565 227.88430
 226.17894 224.66259 223.30424 222.08788 220.98153 219.95318 219.06883 218.22147
 217.47512 216.66677 215.77641 215.15206 214.61371 215.24341 216.73112 218.49312
 220.23056 222.09546 223.44600 223.62964 223.27019 223.07230 223.71167 224.87270
 226.62959 229.60709 233.60884 238.25693 242.88768 247.34560 251.54977 255.33603
 258.68802 261.75266 264.61307 267.22903 269.57211 271.63336 273.37717 274.97495
 276.52994 278.09027 279.62921 281.01199 282.21225 283.27618 284.25073 285.13580
 285.93756 286.66269 287.29712 288.14624
 366.78100 356.34699 345.79098 334.66897 323.08396 311.28995 299.17194 286.98692
 274.71091 262.61990 250.64089 239.95388 230.08787 221.20386 213.39785 206.41184
 200.25783 195.20782 191.80181 189.85579 188.90478 188.98077 189.82776 191.14775
 192.88474 194.99173 197.26672 199.63771 202.09470 204.58669 206.68668 208.54066
 210.17865 211.33564 211.57663 211.81662 211.76561 211.48260 211.12759 210.76958
 210.39857 210.12056 209.94055 209.81654 209.75652 210.09951 210.49750 210.89849
 211.70348 212.89347 214.15546 215.95045 217.89044 219.94543 222.05242 224.14741
 226.21939 228.31538 230.42437 232.54236 234.68335 236.86734 239.13533 241.51732
 244.15031 246.41330 248.42729 250.20428 251.63326 252.76825 253.60224 253.93023
 253.97922 253.76521 253.13720 252.09719 250.71518 248.88817 246.80916 244.65415
 242.45713 240.27312 238.10511 235.95610 233.82809 231.70708 229.74507 227.91406
 226.20905 224.69304 223.33503 222.11902 221.01301 219.98499 219.10098 218.25397
 217.50796 216.69995 215.80994 215.18593 214.64792 215.26952 216.73813 218.47643
 220.21579 222.06676 223.37321 223.52061 223.15131 222.94565 223.55641 224.72438
 226.55878 229.65811 233.73466 238.40099 243.01062 247.44415 251.63171 255.40297
 258.73840 261.79651 264.65796 267.25681 269.56610 271.58832 273.30338 274.87561
 276.46606 278.18875 279.74286 281.11642 282.31137 283.37195 284.34247 285.22342
 286.02466 286.74768 287.37842 288.22931
 366.78100 356.34732 345.79164 334.66995 323.08527 311.29159 299.17391 286.98923
 274.71354 262.62286 250.64418 239.95750 230.09182 221.20813 213.40245 206.41677
 200.26309 195.21341 191.80772 189.86204 188.91136 188.98768 189.83500 191.15531
 192.89263 194.99995 197.27527 199.64659 202.10390 204.59622 206.69654 208.55086
 210.18918 211.34649 211.58781 211.82813 211.77745 211.49477 211.14008 210.78240
 210.41172 210.13404 209.95436 209.83067 209.77099 210.11431 210.51263 210.91395
 211.71926 212.90958 214.17190 215.96722 217.90754 219.96285 222.07017 224.16549
 226.23781 228.33413 230.44344 232.56176 234.70308 236.88740 239.15572 241.53803
 244.17135 246.43467 248.44899 250.22631 251.65562 252.79094 253.62526 253.95358
 254.00290 253.78922 253.16153 252.12185 250.74017 248.91349 246.83481 244.68012
 242.48344 240.29976 238.13208 235.98340 233.85571 231.73503 229.77335 227.94267
 226.23799 224.72230 223.36462 222.14894 221.04326 220.01558 219.13189 218.28521
 217.53953 216.73185 215.84217 215.21848 214.68080 215.29495 216.74591 218.45599
 220.19315 222.03555 223.31081 223.42363 223.03436 222.79982 223.38399 224.57002
 226.48308 229.71301 233.87038 238.55193 243.14085 247.55534 251.72948 255.48282
 258.79617 261.83954 264.69351 267.26553 269.52951 271.49695 273.20508 274.88660
 276.45386 278.20810 279.77698 281.15997 282.35999 283.42386 284.39343 285.27567
 286.07327 286.79456 287.42532 288.27496
 366.78100 356.34773 345.79246 334.67118 323.08691 311.29364 299.17637 286.99209
 274.71682 262.62655 250.64828 239.96200 230.09673 221.21346 213.40819 206.42291
 200.26964 195.22037 191.81510 189.86982 188.91955 188.99628 189.84401 191.16473
 192.90246 195.01019 197.28592 199.65764 202.11537 204.60810 206.70883 208.56355
 210.20228 211.36001 211.60174 211.84246 211.79219 211.50992 211.15565 210.79837
 210.42810 210.15083 209.97156 209.84829 209.78901 210.13274 210.53147 210.93320
 211.73892 212.92965 214.19238 215.98811 217.92883 219.98456 222.09229 224.18802
 226.26074 228.35747 230.46720 232.58593 234.72765 236.91238 239.18111 241.56384
 244.19756 246.46129 248.47602 250.25375 251.68347 252.81920 253.65393 253.98266
 254.03238 253.81911 253.19184 252.15257 250.77129 248.94502 246.86675 244.71248
 242.51620 240.33293 238.16566 236.01739 233.89012 231.76984 229.80857 227.97830
 226.27403 224.75875 223.40148 222.18621 221.08094 220.05366 219.17039 218.32412
 217.57885 216.77157 215.88230 215.25903 214.72176 215.32231 216.74118 218.44048
 220.17113 221.98729 223.23764 223.33098 222.92696 222.65785 223.21011 224.41623
 226.40297 229.75792 234.00119 238.69891 243.26767 247.67056 251.84265 255.58621
 258.87219 261.89252 264.72729 267.26691 269.49295 271.43713 273.12259 274.58328
 276.51871 278.29269 279.84387 281.21381 282.40451 283.46359 284.42999 285.30875
 286.10535 286.82181 287.45712 288.30429
 366.78100 356.34823 345.79346 334.67269 323.08892 311.29615 299.17938 286.99560
 274.72083 262.63106 250.65329 239.96752 230.10275 221.21998 213.41521 206.43044
 200.27767 195.22890 191.82413 189.87936 188.92959 189.00681 189.85504 191.17627
 192.91450 195.02273 197.29896 199.67119 202.12942 204.62265 206.72388 208.57911
 210.21834 211.37657 211.61880 211.86002 211.81025 211.52848 211.17471 210.81794
 210.44817 210.17140 209.99263 209.86986 209.81109 210.15532 210.55455 210.95678
 211.76300 212.95423 214.21746 216.01369 217.95492 220.01115 222.11938 224.21561
 226.28884 228.38607 230.49630 232.61553 234.75776 236.94299 239.21221 241.59544
 244.22967 246.49390 248.50913 250.28736 251.71759 252.85382 253.68905 254.01828
 254.06851 253.85574 253.22897 252.19020 250.80942 248.98365 246.90588 244.75211
 242.55634 240.37357 238.20680 236.05903 233.93226 231.81249 229.85172 228.02195
 226.31818 224.80340 223.44663 222.23186 221.12709 220.10032 219.21755 218.37178
 217.62701 216.82024 215.93147 215.30870 214.77193 215.35252 216.72426 218.42563
 220.16570 221.94882 223.14963 223.21333 222.80534 222.51128 223.05765 224.29419
 226.34755 229.81161 234.13324 238.83325 243.38487 247.78093 251.95129 255.68430
 258.95297 261.94244 264.74356 267.23029 269.38922 271.25790 272.91623 274.80551
 276.53427 278.31662 279.87347 281.24854 282.44006 283.49567 284.46024 285.33765
 286.13290 286.84790 287.48529 288.32816
 366.78100 356.34862 345.79424 334.67386 323.09047 311.29809 299.18171 286.99833
 274.72395 262.63457 250.65719 239.97181 230.10742 221.22504 213.42066 206.43628
 200.28390 195.23552 191.83114 189.88675 188.93737 189.01499 189.86361 191.18523
 192.92385 195.03247 197.30909 199.68170 202.14032 204.63394 206.73556 208.59118
 210.23080 211.38942 211.63203 211.87365 211.82427 211.54289 211.18951 210.83313
 210.46375 210.18737 210.00898 209.88660 209.82822 210.17284 210.57246 210.97508
 211.78170 212.97331 214.23693 216.03355 217.97517 220.03179 222.14041 224.23703
 226.31065 228.40826 230.51888 232.63850 234.78112 236.96674 239.23636 241.61998
 244.25460 246.51921 248.53483 250.31345 251.74407 252.88069 253.71631 254.04593
 254.09654 253.88416 253.25778 252.21940 250.83902 249.01364 246.93626 244.78288
 242.58749 240.40511 238.23873 236.09135 233.96497 231.84559 229.88521 228.05582
 226.35244 224.83806 223.48168 222.26730 221.16292 220.13654 219.25416 218.40877
 217.66439 216.85801 215.96963 215.34725 214.81087 215.37648 216.71275 218.39346
 220.16966 221.94389 223.07019 223.05978 222.63118 222.34276 222.90855 224.18642
 226.32573 229.90108 234.27452 238.96985 243.50894 247.89906 252.06233 255.78363
 259.04004 262.02481 264.80627 267.26181 269.36288 271.12119 272.57529 274.62439
 276.53088 278.28177 279.81668 281.17609 282.35971 283.40845 284.36621 285.24036
 286.03452 286.75244 287.38495 288.22293
 366.78100 356.34880 345.79460 334.67440 323.09120 311.29900 299.18280 286.99960
 274.72540 262.63620 250.65900 239.97380 230.10960 221.22740 213.42319 206.43899
 200.28679 195.23859 191.83439 189.89019 188.94099 189.01879 189.86759 191.18939
 192.92819 195.03699 197.31379 199.68659 202.14539 204.63919 206.74099 208.59679
 210.23659 211.39539 211.63819 211.87999 211.83079 211.54959 211.19639 210.84019
 210.47099 210.19479 210.01658 209.89438 209.83618 210.18098 210.58078 210.98358
 211.79038 212.98218 214.24598 216.04278 217.98458 220.04138 222.15018 224.24698
 226.32078 228.41858 230.52938 232.64918 234.79198 236.97778 239.24758 241.63138
 244.26618 246.53098 248.54678 250.32558 251.75638 252.89318 253.72897 254.05877
 254.10957 253.89737 253.27117 252.23297 250.85277 249.02757 246.95037 244.79717
 242.60197 240.41977 238.25357 236.10637 233.98017 231.86097 229.90077 228.07157
 226.36837 224.85417 223.49797 222.28377 221.17957 220.15337 219.27117 218.42597
 217.68177 216.87557 215.98736 215.36516 214.82896 215.38921 216.71288 218.35100
 220.16423 221.95970 223.02069 222.89772 222.40569 222.11485 222.73344 224.09914
 226.32857 230.01709 234.43817 239.12917 243.65634 248.02995 252.16528 255.86247
 259.11191 262.08630 264.86517 267.31586 269.41675 271.19141 272.68365 274.53717
 276.42065 278.10651 279.60483 280.93079 282.08124 283.10590 284.05176 284.91818
 285.71326 286.44699 287.07373 287.90128
 366.78100 356.34897 345.79493 334.67490 323.09187 311.29983 299.18380 287.00077
 274.72673 262.63770 250.66067 239.97563 230.11160 221.22957 213.42553 206.44150
 200.28947 195.24143 191.83740 189.89337 188.94433 189.02230 189.87127 191.19323
 192.93220 195.04117 197.31813 199.69110 202.15007 204.64404 206.74600 208.60197
 210.24194 211.40090 211.64387 211.88584 211.83680 211.55577 211.20274 210.84670
 210.47767 210.20164 210.02360 209.90157 209.84354 210.18850 210.58847 210.99144
 211.79840 212.99037 214.25434 216.05130 217.99327 220.05024 222.15920 224.25617
 226.33014 228.42810 230.53907 232.65904 234.80200 236.98797 239.25794 241.64190
 244.27687 246.54184 248.55780 250.33677 251.76774 252.90470 253.74067 254.07064
 254.12160 253.90957 253.28354 252.24550 250.86547 249.04044 246.96340 244.81037
 242.61534 240.43330 238.26727 236.12024 233.99420 231.87517 229.91514 228.08611
 226.38307 224.86904 223.51301 222.29897 221.19494 220.16891 219.28687 218.44184
 217.69781 216.89177 216.00374 215.38171 214.84567 215.39894 216.70609 218.32249
 220.14175 221.96239 223.00316 222.77750 222.18799 221.83537 222.49648 223.96373
 226.32887 230.14214 234.62717 239.32220 243.83559 248.19492 252.30200 255.97400
 259.19696 262.15436 264.90021 267.33099 269.42194 271.22653 272.83246 274.51492
 276.32870 277.93921 279.37976 280.67065 281.80612 282.81918 283.75485 284.62039
 285.41684 286.15466 286.77039 287.59805
 366.78100 356.34902 345.79504 334.67507 323.09209 311.30011 299.18413 287.00115
 274.72718 262.63820 250.66122 239.97624 230.11227 221.23029 213.42631 206.44233
 200.29035 195.24238 191.83840 189.89442 188.94544 189.02346 189.87249 191.19451
 192.93353 195.04255 197.31958 199.69260 202.15162 204.64564 206.74766 208.60369
 210.24371 211.40273 211.64575 211.88777 211.83880 211.55782 211.20484 210.84886
 210.47988 210.20391 210.02593 209.90395 209.84597 210.19100 210.59102 210.99404
 211.80106 212.99308 214.25711 216.05413 217.99615 220.05317 222.16219 224.25922
 226.33324 228.43126 230.54228 232.66230 234.80533 236.99135 239.26137 241.64539
 244.28042 246.54544 248.56146 250.34048 251.77150 252.90853 253.74455 254.07457
 254.12559 253.91361 253.28764 252.24966 250.86968 249.04470 246.96773 244.81475
 242.61977 240.43779 238.27181 236.12484 233.99886 231.87988 229.91990 228.09092
 226.38795 224.87397 223.51799 222.30401 221.20003 220.17406 219.29208 218.44710
 217.70312 216.89715 216.00917 215.38719 214.85121 215.40051 216.69829 218.29486
 220.12488 221.93256 222.97379 222.71478 222.01854 221.56291 222.23297 223.76468
 226.28453 230.25977 234.82909 239.52913 244.02713 248.36951 252.45465 256.08835
 259.28418 262.23822 264.95541 267.36499 269.45160 271.27625 272.93701 274.54602
 276.25208 277.79013 279.17096 280.41339 281.51657 282.53799 283.49326 284.36417
 285.14539 285.82794 286.42526 287.22647
 366.78100 356.34899 345.79499 334.67498 323.09198 311.29997 299.18397 287.00096
 274.72695 262.63795 250.66094 239.97594 230.11193 221.22993 213.42592 206.44192
 200.28991 195.24190 191.83790 189.89389 188.94489 189.02288 189.87188 191.19387
 192.93286 195.04186 197.31885 199.69185 202.15084 204.64484 206.74683 208.60282
 210.24282 211.40181 211.64481 211.88680 211.83780 211.55679 211.20379 210.84778
 210.47877 210.20277 210.02476 209.90276 209.84475 210.18975 210.58974 210.99273
 211.79973 212.99172 214.25572 216.05271 217.99471 220.05170 222.16069 224.25769
 226.33168 228.42968 230.54067 232.66067 234.80366 236.98966 239.25965 241.64364
 244.27864 246.54363 248.55963 250.33862 251.76962 252.90661 253.74260 254.07260
 254.12359 253.91159 253.28558 252.24758 250.86757 249.04256 246.96556 244.81255
 242.61755 240.43554 238.26954 236.12253 233.99652 231.87752 229.91751 228.08851
 226.38550 224.87150 223.51549 222.30149 221.19748 220.17147 219.28947 218.44446
 217.70046 216.89445 216.00645 215.38444 214.84843 215.39632 216.69073 218.27504
 220.09081 221.91940 222.92534 222.56728 221.84909 221.39058 221.99672 223.60115
 226.24742 230.35345 235.01506 239.70807 244.19435 248.53082 252.59853 256.18866
 259.33606 262.25082 264.95291 267.36908 269.48358 271.35330 273.05429 274.67987
 276.27036 277.73929 279.06787 280.29132 281.36484 282.32095 283.26752 284.11609
 284.76779 285.34372 285.94489 286.79858
 366.78100 356.34805 345.79311 334.67216 323.08821 311.29526 299.17832 286.99437
 274.71942 262.62947 250.65153 239.96558 230.10063 221.21769 213.41274 206.42779
 200.27484 195.22590 191.82095 189.87600 188.92605 189.00311 189.85116 191.17221
 192.91027 195.01832 197.29437 199.66642 202.12448 204.61753 206.71858 208.57363
 210.21269 211.37074 211.61279 211.85385 211.80390 211.52195 211.16800 210.81106
 210.44111 210.16416 209.98521 209.86227 209.80332 210.14737 210.54643 210.94848
 211.75453 212.94558 214.20864 216.00469 217.94574 220.00179 222.10985 224.20590
 226.27895 228.37601 230.48606 232.60511 234.74716 236.93222 239.20127 241.58432
 244.21837 246.48243 248.49748 250.27553 251.70559 252.84164 253.67669 254.00574
 254.05580 253.84285 253.21590 252.17695 250.79601 248.97006 246.89211 244.73817
 242.54222 240.35927 238.19232 236.04438 233.91743 231.79748 229.83653 228.00659
 226.30264 224.78769 223.43075 222.21580 221.11085 220.08390 219.20096 218.35501
 217.61006 216.80311 215.91417 215.29122 214.75427 215.34839 216.75206 218.18886
 220.07228 221.84871 222.76772 222.46579 221.75475 221.10364 221.74220 223.43597
 226.26146 230.46146 235.19456 239.90048 244.37988 248.70610 252.77284 256.34161
 259.44766 262.27090 264.91064 267.30319 269.43805 271.36081 273.12476 274.80139
 276.35019 277.77316 279.07446 280.25708 281.24667 282.15497 283.08752 283.89621
 284.57431 285.29843 285.98248 286.85422
 366.78100 356.34764 345.79228 334.67092 323.08656 311.29320 299.17584 286.99148
 274.71612 262.62576 250.64740 239.96103 230.09567 221.21231 213.40695 206.42159
 200.26823 195.21887 191.81351 189.86815 188.91779 188.99443 189.84207 191.16271
 192.90035 195.00799 197.28363 199.65527 202.11291 204.60555 206.70619 208.56083
 210.19946 211.35710 211.59874 211.83938 211.78902 211.50666 211.15230 210.79494
 210.42458 210.14722 209.96786 209.84450 209.78514 210.12878 210.52742 210.92906
 211.73470 212.92534 214.18798 215.98362 217.92425 219.97989 222.08753 224.18317
 226.25581 228.35245 230.46209 232.58073 234.72237 236.90701 239.17565 241.55829
 244.19193 246.45557 248.47021 250.24785 251.67749 252.81313 253.64777 253.97641
 254.02605 253.81268 253.18532 252.14596 250.76460 248.93824 246.85988 244.70552
 242.50916 240.32580 238.15844 236.01008 233.88272 231.76236 229.80100 227.97064
 226.26628 224.75092 223.39356 222.17820 221.07284 220.04548 219.16211 218.31575
 217.57039 216.76303 215.87367 215.25031 214.71295 215.33994 216.83200 218.16394
 219.95975 221.35774 222.72517 222.87244 221.80478 220.55429 221.21597 223.34830
 226.36281 230.59396 235.37579 240.10928 244.60918 248.90750 252.92625 256.49460
 259.59927 262.39127 264.92938 267.25351 269.36591 271.28842 273.07364 274.73703
 276.27179 277.64990 278.94366 280.24484 281.41751 282.48959 283.48730 284.39117
 285.20410 285.92801 286.56042 287.36633
 366.78100 356.34678 345.79057 334.66835 323.08313 311.28892 299.17070 286.98548
 274.70927 262.61805 250.63883 239.95162 230.08540 221.20118 213.39496 206.40875
 200.25453 195.20431 191.79810 189.85188 188.90066 188.97645 189.82323 191.14301
 192.87980 194.98658 197.26136 199.63215 202.08893 204.58071 206.68050 208.53428
 210.17206 211.32885 211.56963 211.80941 211.75819 211.47498 211.11976 210.76154
 210.39033 210.11211 209.93189 209.80768 209.74746 210.09024 210.48803 210.88881
 211.69359 212.88338 214.14516 215.93994 217.87973 219.93451 222.04129 224.13608
 226.20786 228.30364 230.41243 232.53021 234.67099 236.85477 239.12256 241.50434
 244.13712 246.39991 248.41369 250.19047 251.61926 252.75404 253.58782 253.91561
 253.96439 253.75017 253.12196 252.08174 250.69952 248.87231 246.79309 244.63787
 242.44066 240.25644 238.08822 235.93901 233.81079 231.68957 229.72735 227.89614
 226.19092 224.67470 223.31649 222.10027 220.99405 219.96584 219.08162 218.23440
 217.48819 216.67997 215.78975 215.16554 214.62732 215.31720 216.92238 218.17720
 219.95288 221.62041 223.05525 222.84012 221.47667 220.36533 220.93063 223.08171
 226.27490 230.70937 235.59947 240.37466 244.86427 249.14055 253.14481 256.69788
 259.79977 262.53589 265.02512 267.30200 269.33527 271.17239 272.87015 274.47934
 276.14105 277.85666 279.61487 281.18527 282.54431 283.74670 284.84372 285.83755
 286.73138 287.52734 288.22269 289.10880
 366.78100 356.34608 345.78915 334.66623 323.08030 311.28538 299.16645 286.98053
 274.70360 262.61168 250.63175 239.94383 230.07691 221.19198 213.38506 206.39813
 200.24321 195.19228 191.78536 189.83843 188.88651 188.96159 189.80766 191.12674
 192.86281 194.96889 197.24296 199.61304 202.06911 204.56019 206.65926 208.51234
 210.14942 211.30549 211.54557 211.78464 211.73272 211.44879 211.09287 210.73394
 210.36202 210.08310 209.90217 209.77725 209.71632 210.05840 210.45547 210.85555
 211.65962 212.84870 214.10977 215.90385 217.84293 219.89700 222.00308 224.09715
 226.16823 228.26330 230.37138 232.48845 234.62853 236.81160 239.07868 241.45976
 244.09183 246.35391 248.36698 250.14306 251.57113 252.70521 253.53828 253.86536
 253.91344 253.69851 253.06959 252.02866 250.64574 248.81781 246.73789 244.58196
 242.38404 240.19911 238.03019 235.88027 233.75134 231.62942 229.66649 227.83457
 226.12864 224.61172 223.25279 222.03587 220.92895 219.90002 219.01510 218.16717
 217.42025 216.61132 215.72040 215.09547 214.55655 215.29198 216.95848 218.16756
 219.89296 221.79831 223.01947 222.66498 221.31662 219.95097 220.60477 223.05235
 226.38092 230.84290 235.74583 240.57283 245.10049 249.37213 253.36349 256.90613
 260.00122 262.72025 265.18341 267.39246 269.34558 271.08279 272.63962 274.44400
 275.85220 277.89713 279.66669 281.22049 282.56516 283.75485 284.84027 285.82358
 286.70798 287.49551 288.18350 289.06024
 366.78100 356.34644 345.78988 334.66732 323.08176 311.28719 299.16863 286.98307
 274.70651 262.61495 250.63539 239.94783 230.08127 221.19671 213.39015 206.40358
 200.24902 195.19846 191.79190 189.84534 188.89378 188.96922 189.81566 191.13510
 192.87153 194.97797 197.25241 199.62285 202.07929 204.57073 206.67017 208.52361
 210.16105 211.31749 211.55792 211.79736 211.74580 211.46224 211.10668 210.74812
 210.37656 210.09800 209.91744 209.79288 209.73231 210.07475 210.47219 210.87263
 211.67707 212.86651 214.12795 215.92239 217.86183 219.91626 222.02270 224.11714
 226.18858 228.28402 230.39246 232.50990 234.65034 236.83378 239.10122 241.48265
 244.11509 246.37753 248.39097 250.16741 251.59585 252.73029 253.56373 253.89117
 253.93960 253.72504 253.09648 252.05592 250.67336 248.84580 246.76624 244.61068
 242.41312 240.22856 238.05999 235.91043 233.78187 231.66031 229.69775 227.86619
 226.16063 224.64407 223.28551 222.06894 220.96238 219.93382 219.04926 218.20170
 217.45514 216.64658 215.75602 215.13146 214.59290 215.30351 216.93405 218.16714
 219.86301 221.79189 222.89940 222.43385 221.18961 219.57939 220.34541 223.02034
 226.46863 230.95886 235.88187 240.75714 245.33276 249.60692 253.56491 257.11633
 260.23795 262.96057 265.37067 267.52136 269.41611 271.05338 272.47247 274.17059
 275.29816 276.12698 276.84421 277.47397 278.01898 278.50119 278.94113 279.33966
 279.69812 280.01730 280.29617 280.65152
 366.78100 356.34719 345.79139 334.66958 323.08477 311.29097 299.17316 286.98835
 274.71255 262.62174 250.64293 239.95613 230.09032 221.20651 213.40071 206.41490
 200.26109 195.21129 191.80548 189.85967 188.90887 188.98506 189.83225 191.15245
 192.88964 194.99683 197.27203 199.64322 202.10041 204.59261 206.69280 208.54699
 210.18519 211.34238 211.58357 211.82377 211.77296 211.49015 211.13535 210.77754
 210.40673 210.12893 209.94912 209.82531 209.76551 210.10870 210.50689 210.90809
 211.71328 212.90347 214.16567 215.96086 217.90105 219.95625 222.06344 224.15863
 226.23083 228.32702 230.43621 232.55441 234.69560 236.87979 239.14799 241.53018
 244.16337 246.42657 248.44076 250.21795 251.64715 252.78234 253.61653 253.94473
 253.99392 253.78011 253.15231 252.11250 250.73069 248.90389 246.82508 244.67027
 242.47347 240.28966 238.12185 235.97305 233.84524 231.72443 229.76263 227.93182
 226.22701 224.71121 223.35340 222.13759 221.03179 220.00398 219.12017 218.27337
 217.52756 216.71975 215.82995 215.20614 214.66833 215.31972 216.86859 218.17607
 219.81512 221.71353 222.77725 222.20093 220.90517 219.51688 220.10651 222.88649
 226.47063 231.05267 236.01878 240.92554 245.52060 249.79173 253.72540 257.26416
 260.41574 263.16583 265.56653 267.70624 269.57559 271.15701 272.49582 273.91849
 275.17551 276.09589 276.76871 277.35953 277.87079 278.32315 278.73587 279.10974
 279.44601 279.74545 280.00705 280.34042
 366.78100 356.34789 345.79277 334.67166 323.08755 311.29444 299.17732 286.99321
 274.71810 262.62799 250.64987 239.96376 230.09865 221.21554 213.41042 206.42531
 200.27220 195.22308 191.81797 189.87286 188.92275 188.99963 189.84752 191.16841
 192.90630 195.01418 197.29007 199.66196 202.11984 204.61273 206.71362 208.56851
 210.20739 211.36528 211.60717 211.84806 211.79794 211.51583 211.16172 210.80461
 210.43449 210.15738 209.97827 209.85515 209.79604 210.13993 210.53882 210.94070
 211.74659 212.93748 214.20037 215.99625 217.93714 219.99303 222.10092 224.19680
 226.26969 228.36658 230.47646 232.59535 234.73724 236.92213 239.19101 241.57390
 244.20779 246.47168 248.48656 250.26445 251.69434 252.83023 253.66511 253.99400
 254.04389 253.83077 253.20366 252.16455 250.78344 248.95732 246.87921 244.72510
 242.52899 240.34587 238.17876 236.03065 233.90353 231.78342 229.82231 227.99220
 226.28808 224.77297 223.41586 222.20075 221.09563 220.06852 219.18541 218.33930
 217.59418 216.78707 215.89796 215.27484 214.73773 215.32755 216.76730 218.24460
 219.71126 221.47025 222.63643 222.12675 220.73520 219.39998 219.87619 222.91475
 226.57033 231.17288 236.15071 241.07312 245.66693 249.91933 253.82265 257.32736
 260.43399 263.18881 265.62686 267.80945 269.72739 271.40213 272.79666 273.98184
 274.96140 275.94119 276.76535 277.94656 279.21710 280.34119 281.36673 282.29584
 283.13144 283.87555 284.52560 285.35400
 354.97500 345.04800 334.58700 324.11500 313.32600 302.53700 291.65000 280.76700
 269.93100 259.19300 248.62200 238.61700 229.08700 220.35500 212.54000 205.53500
 199.46400 194.49300 191.14300 189.19000 188.08900 188.01400 188.72400 189.90600
 191.46900 193.38200 195.40300 197.55600 199.80700 202.06000 204.28800 206.47900
 208.55200 210.37800 212.02500 213.65900 214.99800 216.11800 217.17200 218.25900
 219.49400 220.64500 221.67900 222.61400 223.54500 224.98200 226.57100 228.19000
 229.79700 231.81100 233.86500 235.97200 238.24200 240.55300 242.89900 245.25300
 247.48800 249.53500 251.36600 252.84800 254.09800 255.16700 256.02700 256.25300
 256.09500 255.54300 253.93500 252.56600 251.38400 250.24500 249.05200 247.70100
 246.01600 243.99600 241.78400 239.39300 236.81300 234.22300 231.65800 229.14400
 226.74000 224.47300 222.33500 220.32500 218.44000 216.67700 214.96200 213.47200
 212.20000 211.10800 210.26000 209.63900 209.24400 209.03100 209.05800 209.33300
 209.78400 210.62600 211.33100 212.39100 213.62500 214.84668 217.72949 219.47640
 220.32566 220.86828 220.88710 220.27371 219.43733 218.84250 219.04934 220.86203
 222.60583 225.72206 229.03064 232.61777 236.12270 239.51333 242.70767 245.68587
 248.41061 250.90679 253.19353 254.91714 256.48655 257.94920 259.39966 260.69384
 261.81714 262.77997 263.71679 264.54570 265.26305 265.89772 266.47676 267.00133
 267.47312 267.89325 268.26027 268.72800
